nt = 720
nc = 24
channels = F7 T3 T5 Fp1 F3 C3 P3 O1 F8 T4 T6 Fp2 F4 C4 P4 O2 Fz Cz Pz Oz TR SOn Occ RAp
ne = 20
type = N
fsmp = 120.0000000000
band = 0.1 0.2 44 58 0
orig.file = s1_bl1
orig.nt = 282640
orig.sample_range = 26944 30539
orig.fsmp = 600
orig.subject = 1
orig.run = 5
   9.1386517e+00  -3.4490599e+00   3.6126197e+00   1.4723239e+01  -4.8675696e+00   1.4020993e+01   7.0365121e+00   7.4436500e+00   6.0884592e+00  -1.0967561e+01  -3.3211279e+00   3.1551298e+01  -5.7436882e+00   5.4317348e+00   4.7657327e+00  -2.4341139e+00   8.7223239e+00   1.0254113e+01   1.0606740e+01  -6.9556969e+00   0.0000000e+00   0.0000000e+00   0.0000000e+00   0.0000000e+00
   9.3873640e+00   1.4322727e-01   2.6752800e+00   1.8846733e+01  -2.7489589e+00   1.3187451e+01   6.8039951e+00   8.5486613e+00   6.8691405e+00  -1.3084708e+01  -3.7210456e+00   3.7180629e+01  -7.8544939e+00   6.9469700e+00   6.9475576e+00   4.0878732e-01   1.0150128e+01   1.1049153e+01   8.8652379e+00  -8.7002947e+00   0.0000000e+00   0.0000000e+00   0.0000000e+00   0.0000000e+00
   8.6428830e+00   2.3842384e+00   2.2054055e+00   2.1393179e+01  -1.1646716e+00   1.2846723e+01   6.7737383e+00   9.6358514e+00   7.9588112e+00  -1.4071215e+01  -3.6423834e+00   4.1332327e+01  -8.8655269e+00   8.2655938e+00   9.0976862e+00   3.1681958e+00   1.1548716e+01   1.1720716e+01   8.5329969e+00  -9.0626659e+00   0.0000000e+00   0.0000000e+00   0.0000000e+00   0.0000000e+00
   7.7194057e+00   4.7922607e+00   2.2805236e+00   2.3591496e+01   6.3408092e-01   1.3312226e+01   7.2607070e+00   1.0547113e+01   9.3638400e+00  -1.4172865e+01  -3.3858278e+00   4.4293175e+01  -8.6479153e+00   9.3472703e+00   1.1216514e+01   6.0476542e+00   1.3391869e+01   1.2487265e+01   9.2024400e+00  -8.3869566e+00   0.0000000e+00   0.0000000e+00   0.0000000e+00   0.0000000e+00
   7.9019005e+00   8.0695702e+00   2.9588807e+00   2.5329723e+01   2.2862466e+00   1.4215597e+01   8.3378514e+00   1.1739695e+01   1.0805596e+01  -1.3927615e+01  -3.2284262e+00   4.5403154e+01  -7.4554014e+00   9.8335991e+00   1.2735138e+01   8.4907767e+00   1.5622177e+01   1.3289495e+01   1.0320585e+01  -7.0299296e+00   0.0000000e+00   0.0000000e+00   0.0000000e+00   0.0000000e+00
   8.5237355e+00   1.0629740e+01   3.1389783e+00   2.5768529e+01   3.1323096e+00   1.4449154e+01   8.8930040e+00   1.2344886e+01   1.1184362e+01  -1.4045468e+01  -3.8358929e+00   4.4951987e+01  -6.5762879e+00   9.3757845e+00   1.2748513e+01   9.5263852e+00   1.7268642e+01   1.3242478e+01   1.0588593e+01  -6.1913243e+00   0.0000000e+00   0.0000000e+00   0.0000000e+00   0.0000000e+00
   8.7555413e+00   1.0525691e+01   1.5658791e+00   2.6687822e+01   3.0878216e+00   1.3566180e+01   8.0484643e+00   1.1310109e+01   1.0722184e+01  -1.4170797e+01  -5.0783451e+00   4.5316610e+01  -6.5879014e+00   8.0662883e+00   1.1373680e+01   8.9025467e+00   1.7618936e+01   1.2052629e+01   9.3924422e+00  -6.9364991e+00   0.0000000e+00   0.0000000e+00   0.0000000e+00   0.0000000e+00
   9.6537697e+00   1.0675421e+01   1.1459705e+00   2.9513696e+01   3.4207908e+00   1.3122192e+01   7.2405482e+00   1.0336131e+01   1.0814493e+01  -1.3697269e+01  -5.6993851e+00   4.7912594e+01  -6.3848860e+00   7.3293330e+00   1.0116102e+01   8.2044785e+00   1.7733499e+01   1.1036081e+01   7.7196393e+00  -7.9156392e+00   0.0000000e+00   0.0000000e+00   0.0000000e+00   0.0000000e+00
   1.0304421e+01   1.2529918e+01   1.6280962e+00   3.1203416e+01   4.0872677e+00   1.2917669e+01   6.3584513e+00   8.6400036e+00   1.1623280e+01  -1.3301053e+01  -5.8121991e+00   5.1185428e+01  -5.7023491e+00   6.9675178e+00   8.8702353e+00   7.5484715e+00   1.7717614e+01   1.0123745e+01   5.6833724e+00  -9.2986309e+00   0.0000000e+00   0.0000000e+00   0.0000000e+00   0.0000000e+00
   1.0170430e+01   1.5234118e+01   2.8723686e+00   3.0954354e+01   4.1601078e+00   1.2400683e+01   5.1950589e+00   6.9859463e+00   1.3015202e+01  -1.3143054e+01  -5.7989395e+00   5.2984139e+01  -5.1109869e+00   6.4698143e+00   7.3818227e+00   6.6327244e+00   1.7013692e+01   9.0702074e+00   3.3201304e+00  -1.1156362e+01   0.0000000e+00   0.0000000e+00   0.0000000e+00   0.0000000e+00
   9.2035543e+00   1.5897789e+01   3.0820197e+00   2.9401795e+01   2.2724910e+00   1.0734005e+01   3.1865547e+00   5.1864513e+00   1.3587765e+01  -1.3527344e+01  -6.3472704e+00   5.1875522e+01  -5.5001134e+00   5.1836923e+00   5.2928981e+00   4.9082924e+00   1.4829192e+01   7.1749157e+00   3.6122363e-01  -1.3734597e+01   0.0000000e+00   0.0000000e+00   0.0000000e+00   0.0000000e+00
   7.7256825e+00   1.2298576e+01   1.1329089e+00   2.7653199e+01  -9.9940599e-01   8.0806590e+00   4.9991691e-01   3.5612129e+00   1.2872718e+01  -1.3905017e+01  -7.3815053e+00   4.8985487e+01  -7.0603124e+00   3.5084819e+00   3.1642045e+00   2.9920676e+00   1.1369860e+01   4.5220141e+00  -2.8801808e+00  -1.6528310e+01   0.0000000e+00   0.0000000e+00   0.0000000e+00   0.0000000e+00
   6.3085645e+00   8.1620832e+00  -7.6442468e-01   2.6132949e+01  -3.9407415e+00   5.4626913e+00  -1.3726726e+00   3.2535695e+00   1.1858569e+01  -1.3724554e+01  -8.0559236e+00   4.5708589e+01  -8.7388415e+00   2.0265062e+00   1.9743245e+00   2.3486545e+00   7.7620277e+00   2.2488032e+00  -5.2273994e+00  -1.7779991e+01   0.0000000e+00   0.0000000e+00   0.0000000e+00   0.0000000e+00
   4.5474476e+00   6.7728599e+00  -1.2504315e+00   2.3533963e+01  -6.1888285e+00   3.0186848e+00  -1.9508570e+00   4.6507086e+00   9.6968497e+00  -1.4182705e+01  -8.2848615e+00   4.2560952e+01  -1.0901008e+01   7.1874158e-01   1.7177933e+00   3.2124634e+00   4.1206853e+00   3.2144586e-01  -6.6355138e+00  -1.7038558e+01   0.0000000e+00   0.0000000e+00   0.0000000e+00   0.0000000e+00
   2.4565773e+00   7.4455873e+00  -1.3095292e+00   1.9031677e+01  -7.9529353e+00   1.4787555e+00  -1.5092408e+00   6.7423702e+00   6.3217317e+00  -1.5728900e+01  -8.1704070e+00   3.8662770e+01  -1.3360669e+01  -3.9749876e-01   2.1766126e+00   4.8121348e+00   6.8055659e-01  -1.6064633e+00  -7.0739566e+00  -1.5132499e+01   0.0000000e+00   0.0000000e+00   0.0000000e+00   0.0000000e+00
   5.0338528e-01   8.4804643e+00  -1.0370749e+00   1.4806107e+01  -9.6473575e+00   1.2396153e+00  -1.8664169e-01   8.5431836e+00   3.2477962e+00  -1.7608190e+01  -7.7076204e+00   3.4321596e+01  -1.5257592e+01  -1.1142777e+00   3.0529926e+00   6.8536852e+00  -2.0275280e+00  -3.2102572e+00  -6.6380304e+00  -1.2694508e+01   0.0000000e+00   0.0000000e+00   0.0000000e+00   0.0000000e+00
  -7.2861000e-01   8.3676071e+00  -8.0214035e-01   1.2629023e+01  -1.0750533e+01   1.3564453e+00   1.0675490e+00   9.3945955e+00   1.0542246e+00  -1.9697155e+01  -7.2030605e+00   3.0953771e+01  -1.6674020e+01  -2.0932292e+00   3.4954717e+00   9.0013366e+00  -4.0468785e+00  -4.4118219e+00  -6.0776711e+00  -1.0288998e+01   0.0000000e+00   0.0000000e+00   0.0000000e+00   0.0000000e+00
  -1.0442526e+00   7.4405620e+00  -6.5380720e-01   1.2103346e+01  -1.0994344e+01   1.0618713e+00   1.4059073e+00   9.6862993e+00  -6.4778703e-01  -2.2075147e+01  -7.0111584e+00   2.8032416e+01  -1.8335423e+01  -3.7765843e+00   2.9242780e+00   1.0553475e+01  -5.6440928e+00  -5.4558375e+00  -6.2556412e+00  -8.1729225e+00   0.0000000e+00   0.0000000e+00   0.0000000e+00   0.0000000e+00
  -1.0830356e+00   7.1064515e+00  -6.4124484e-01   1.1199993e+01  -1.1264923e+01   2.1496633e-01   9.0944914e-01   9.3642661e+00  -1.7988944e+00  -2.4577182e+01  -7.3145396e+00   2.4471817e+01  -2.0425372e+01  -6.0914210e+00   1.5101027e+00   1.1105123e+01  -6.9263819e+00  -6.6456702e+00  -7.1948558e+00  -6.4173990e+00   0.0000000e+00   0.0000000e+00   0.0000000e+00   0.0000000e+00
  -1.4745730e+00   7.5393273e+00  -5.7034175e-01   8.0735345e+00  -1.1714590e+01  -8.5591085e-01   6.1235472e-02   8.4822100e+00  -3.1529780e+00  -2.6513774e+01  -8.3043146e+00   2.1466429e+01  -2.2861272e+01  -8.3421637e+00  -1.5340179e-01   1.0865250e+01  -7.7758083e+00  -8.0461936e+00  -8.3853610e+00  -5.1312718e+00   0.0000000e+00   0.0000000e+00   0.0000000e+00   0.0000000e+00
  -2.4293982e+00   8.4018848e+00  -4.0043023e-01   4.2381762e+00  -1.2314030e+01  -1.2500517e+00  -7.6099251e-01   6.9410478e+00  -5.1302092e+00  -2.7603929e+01  -9.6461797e+00   1.9324145e+01  -2.4630624e+01  -9.8358945e+00  -1.5317866e+00   1.0042024e+01  -7.6209093e+00  -9.2168779e+00  -9.1812533e+00  -4.3359462e+00   0.0000000e+00   0.0000000e+00   0.0000000e+00   0.0000000e+00
  -4.1415472e+00   8.9423981e+00  -2.3449146e-01   8.2743155e-01  -1.3550511e+01  -1.3947336e+00  -1.5547443e+00   4.5707420e+00  -7.0150817e+00  -2.8046786e+01  -1.1114083e+01   1.7302020e+01  -2.5209829e+01  -1.0401759e+01  -2.5084919e+00   9.0149462e+00  -6.7470212e+00  -1.0086972e+01  -9.7558104e+00  -4.2464515e+00   0.0000000e+00   0.0000000e+00   0.0000000e+00   0.0000000e+00
  -6.5944718e+00   7.8929785e+00  -2.0974547e-01  -3.5221569e+00  -1.6122542e+01  -2.1024597e+00  -2.4212982e+00   2.1327576e+00  -8.0098018e+00  -2.8190102e+01  -1.2669880e+01   1.4609816e+01  -2.5158340e+01  -1.0571855e+01  -3.1889570e+00   8.0915723e+00  -6.1543104e+00  -1.1093703e+01  -1.0443163e+01  -4.8708818e+00   0.0000000e+00   0.0000000e+00   0.0000000e+00   0.0000000e+00
  -9.7064817e+00   5.3025647e+00  -4.9264386e-01  -8.8421974e+00  -2.0096624e+01  -3.3790691e+00  -2.9647527e+00   1.1156431e+00  -8.6165459e+00  -2.8683065e+01  -1.3952934e+01   1.0034646e+01  -2.5453901e+01  -1.0473619e+01  -3.3703754e+00   7.8970214e+00  -6.5388747e+00  -1.2386258e+01  -1.1192922e+01  -5.4892834e+00   0.0000000e+00   0.0000000e+00   0.0000000e+00   0.0000000e+00
  -1.3503181e+01   3.2730326e+00  -7.9924068e-01  -1.5952891e+01  -2.4965182e+01  -4.8787111e+00  -2.7925552e+00   2.2646925e+00  -9.6533651e+00  -2.9439815e+01  -1.4608487e+01   1.4379503e+00  -2.6206047e+01  -1.0099471e+01  -3.0250694e+00   8.4449470e+00  -7.8106347e+00  -1.3680089e+01  -1.1502277e+01  -5.3997258e+00   0.0000000e+00   0.0000000e+00   0.0000000e+00   0.0000000e+00
  -1.7655261e+01   2.1777786e+00  -9.7211510e-01  -2.6745044e+01  -3.0179042e+01  -6.5381493e+00  -2.3538943e+00   4.7005071e+00  -1.1947216e+01  -3.0445927e+01  -1.4938304e+01  -1.1431973e+01  -2.7655990e+01  -9.3544412e+00  -2.3998367e+00   8.9427483e+00  -1.0098885e+01  -1.4946967e+01  -1.1485186e+01  -4.8223776e+00   0.0000000e+00   0.0000000e+00   0.0000000e+00   0.0000000e+00
  -2.2167332e+01   1.2217974e+00  -1.3544982e+00  -4.2250761e+01  -3.6709336e+01  -8.6989326e+00  -2.4500124e+00   6.3625897e+00  -1.4902051e+01  -3.1277465e+01  -1.5304457e+01  -2.7225134e+01  -3.0453162e+01  -8.9417305e+00  -1.9294001e+00   8.5085737e+00  -1.3935057e+01  -1.6654526e+01  -1.1666422e+01  -4.6530110e+00   0.0000000e+00   0.0000000e+00   0.0000000e+00   0.0000000e+00
  -2.8023081e+01  -9.2903563e-01  -2.4410747e+00  -6.3739720e+01  -4.6248377e+01  -1.2523759e+01  -3.9777175e+00   6.0159360e+00  -1.8342661e+01  -3.2694827e+01  -1.6190033e+01  -4.7609469e+01  -3.5950486e+01  -1.0030003e+01  -2.4185344e+00   6.7831785e+00  -2.0385022e+01  -1.9901059e+01  -1.2927618e+01  -5.8005876e+00   0.0000000e+00   0.0000000e+00   0.0000000e+00   0.0000000e+00
  -3.5829583e+01  -4.6606357e+00  -4.2708101e+00  -9.2860255e+01  -5.9639171e+01  -1.8574679e+01  -7.1425804e+00   3.7915234e+00  -2.3062961e+01  -3.5957055e+01  -1.7678615e+01  -7.5458021e+01  -4.4452962e+01  -1.3314431e+01  -4.4720298e+00   4.1519783e+00  -3.0084010e+01  -2.5217245e+01  -1.5440738e+01  -8.2486874e+00   0.0000000e+00   0.0000000e+00   0.0000000e+00   0.0000000e+00
  -4.5590479e+01  -9.3204701e+00  -6.7900194e+00  -1.2907288e+02  -7.6706755e+01  -2.7059260e+01  -1.1709074e+01   6.5811996e-01  -2.9665436e+01  -4.1018101e+01  -1.9809743e+01  -1.1114318e+02  -5.6243501e+01  -1.8797384e+01  -8.3803072e+00   1.2365585e+00  -4.3144155e+01  -3.2613071e+01  -1.9354090e+01  -1.1710759e+01   0.0000000e+00   0.0000000e+00   0.0000000e+00   0.0000000e+00
  -5.6126927e+01  -1.3797733e+01  -9.5331617e+00  -1.6728185e+02  -9.5279583e+01  -3.6818826e+01  -1.6623438e+01  -2.0875246e+00  -3.6890121e+01  -4.6809740e+01  -2.2039733e+01  -1.5013513e+02  -7.0083663e+01  -2.5221422e+01  -1.3015890e+01  -8.6297731e-01  -5.7750133e+01  -4.1003207e+01  -2.3828320e+01  -1.5120092e+01   0.0000000e+00   0.0000000e+00   0.0000000e+00   0.0000000e+00
  -6.5958436e+01  -1.7866859e+01  -1.1997392e+01  -2.0074605e+02  -1.1103365e+02  -4.5502461e+01  -2.0691964e+01  -3.6783430e+00  -4.3659129e+01  -5.1973124e+01  -2.3865652e+01  -1.8477305e+02  -8.2978945e+01  -3.0717366e+01  -1.6860374e+01  -1.5924862e+00  -7.0840349e+01  -4.8551855e+01  -2.7600222e+01  -1.7369358e+01   0.0000000e+00   0.0000000e+00   0.0000000e+00   0.0000000e+00
  -7.3539676e+01  -2.1198923e+01  -1.3703482e+01  -2.2561386e+02  -1.2060615e+02  -5.1011373e+01  -2.3264941e+01  -4.2409933e+00  -4.8311382e+01  -5.5223105e+01  -2.5299170e+01  -2.0999759e+02  -9.2237348e+01  -3.4482295e+01  -1.9381500e+01  -1.8741027e+00  -8.0048050e+01  -5.3666134e+01  -2.9758084e+01  -1.8186548e+01   0.0000000e+00   0.0000000e+00   0.0000000e+00   0.0000000e+00
  -7.8629866e+01  -2.3534130e+01  -1.4454108e+01  -2.4061991e+02  -1.2536679e+02  -5.3100424e+01  -2.4532752e+01  -4.4089594e+00  -5.0319875e+01  -5.6245541e+01  -2.6589883e+01  -2.2427990e+02  -9.7309209e+01  -3.6460872e+01  -2.0942878e+01  -2.4786069e+00  -8.4797106e+01  -5.6144192e+01  -3.0622476e+01  -1.8346724e+01   0.0000000e+00   0.0000000e+00   0.0000000e+00   0.0000000e+00
  -8.0656536e+01  -2.3965760e+01  -1.4120741e+01  -2.4403082e+02  -1.2765220e+02  -5.2540297e+01  -2.4733267e+01  -5.0025080e+00  -5.0261553e+01  -5.5653439e+01  -2.7393151e+01  -2.2776563e+02  -9.8073523e+01  -3.6892095e+01  -2.1830567e+01  -3.1087119e+00  -8.5298875e+01  -5.6220792e+01  -3.0635562e+01  -1.8424709e+01   0.0000000e+00   0.0000000e+00   0.0000000e+00   0.0000000e+00
  -7.8671715e+01  -2.2536845e+01  -1.3358134e+01  -2.3729015e+02  -1.2566538e+02  -5.0059840e+01  -2.3886963e+01  -6.0383252e+00  -4.8546139e+01  -5.4389534e+01  -2.7061756e+01  -2.2267355e+02  -9.5220807e+01  -3.6030453e+01  -2.1915431e+01  -2.6898174e+00  -8.2442904e+01  -5.4051721e+01  -2.9968542e+01  -1.8120968e+01   0.0000000e+00   0.0000000e+00   0.0000000e+00   0.0000000e+00
  -7.3381785e+01  -1.9505957e+01  -1.2700953e+01  -2.2482431e+02  -1.1839467e+02  -4.5543574e+01  -2.1954670e+01  -6.6548034e+00  -4.5176350e+01  -5.2499426e+01  -2.5466520e+01  -2.1027059e+02  -8.9650198e+01  -3.3796570e+01  -2.0861370e+01  -1.1357370e+00  -7.6967152e+01  -4.9786202e+01  -2.8278920e+01  -1.6788183e+01   0.0000000e+00   0.0000000e+00   0.0000000e+00   0.0000000e+00
  -6.6828770e+01  -1.6059070e+01  -1.2134484e+01  -2.0730139e+02  -1.0917323e+02  -3.9917481e+01  -1.9578589e+01  -6.5738279e+00  -4.0525325e+01  -4.9266271e+01  -2.3424782e+01  -1.9054530e+02  -8.2865381e+01  -3.0547946e+01  -1.8969421e+01   4.1741784e-01  -7.0057519e+01  -4.4251907e+01  -2.5797435e+01  -1.4589099e+01   0.0000000e+00   0.0000000e+00   0.0000000e+00   0.0000000e+00
  -5.9663148e+01  -1.2988255e+01  -1.1599157e+01  -1.8438783e+02  -1.0001729e+02  -3.4506966e+01  -1.7251608e+01  -6.3176823e+00  -3.5183569e+01  -4.5320068e+01  -2.1403345e+01  -1.6687227e+02  -7.5861161e+01  -2.6745755e+01  -1.6501169e+01   1.3945032e+00  -6.2818203e+01  -3.8432206e+01  -2.2793976e+01  -1.2121252e+01   0.0000000e+00   0.0000000e+00   0.0000000e+00   0.0000000e+00
  -5.1844069e+01  -9.7086146e+00  -1.0809815e+01  -1.5947195e+02  -9.0471258e+01  -2.9879377e+01  -1.4973915e+01  -5.8901511e+00  -2.9701283e+01  -4.1728153e+01  -1.9415806e+01  -1.4356392e+02  -6.8727586e+01  -2.2592325e+01  -1.3477873e+01   2.1525471e+00  -5.5576990e+01  -3.2628748e+01  -1.9513545e+01  -9.7271176e+00   0.0000000e+00   0.0000000e+00   0.0000000e+00   0.0000000e+00
  -4.4379522e+01  -6.1530884e+00  -9.6635089e+00  -1.3639411e+02  -8.0102142e+01  -2.5769374e+01  -1.2660591e+01  -5.0847662e+00  -2.4049148e+01  -3.8351444e+01  -1.7398729e+01  -1.2281624e+02  -6.1151192e+01  -1.8480200e+01  -1.0222916e+01   2.8735523e+00  -4.8078815e+01  -2.6743080e+01  -1.6154545e+01  -7.3817179e+00   0.0000000e+00   0.0000000e+00   0.0000000e+00   0.0000000e+00
  -3.7957706e+01  -3.2666791e+00  -8.3405252e+00  -1.1686103e+02  -6.9941473e+01  -2.1670995e+01  -1.0488198e+01  -4.1175035e+00  -1.8649754e+01  -3.4740113e+01  -1.5771850e+01  -1.0349315e+02  -5.3593826e+01  -1.4586163e+01  -7.2404515e+00   3.2997946e+00  -4.0603864e+01  -2.0963111e+01  -1.3220902e+01  -5.1048623e+00   0.0000000e+00   0.0000000e+00   0.0000000e+00   0.0000000e+00
  -3.1850463e+01  -1.1395605e+00  -6.7565933e+00  -9.9741937e+01  -6.1295075e+01  -1.7035869e+01  -8.3995213e+00  -3.1232989e+00  -1.3804097e+01  -3.0629379e+01  -1.4352664e+01  -8.4232896e+01  -4.6016350e+01  -1.0865730e+01  -4.5334149e+00   3.6580457e+00  -3.3357893e+01  -1.5331171e+01  -1.0817215e+01  -2.7990705e+00   0.0000000e+00   0.0000000e+00   0.0000000e+00   0.0000000e+00
  -2.6234466e+01   1.7812702e-01  -5.4544408e+00  -8.2678573e+01  -5.4156439e+01  -1.2307968e+01  -6.4419317e+00  -2.2872702e+00  -9.8678237e+00  -2.6759230e+01  -1.2993991e+01  -6.5616368e+01  -3.8734052e+01  -7.6784083e+00  -2.2543850e+00   3.9901452e+00  -2.6808061e+01  -1.0081167e+01  -9.0902540e+00  -6.0758819e-01   0.0000000e+00   0.0000000e+00   0.0000000e+00   0.0000000e+00
  -2.1744379e+01   1.2025552e+00  -4.7973835e+00  -6.5528091e+01  -4.7799818e+01  -8.2536389e+00  -4.6372549e+00  -1.4633396e+00  -6.9079429e+00  -2.3586737e+01  -1.2008264e+01  -4.8579377e+01  -3.2536892e+01  -5.3771328e+00  -4.0822536e-01   4.3293421e+00  -2.1276844e+01  -5.5528582e+00  -7.7755690e+00   1.4995507e+00   0.0000000e+00   0.0000000e+00   0.0000000e+00   0.0000000e+00
  -1.8294659e+01   2.2532662e+00  -4.6943468e+00  -5.0532550e+01  -4.1759645e+01  -5.1984665e+00  -3.1562443e+00  -5.1887522e-01  -5.1059227e+00  -2.1713298e+01  -1.1424204e+01  -3.4300697e+01  -2.8386049e+01  -3.7106408e+00   1.1925812e+00   4.5908445e+00  -1.7039102e+01  -2.2046269e+00  -6.6264176e+00   3.2891099e+00   0.0000000e+00   0.0000000e+00   0.0000000e+00   0.0000000e+00
  -1.5499893e+01   3.4071097e+00  -4.9339191e+00  -3.9960238e+01  -3.7297106e+01  -2.9431612e+00  -2.0760814e+00   8.7568810e-01  -4.3268852e+00  -2.1184565e+01  -1.0819254e+01  -2.2532540e+01  -2.6108363e+01  -2.7261169e+00   2.4668672e+00   4.4293297e+00  -1.4022158e+01  -2.6823878e-01  -5.4265981e+00   4.5480746e+00   0.0000000e+00   0.0000000e+00   0.0000000e+00   0.0000000e+00
  -1.3249283e+01   4.6498852e+00  -5.0237201e+00  -3.1785276e+01  -3.5126006e+01  -1.4042377e+00  -1.4479345e+00   2.6210655e+00  -3.7564204e+00  -2.0903900e+01  -1.0012630e+01  -1.1988353e+01  -2.4727063e+01  -2.5764600e+00   3.0768955e+00   4.1203567e+00  -1.1847265e+01   5.4846688e-01  -4.3826356e+00   5.4233503e+00   0.0000000e+00   0.0000000e+00   0.0000000e+00   0.0000000e+00
  -1.1408147e+01   5.6867792e+00  -4.6334677e+00  -2.2525309e+01  -3.3415605e+01   2.2377088e-01  -9.3838083e-01   3.4559069e+00  -2.2302468e+00  -2.0556659e+01  -9.1031974e+00  -2.2282894e+00  -2.3456164e+01  -2.7134544e+00   3.1725331e+00   3.8814034e+00  -9.8366211e+00   9.1329353e-01  -3.5011689e+00   6.0622220e+00   0.0000000e+00   0.0000000e+00   0.0000000e+00   0.0000000e+00
  -9.8113213e+00   5.3971873e+00  -3.9872975e+00  -1.2638085e+01  -3.0354051e+01   2.2728814e+00  -2.8731220e-01   3.0824634e+00  -3.0459163e-01  -2.0585981e+01  -8.4989701e+00   6.1956622e+00  -2.1748965e+01  -2.4284235e+00   2.9812906e+00   3.3333534e+00  -7.4702476e+00   1.1917342e+00  -2.7775643e+00   6.4376420e+00   0.0000000e+00   0.0000000e+00   0.0000000e+00   0.0000000e+00
  -8.2371377e+00   4.6295552e+00  -3.3212528e+00  -4.9803762e+00  -2.6265383e+01   4.2868568e+00   4.9580207e-01   2.2417367e+00   1.3673655e+00  -2.0115381e+01  -8.1192881e+00   1.3385887e+01  -1.9201041e+01  -1.4879121e+00   2.6890762e+00   2.4908653e+00  -4.4818620e+00   1.6018593e+00  -2.0704619e+00   6.6303011e+00   0.0000000e+00   0.0000000e+00   0.0000000e+00   0.0000000e+00
  -6.6649056e+00   5.1034273e+00  -2.6019177e+00   3.4704125e-01  -2.3050304e+01   5.5785352e+00   1.2515031e+00   1.7956137e+00   2.4384420e+00  -1.8487644e+01  -7.7844699e+00   2.0244463e+01  -1.5919155e+01   2.2622186e-01   2.7441547e+00   2.1608605e+00  -1.0569685e+00   2.3360027e+00  -1.3013094e+00   7.0701385e+00   0.0000000e+00   0.0000000e+00   0.0000000e+00   0.0000000e+00
  -5.3257925e+00   7.0056549e+00  -1.7823695e+00   5.9744493e+00  -2.0908433e+01   6.4534149e+00   1.9374172e+00   1.8720570e+00   3.5942875e+00  -1.6312829e+01  -7.3858208e+00   2.6812997e+01  -1.1742554e+01   2.5666580e+00   3.3827267e+00   2.5012151e+00   2.7069653e+00   3.5968968e+00  -3.9123261e-01   7.9688592e+00   0.0000000e+00   0.0000000e+00   0.0000000e+00   0.0000000e+00
  -4.1774009e+00   9.6022821e+00  -8.5700201e-01   1.2416035e+01  -1.8676953e+01   6.7951372e+00   2.4411338e+00   2.1447793e+00   5.4109685e+00  -1.5223215e+01  -6.9765002e+00   3.2253336e+01  -7.1731090e+00   5.0099978e+00   4.2764671e+00   3.0562669e+00   6.2780534e+00   5.1518199e+00   2.2363802e-01   8.8437934e+00   0.0000000e+00   0.0000000e+00   0.0000000e+00   0.0000000e+00
  -2.4655606e+00   1.2204327e+01   1.2834181e-01   1.7999167e+01  -1.6191609e+01   6.7268909e+00   3.1227744e+00   2.8355859e+00   7.4070999e+00  -1.5047840e+01  -6.6850607e+00   3.6368276e+01  -2.6831083e+00   6.8793003e+00   5.0316882e+00   3.9442399e+00   9.1048492e+00   6.6072387e+00   3.3704100e-01   9.5192923e+00   0.0000000e+00   0.0000000e+00   0.0000000e+00   0.0000000e+00
  -4.0520955e-01   1.3616106e+01   1.0036422e+00   2.2771204e+01  -1.3892987e+01   7.2060672e+00   4.5777535e+00   3.9912388e+00   8.9977074e+00  -1.4908602e+01  -6.5572650e+00   4.0707444e+01   1.0948402e+00   8.1018832e+00   5.6525302e+00   5.4400574e+00   1.1074889e+01   7.8381382e+00   1.6162481e-01   1.0177234e+01   0.0000000e+00   0.0000000e+00   0.0000000e+00   0.0000000e+00
   1.2778725e+00   1.4171526e+01   1.9069314e+00   2.6408250e+01  -1.2244745e+01   8.2035202e+00   6.7097411e+00   5.1076394e+00   1.0179890e+01  -1.4907989e+01  -6.4394376e+00   4.4800509e+01   3.6979248e+00   8.4280308e+00   6.1152649e+00   7.0035907e+00   1.2211597e+01   8.6291479e+00  -7.3056605e-03   1.0805537e+01   0.0000000e+00   0.0000000e+00   0.0000000e+00   0.0000000e+00
   2.2891351e+00   1.4861366e+01   2.9283655e+00   2.8910655e+01  -1.1338634e+01   8.8038732e+00   8.7176020e+00   6.3591845e+00   9.9526293e+00  -1.5198129e+01  -6.3607075e+00   4.7011472e+01   4.9437306e+00   7.7675571e+00   6.1536316e+00   8.1128706e+00   1.2246149e+01   8.5948364e+00  -4.7357798e-01   1.1229076e+01   0.0000000e+00   0.0000000e+00   0.0000000e+00   0.0000000e+00
   3.1988232e+00   1.5729465e+01   3.7373197e+00   3.2231644e+01  -1.0952366e+01   9.1346541e+00   1.0183238e+01   8.1078987e+00   8.3719596e+00  -1.5715545e+01  -6.4450466e+00   4.8034119e+01   5.3191905e+00   6.4565462e+00   5.5952093e+00   8.5598410e+00   1.1601293e+01   7.8133373e+00  -1.4213070e+00   1.1460103e+01   0.0000000e+00   0.0000000e+00   0.0000000e+00   0.0000000e+00
   4.2324677e+00   1.6456889e+01   4.0906341e+00   3.5036994e+01  -1.0596854e+01   9.2226236e+00   1.0856639e+01   9.6214322e+00   6.8424543e+00  -1.6097210e+01  -6.5075848e+00   4.9469659e+01   5.1474706e+00   4.7272797e+00   4.4635937e+00   8.8884777e+00   1.0846295e+01   6.5822889e+00  -2.8778430e+00   1.1541959e+01   0.0000000e+00   0.0000000e+00   0.0000000e+00   0.0000000e+00
   5.2850951e+00   1.7156300e+01   3.7741124e+00   3.5761662e+01  -1.0027756e+01   9.0565090e+00   1.0770214e+01   9.8626062e+00   6.7353233e+00  -1.6038232e+01  -6.2482839e+00   5.1088466e+01   4.5038391e+00   2.8488642e+00   3.0928115e+00   9.2823610e+00   1.0221326e+01   5.2283771e+00  -4.4583173e+00   1.1395589e+01   0.0000000e+00   0.0000000e+00   0.0000000e+00   0.0000000e+00
   5.9421360e+00   1.8178049e+01   3.3154482e+00   3.6598198e+01  -9.1772118e+00   8.6559329e+00   1.0548543e+01   9.4766431e+00   7.3166383e+00  -1.5234789e+01  -5.7891726e+00   5.1427329e+01   3.6401809e+00   1.4362498e+00   1.9239614e+00   9.1905221e+00   9.6227152e+00   3.9510573e+00  -5.7320556e+00   1.1012098e+01   0.0000000e+00   0.0000000e+00   0.0000000e+00   0.0000000e+00
   6.4214709e+00   2.0498866e+01   4.6574152e+00   3.9192491e+01  -8.0589665e+00   8.9239982e+00   1.1234909e+01   1.0015049e+01   7.6446493e+00  -1.4207191e+01  -5.0157522e+00   5.1294218e+01   3.3012453e+00   8.9658301e-01   1.3958468e+00   8.9963138e+00   9.4748318e+00   3.0385821e+00  -5.9751545e+00   1.1261579e+01   0.0000000e+00   0.0000000e+00   0.0000000e+00   0.0000000e+00
   6.3218983e+00   2.1456199e+01   5.5299159e+00   4.1135311e+01  -7.6098834e+00   8.9273008e+00   1.1348221e+01   1.0079315e+01   6.6713488e+00  -1.4527914e+01  -4.9098750e+00   5.1608959e+01   2.5829432e+00   2.1947872e-01   5.6336440e-01   8.1289491e+00   8.9070539e+00   1.5585271e+00  -6.1079785e+00   1.1055135e+01   0.0000000e+00   0.0000000e+00   0.0000000e+00   0.0000000e+00
   6.6495376e+00   2.1310177e+01   6.5239654e+00   4.1887513e+01  -6.8652018e+00   8.8916541e+00   1.1039406e+01   1.0593468e+01   5.7521537e+00  -1.5210493e+01  -4.9186603e+00   5.2595450e+01   1.9434437e+00  -3.5465850e-01  -1.2400104e-01   7.3308139e+00   8.4626887e+00   2.6614972e-01  -5.7858538e+00   1.0909399e+01   0.0000000e+00   0.0000000e+00   0.0000000e+00   0.0000000e+00
   7.6089058e+00   2.1290768e+01   7.2882301e+00   4.2096344e+01  -6.8468678e+00   8.4854273e+00   1.0659309e+01   1.1135875e+01   5.9594322e+00  -1.5461817e+01  -4.7705396e+00   5.3819811e+01   1.3579300e+00  -6.3336622e-01  -4.6039133e-01   6.9279498e+00   8.3387779e+00  -6.3635988e-01  -5.1808039e+00   1.0910489e+01   0.0000000e+00   0.0000000e+00   0.0000000e+00   0.0000000e+00
   8.7324010e+00   2.1857130e+01   7.8644830e+00   4.2579706e+01  -7.3949189e+00   7.9220418e+00   1.0497752e+01   1.1228143e+01   7.3275060e+00  -1.5141754e+01  -4.3586665e+00   5.5230099e+01   1.0228576e+00  -5.9928951e-01  -3.7079722e-01   6.6210001e+00   8.3971015e+00  -1.2050306e+00  -4.5051577e+00   1.0819382e+01   0.0000000e+00   0.0000000e+00   0.0000000e+00   0.0000000e+00
   8.8214738e+00   2.2234395e+01   8.0886400e+00   4.2805635e+01  -6.9475877e+00   7.5910555e+00   1.0474896e+01   1.0698185e+01   8.4267158e+00  -1.4413894e+01  -3.7762553e+00   5.5398910e+01   1.1865068e+00  -3.7491661e-01  -1.4639829e-02   6.1604880e+00   8.2248103e+00  -1.7060215e+00  -4.0000853e+00   1.0460645e+01   0.0000000e+00   0.0000000e+00   0.0000000e+00   0.0000000e+00
   7.9358670e+00   2.2009400e+01   8.1373600e+00   4.1627318e+01  -5.7460490e+00   7.6465975e+00   1.0518679e+01   9.8252079e+00   8.7980579e+00  -1.3307573e+01  -2.9383081e+00   5.4703487e+01   2.4575031e+00   2.0980843e-01   5.7970366e-01   5.8576672e+00   8.1202396e+00  -2.0524283e+00  -3.6231449e+00   9.9395451e+00   0.0000000e+00   0.0000000e+00   0.0000000e+00   0.0000000e+00
   7.0228042e+00   2.0690121e+01   7.9679741e+00   3.9066961e+01  -5.5832317e+00   7.6365397e+00   9.9906750e+00   8.8563829e+00   9.0323941e+00  -1.2651641e+01  -2.3094517e+00   5.4414969e+01   4.2084291e+00   8.1098784e-01   1.0608053e+00   5.5228494e+00   8.1579420e+00  -2.3193968e+00  -3.6428731e+00   9.1714159e+00   0.0000000e+00   0.0000000e+00   0.0000000e+00   0.0000000e+00
   6.6587334e+00   1.9397979e+01   7.6636921e+00   3.7605987e+01  -6.7750729e+00   7.0314887e+00   8.7167114e+00   8.0192758e+00   9.6987037e+00  -1.2556105e+01  -2.1820461e+00   5.5432879e+01   5.3703962e+00   8.8617795e-01   1.2130729e+00   5.0067001e+00   8.1964176e+00  -2.5577043e+00  -3.9740276e+00   8.2466256e+00   0.0000000e+00   0.0000000e+00   0.0000000e+00   0.0000000e+00
   6.6046481e+00   1.9464701e+01   7.4317786e+00   3.8617093e+01  -7.6053600e+00   5.6825092e+00   7.0994637e+00   7.1710933e+00   1.0947456e+01  -1.2513936e+01  -2.5422818e+00   5.7421366e+01   5.8067236e+00   4.6135239e-01   8.2304244e-01   4.6518973e+00   8.1610096e+00  -2.6456161e+00  -4.5611966e+00   7.3524100e+00   0.0000000e+00   0.0000000e+00   0.0000000e+00   0.0000000e+00
   6.8913142e+00   2.0888935e+01   7.8424008e+00   4.0005234e+01  -7.1188371e+00   4.3278391e+00   5.8255488e+00   6.4666417e+00   1.2927070e+01  -1.1954818e+01  -2.9011978e+00   5.9466989e+01   6.2293152e+00   5.8141138e-02   1.8960199e-01   5.0058002e+00   8.4812788e+00  -2.2097572e+00  -4.9839408e+00   6.9181095e+00   0.0000000e+00   0.0000000e+00   0.0000000e+00   0.0000000e+00
   7.3433502e+00   2.2625987e+01   8.6745528e+00   4.0869544e+01  -6.2995992e+00   3.2182673e+00   5.1564014e+00   6.2159403e+00   1.4358168e+01  -1.0960055e+01  -3.0845573e+00   6.1231773e+01   6.9309113e+00   1.5282735e-01  -2.7714881e-01   6.0340424e+00   9.2093244e+00  -1.3018315e+00  -5.1082115e+00   7.0552946e+00   0.0000000e+00   0.0000000e+00   0.0000000e+00   0.0000000e+00
   8.0785926e+00   2.3873136e+01   9.2143464e+00   4.1805127e+01  -5.4549730e+00   2.8148523e+00   5.1597202e+00   6.3742500e+00   1.4216570e+01  -1.0439526e+01  -3.1994635e+00   6.2202955e+01   7.9846093e+00   1.0787033e+00  -2.7658611e-01   7.0128600e+00   1.0206257e+01  -3.9163817e-01  -4.9440089e+00   7.3574019e+00   0.0000000e+00   0.0000000e+00   0.0000000e+00   0.0000000e+00
   8.9647976e+00   2.4587235e+01   9.3537312e+00   4.2690627e+01  -4.3202223e+00   3.1864538e+00   5.4590822e+00   6.0901845e+00   1.3172004e+01  -1.0768405e+01  -3.2181842e+00   6.2307722e+01   9.0027946e+00   2.4381319e+00   1.9968540e-02   7.2645971e+00   1.1131546e+01   2.9700691e-01  -4.7017390e+00   7.3230216e+00   0.0000000e+00   0.0000000e+00   0.0000000e+00   0.0000000e+00
   9.4752461e+00   2.4000850e+01   9.3853546e+00   4.2542608e+01  -3.6242091e+00   3.8253283e+00   5.5795923e+00   5.4281223e+00   1.2588512e+01  -1.0758899e+01  -3.3015890e+00   6.2273563e+01   1.0015423e+01   3.4505375e+00   7.5511464e-02   6.7383148e+00   1.1772133e+01   8.2534662e-01  -4.6077052e+00   6.9496567e+00   0.0000000e+00   0.0000000e+00   0.0000000e+00   0.0000000e+00
   9.6142099e+00   2.1854398e+01   9.4242367e+00   4.1485424e+01  -3.6125551e+00   4.0413911e+00   5.3881355e+00   4.9894793e+00   1.2324478e+01  -9.9971711e+00  -3.4558689e+00   6.2167868e+01   1.0984499e+01   4.0193341e+00  -1.1546811e-01   5.8567665e+00   1.1917947e+01   1.1980911e+00  -4.6250612e+00   6.5605587e+00   0.0000000e+00   0.0000000e+00   0.0000000e+00   0.0000000e+00
   9.5015005e+00   1.9976880e+01   9.3640263e+00   4.0674473e+01  -4.0763853e+00   3.5504769e+00   5.2015302e+00   4.7165343e+00   1.2319110e+01  -9.3277048e+00  -3.2615291e+00   6.1863364e+01   1.1177217e+01   4.2125706e+00  -2.1363759e-01   4.8240815e+00   1.1581107e+01   1.2298251e+00  -4.5950603e+00   6.2567736e+00   0.0000000e+00   0.0000000e+00   0.0000000e+00   0.0000000e+00
   8.9407638e+00   1.8967598e+01   9.0740700e+00   3.9545610e+01  -5.3472136e+00   2.1469631e+00   5.0814606e+00   4.5681155e+00   1.2871818e+01  -9.1057964e+00  -2.6733453e+00   6.1146113e+01   1.0285439e+01   3.8147274e+00  -3.1098791e-01   3.5691567e+00   1.0826729e+01   7.3367813e-01  -4.7570492e+00   5.9325626e+00   0.0000000e+00   0.0000000e+00   0.0000000e+00   0.0000000e+00
   8.0774151e+00   1.8197522e+01   8.8491182e+00   3.8755495e+01  -6.9953508e+00   1.3451345e-01   4.7178644e+00   4.2203030e+00   1.3004097e+01  -9.0770328e+00  -1.9054957e+00   5.9259691e+01   8.8202490e+00   2.9981817e+00  -5.1233019e-01   2.3093604e+00   9.9146057e+00  -9.2800069e-02  -5.0799364e+00   5.6659388e+00   0.0000000e+00   0.0000000e+00   0.0000000e+00   0.0000000e+00
   7.1222833e+00   1.7759514e+01   8.9171494e+00   3.8791689e+01  -8.4735894e+00  -2.0758922e+00   4.2122464e+00   3.4456584e+00   1.1995422e+01  -8.7345752e+00  -1.3023855e+00   5.6697969e+01   7.0844421e+00   2.4035029e+00  -6.9267986e-01   1.4997499e+00   9.1961752e+00  -9.5692620e-01  -5.2170434e+00   5.4822305e+00   0.0000000e+00   0.0000000e+00   0.0000000e+00   0.0000000e+00
   6.8369263e+00   1.8015299e+01   9.0130264e+00   3.8015290e+01  -9.5679221e+00  -3.6836308e+00   4.2642684e+00   2.7588192e+00   1.0998606e+01  -7.6282230e+00  -1.0560866e+00   5.5212517e+01   5.4232836e+00   2.5561141e+00  -4.9788718e-01   1.0078871e+00   9.1194351e+00  -1.6731043e+00  -4.7092389e+00   5.2464712e+00   0.0000000e+00   0.0000000e+00   0.0000000e+00   0.0000000e+00
   7.4774121e+00   1.7909388e+01   9.1377957e+00   3.7270529e+01  -9.9748270e+00  -3.7140045e+00   5.0898450e+00   2.5483481e+00   1.0544475e+01  -6.5226246e+00  -1.1417935e+00   5.5186129e+01   4.4757773e+00   3.4947475e+00   2.5495794e-01   6.8634991e-01   9.8421205e+00  -1.9058743e+00  -3.5189097e+00   5.0770002e+00   0.0000000e+00   0.0000000e+00   0.0000000e+00   0.0000000e+00
   8.6560090e+00   1.7232099e+01   9.5764369e+00   3.7927404e+01  -9.8132429e+00  -2.3974838e+00   6.3985060e+00   2.6344178e+00   1.0420517e+01  -6.2428529e+00  -1.2468885e+00   5.5687240e+01   5.0756624e+00   5.1294318e+00   1.6428533e+00   7.2043671e-01   1.1426950e+01  -1.3615360e+00  -1.8058885e+00   5.4002154e+00   0.0000000e+00   0.0000000e+00   0.0000000e+00   0.0000000e+00
   9.8932320e+00   1.6671650e+01   1.0108336e+01   3.9081461e+01  -8.9538875e+00  -1.1025003e+00   7.5944301e+00   2.9650139e+00   1.1104719e+01  -5.9203720e+00  -1.2098393e+00   5.6739281e+01   6.6201745e+00   6.8411504e+00   3.2097972e+00   8.1393917e-01   1.3342983e+01  -3.7103834e-01  -2.7951965e-01   6.1242721e+00   0.0000000e+00   0.0000000e+00   0.0000000e+00   0.0000000e+00
   1.1071861e+01   1.7256817e+01   1.0845206e+01   4.0623009e+01  -6.9152010e+00  -1.7246162e-01   8.5311698e+00   3.6812710e+00   1.2519736e+01  -4.8275463e+00  -6.3905450e-01   5.8716880e+01   8.4491594e+00   8.5330003e+00   4.7298921e+00   7.5039912e-01   1.5355904e+01   7.3412053e-01   9.3570771e-01   7.0880028e+00   0.0000000e+00   0.0000000e+00   0.0000000e+00   0.0000000e+00
   1.2043641e+01   1.9371588e+01   1.1907071e+01   4.2506174e+01  -4.3540229e+00   4.5917959e-01   9.4132711e+00   4.7210022e+00   1.2715961e+01  -3.2420989e+00   4.7755370e-01   6.0715997e+01   1.0351882e+01   1.0135326e+01   6.0355582e+00   5.7312417e-01   1.7147864e+01   1.8055212e+00   2.0891619e+00   8.3795410e+00   0.0000000e+00   0.0000000e+00   0.0000000e+00   0.0000000e+00
   1.2353127e+01   1.9968503e+01   1.1343522e+01   4.4210458e+01  -3.6860736e+00   1.2046246e-01   9.5674567e+00   4.9947287e+00   1.1655252e+01  -2.1074460e+00   1.1705930e+00   6.1331384e+01   1.1309024e+01   1.0608573e+01   6.2537596e+00  -8.5564795e-01   1.7563931e+01   2.0116787e+00   2.6313803e+00   8.9008620e+00   0.0000000e+00   0.0000000e+00   0.0000000e+00   0.0000000e+00
   1.2922778e+01   1.8455610e+01   1.0577613e+01   4.4995691e+01  -4.6971026e+00  -1.2144302e-01   9.9009432e+00   5.7690126e+00   1.1063936e+01  -1.3389669e+00   1.5294338e+00   6.0351844e+01   1.1746634e+01   1.0452734e+01   5.8980336e+00  -3.7607831e+00   1.6999390e+01   1.8026481e+00   3.0316556e+00   9.2952096e+00   0.0000000e+00   0.0000000e+00   0.0000000e+00   0.0000000e+00
   1.3463250e+01   1.6142121e+01   9.5118346e+00   4.2905517e+01  -5.8780470e+00  -4.3384651e-01   1.0296400e+01   6.2096132e+00   1.0741310e+01  -1.0842075e+00   1.5595934e+00   5.7651590e+01   1.1751561e+01   9.8571986e+00   5.0339506e+00  -8.3194693e+00   1.5651648e+01   1.0579674e+00   3.3726006e+00   9.6437372e+00   0.0000000e+00   0.0000000e+00   0.0000000e+00   0.0000000e+00
   1.3333970e+01   1.5048781e+01   8.8611515e+00   4.0410307e+01  -6.6969955e+00  -1.0793219e+00   1.0489723e+01   6.3962166e+00   1.1146142e+01  -1.1665812e+00   1.5858248e+00   5.5316283e+01   1.1421624e+01   9.1782311e+00   4.0253161e+00  -1.3852674e+01   1.3990397e+01   2.4252748e-01   3.7384059e+00   1.0205220e+01   0.0000000e+00   0.0000000e+00   0.0000000e+00   0.0000000e+00
   1.2725488e+01   1.5655504e+01   8.6843103e+00   3.9735932e+01  -7.2137540e+00  -1.7809834e+00   1.0360727e+01   6.1560098e+00   1.1506349e+01  -1.4422901e+00   1.5375562e+00   5.4527813e+01   1.0869288e+01   8.6073459e+00   3.1688391e+00  -1.9325301e+01   1.2552139e+01  -3.6350363e-01   3.8261479e+00   1.0885141e+01   0.0000000e+00   0.0000000e+00   0.0000000e+00   0.0000000e+00
   1.2708398e+01   1.7262608e+01   9.0351800e+00   3.9028869e+01  -7.5409018e+00  -2.4484335e+00   1.0098370e+01   5.6390441e+00   1.0723000e+01  -1.7082304e+00   1.4771778e+00   5.3971693e+01   1.0463371e+01   8.2838442e+00   2.5408304e+00  -2.4105302e+01   1.1502963e+01  -7.4382694e-01   3.5182741e+00   1.1295707e+01   0.0000000e+00   0.0000000e+00   0.0000000e+00   0.0000000e+00
   1.3464403e+01   1.8165146e+01   9.5990625e+00   3.7200025e+01  -7.9435777e+00  -3.0718320e+00   1.0049820e+01   5.5510967e+00   9.7118131e+00  -1.9600652e+00   1.5299708e+00   5.2379036e+01   1.0318486e+01   8.2574163e+00   2.3287999e+00  -2.8408286e+01   1.0815192e+01  -1.0278826e+00   3.1260176e+00   1.1311890e+01   0.0000000e+00   0.0000000e+00   0.0000000e+00   0.0000000e+00
   1.4587011e+01   1.7405322e+01   1.0356468e+01   3.6135877e+01  -8.0708806e+00  -3.2432889e+00   1.0345571e+01   6.1831942e+00   9.3361938e+00  -2.3120038e+00   1.7244668e+00   5.1292164e+01   1.0516205e+01   8.2723689e+00   2.5134796e+00  -3.1970785e+01   1.0424875e+01  -9.5137508e-01   2.9325521e+00   1.1214523e+01   0.0000000e+00   0.0000000e+00   0.0000000e+00   0.0000000e+00
   1.5381750e+01   1.6775728e+01   1.1029375e+01   3.6531960e+01  -7.6579921e+00  -2.9738667e+00   1.0740809e+01   6.5405736e+00   9.4362614e+00  -2.7891168e+00   1.8226512e+00   5.2127145e+01   1.0790944e+01   7.8788118e+00   2.5788884e+00  -3.4283370e+01   1.0134025e+01  -5.3879997e-01   2.7717969e+00   1.1055533e+01   0.0000000e+00   0.0000000e+00   0.0000000e+00   0.0000000e+00
   1.5898492e+01   1.7794086e+01   1.1577841e+01   3.7286438e+01  -7.0708570e+00  -2.8586957e+00   1.1222587e+01   6.6796533e+00   9.8356851e+00  -2.7328600e+00   1.5952020e+00   5.3217473e+01   1.0867080e+01   7.2391154e+00   2.2338622e+00  -3.5563170e+01   9.9295655e+00  -5.6651716e-03   2.4075502e+00   1.0930953e+01   0.0000000e+00   0.0000000e+00   0.0000000e+00   0.0000000e+00
   1.6515901e+01   1.9534323e+01   1.1741238e+01   3.7027235e+01  -6.5988402e+00  -3.0572935e+00   1.1850673e+01   7.9103556e+00   1.0122066e+01  -1.7411785e+00   1.1360253e+00   5.3336714e+01   1.0740587e+01   6.6703745e+00   1.5902073e+00  -3.6473159e+01   9.9238434e+00   3.8672913e-01   1.7417231e+00   1.1109164e+01   0.0000000e+00   0.0000000e+00   0.0000000e+00   0.0000000e+00
   1.7285021e+01   2.0827935e+01   1.1220322e+01   3.6182219e+01  -6.2421860e+00  -3.4977126e+00   1.2260162e+01   1.0022865e+01   9.9762737e+00  -6.3514858e-01   5.9077120e-01   5.2329131e+01   1.0430795e+01   6.1113929e+00   6.3541551e-01  -3.7489354e+01   1.0010533e+01   5.0226251e-01   5.6911110e-01   1.1449606e+01   0.0000000e+00   0.0000000e+00   0.0000000e+00   0.0000000e+00
   1.8252858e+01   2.1413647e+01   9.9218888e+00   3.5703266e+01  -6.5447693e+00  -4.0621839e+00   1.1964694e+01   1.0481483e+01   9.9539703e+00  -5.0649630e-01  -2.5620909e-01   5.0977528e+01   1.0032625e+01   5.2783975e+00  -9.2343532e-01  -3.9092118e+01   1.0118817e+01   1.9955872e-01  -1.9210524e+00   1.0984808e+01   0.0000000e+00   0.0000000e+00   0.0000000e+00   0.0000000e+00
   1.9204489e+01   2.1125154e+01   8.2274328e+00   3.6260202e+01  -6.7880222e+00  -4.4938884e+00   1.1078924e+01   8.5301684e+00   1.0399412e+01  -1.4604648e+00  -1.5812251e+00   5.1014817e+01   9.8969704e+00   4.1909936e+00  -3.0483489e+00  -4.1512002e+01   1.0330828e+01  -3.1140863e-01  -5.5246951e+00   9.2701543e+00   0.0000000e+00   0.0000000e+00   0.0000000e+00   0.0000000e+00
   1.9964311e+01   1.9386622e+01   6.5853184e+00   3.7366370e+01  -5.9060326e+00  -4.3040873e+00   9.9465192e+00   5.3371646e+00   1.1045715e+01  -2.6356737e+00  -3.3760137e+00   5.2431475e+01   9.7327716e+00   2.8122312e+00  -5.1516208e+00  -4.4782114e+01   1.0701220e+01  -9.6101997e-01  -7.3149701e+00   6.8013890e+00   0.0000000e+00   0.0000000e+00   0.0000000e+00   0.0000000e+00
   2.0606545e+01   1.7385792e+01   5.6413342e+00   3.6658232e+01  -5.2094766e+00  -4.0827813e+00   8.6299508e+00   2.1979858e+00   1.0980084e+01  -3.8706517e+00  -5.3255975e+00   5.3701142e+01   9.1651948e+00   1.1459812e+00  -6.7720548e+00  -4.7842868e+01   1.1005081e+01  -1.9284953e+00  -8.4905112e+00   4.3632144e+00   0.0000000e+00   0.0000000e+00   0.0000000e+00   0.0000000e+00
   2.1138511e+01   1.6575730e+01   5.5878484e+00   3.5141930e+01  -5.7986329e+00  -4.5711403e+00   7.2656994e+00   8.8475977e-02   9.8832139e+00  -5.3092186e+00  -6.9704985e+00   5.2769817e+01   8.7504923e+00  -8.7164354e-01  -7.8378889e+00  -4.9390592e+01   1.0949631e+01  -2.9884123e+00  -8.9480879e+00   2.6919564e+00   0.0000000e+00   0.0000000e+00   0.0000000e+00   0.0000000e+00
   2.1266431e+01   1.6788160e+01   5.7145936e+00   3.4365308e+01  -7.0776984e+00  -6.0401428e+00   5.7747482e+00  -9.4232713e-01   8.1785710e+00  -6.6974890e+00  -8.4100962e+00   4.9684312e+01   8.5417366e+00  -3.1661367e+00  -8.7548860e+00  -4.9545042e+01   1.0082821e+01  -4.1126427e+00  -9.6085286e+00   1.7811146e+00   0.0000000e+00   0.0000000e+00   0.0000000e+00   0.0000000e+00
   2.0809755e+01   1.7187198e+01   5.2789236e+00   3.3286724e+01  -8.3183112e+00  -8.2036614e+00   4.0477533e+00  -1.2886552e+00   6.4075467e+00  -8.5808410e+00  -9.8333528e+00   4.7630338e+01   7.2936420e+00  -5.5161745e+00  -9.8510247e+00  -4.9374743e+01   8.3048336e+00  -5.6446217e+00  -1.0709749e+01   9.5889474e-01   0.0000000e+00   0.0000000e+00   0.0000000e+00   0.0000000e+00
   2.0005652e+01   1.7061820e+01   4.5897770e+00   3.1371256e+01  -9.5906879e+00  -1.0025058e+01   2.4332086e+00  -1.2246123e+00   5.0580418e+00  -1.0949923e+01  -1.1217119e+01   4.7311356e+01   4.7771286e+00  -7.6843849e+00  -1.1320049e+01  -4.9437066e+01   6.4066651e+00  -7.3541060e+00  -1.2241534e+01   3.2021084e-02   0.0000000e+00   0.0000000e+00   0.0000000e+00   0.0000000e+00
   1.9762507e+01   1.6691802e+01   4.3181744e+00   3.0167302e+01  -1.0017502e+01  -1.0575395e+01   1.3172264e+00  -1.1141102e+00   4.6437691e+00  -1.2465516e+01  -1.2575357e+01   4.7550046e+01   2.3455113e+00  -9.0688409e+00  -1.2881788e+01  -4.9437833e+01   5.4001762e+00  -8.4910312e+00  -1.3525549e+01  -8.4312026e-01   0.0000000e+00   0.0000000e+00   0.0000000e+00   0.0000000e+00
   2.0328421e+01   1.6534293e+01   4.1041718e+00   3.0713140e+01  -9.1644221e+00  -1.0069697e+01   8.0333179e-01  -1.4900839e+00   4.7702650e+00  -1.2721337e+01  -1.3837422e+01   4.7387103e+01   1.0850162e+00  -9.2843625e+00  -1.4127937e+01  -4.9232176e+01   5.4982660e+00  -8.8087088e+00  -1.4415681e+01  -1.7681575e+00   0.0000000e+00   0.0000000e+00   0.0000000e+00   0.0000000e+00
   2.1270074e+01   1.6697860e+01   3.6003709e+00   3.1914487e+01  -7.7065924e+00  -9.0690601e+00   9.0706867e-01  -2.5433339e+00   4.7249461e+00  -1.2598885e+01  -1.4756893e+01   4.7269377e+01   1.3449286e+00  -8.5420868e+00  -1.4761435e+01  -4.9093905e+01   6.3863549e+00  -8.6034803e+00  -1.4914328e+01  -2.8877402e+00   0.0000000e+00   0.0000000e+00   0.0000000e+00   0.0000000e+00
   2.2065446e+01   1.7325020e+01   3.2290281e+00   3.2808459e+01  -6.5184272e+00  -8.2301837e+00   1.2724781e+00  -3.6519719e+00   4.2929088e+00  -1.2636596e+01  -1.5405695e+01   4.8384766e+01   2.0928554e+00  -7.8516410e+00  -1.5011416e+01  -4.9258975e+01   7.1916437e+00  -8.2918060e+00  -1.5357496e+01  -4.0363045e+00   0.0000000e+00   0.0000000e+00   0.0000000e+00   0.0000000e+00
   2.2623341e+01   1.8330266e+01   3.4690151e+00   3.3367537e+01  -5.9732825e+00  -7.5271310e+00   1.7454948e+00  -3.7006034e+00   3.6145767e+00  -1.2451473e+01  -1.5841279e+01   4.9678628e+01   2.4282547e+00  -7.6548294e+00  -1.5017659e+01  -4.9485482e+01   7.4547243e+00  -8.0773427e+00  -1.5476795e+01  -4.5791720e+00   0.0000000e+00   0.0000000e+00   0.0000000e+00   0.0000000e+00
   2.2988318e+01   1.8744745e+01   4.6885237e+00   3.3449720e+01  -6.2376371e+00  -6.2480593e+00   2.4267394e+00  -1.8721113e+00   2.7062424e+00  -1.2375469e+01  -1.5813141e+01   4.9122108e+01   2.5070357e+00  -7.4499234e+00  -1.4393637e+01  -4.9285081e+01   6.9986261e+00  -7.9463536e+00  -1.4890774e+01  -4.0292564e+00   0.0000000e+00   0.0000000e+00   0.0000000e+00   0.0000000e+00
   2.3414436e+01   1.7781297e+01   6.5127595e+00   3.2532151e+01  -7.2157739e+00  -4.6807464e+00   3.3226668e+00   1.4360532e+00   1.5255867e+00  -1.3307671e+01  -1.5027064e+01   4.6567898e+01   2.3560166e+00  -6.7802774e+00  -1.2775597e+01  -4.8503378e+01   5.8763602e+00  -7.9490322e+00  -1.3511701e+01  -2.4594669e+00   1.0000000e+03   0.0000000e+00   0.0000000e+00   0.0000000e+00
   2.3992187e+01   1.6311060e+01   7.8810705e+00   3.1320604e+01  -7.9807794e+00  -4.2536145e+00   3.4736192e+00   3.4840597e+00   2.6959716e-01  -1.5016075e+01  -1.3756140e+01   4.4053849e+01   1.5701813e+00  -6.1218617e+00  -1.0805709e+01  -4.7239146e+01   4.1276874e+00  -8.1232771e+00  -1.1906263e+01  -5.0886625e-01   1.0000000e+03   0.0000000e+00   0.0000000e+00   0.0000000e+00
   2.4144235e+01   1.5600094e+01   8.2591618e+00   3.0262985e+01  -8.4546427e+00  -5.4311629e+00   2.6847767e+00   3.6778903e+00  -9.9835291e-01  -1.6878561e+01  -1.2488671e+01   4.2554873e+01  -1.2423231e-01  -6.0540656e+00  -9.3501143e+00  -4.5894001e+01   1.7815900e+00  -8.6913468e+00  -1.0736274e+01   1.1471438e+00   1.0000000e+03   3.0000000e+01   0.0000000e+00   0.0000000e+00
   2.3673510e+01   1.5984468e+01   8.1826477e+00   2.9668638e+01  -9.0852922e+00  -7.6999768e+00   1.2990780e+00   3.0745134e+00  -2.2496715e+00  -1.8261008e+01  -1.1366627e+01   4.0980063e+01  -2.0456633e+00  -6.3728774e+00  -8.7448097e+00  -4.4937549e+01  -7.5575570e-01  -9.7364049e+00  -1.0226733e+01   2.1259216e+00   1.0000000e+03   3.0000000e+01   0.0000000e+00   0.0000000e+00
   2.2933063e+01   1.6652077e+01   7.9200593e+00   2.9801041e+01  -9.7132919e+00  -9.8207116e+00  -1.7846149e-01   1.9468690e+00  -3.4845017e+00  -1.8906180e+01  -1.0269238e+01   3.9575176e+01  -3.4683921e+00  -6.6713582e+00  -9.1783285e+00  -4.5265294e+01  -2.7103296e+00  -1.1217954e+01  -1.0406027e+01   1.9152016e+00   1.0000000e+03   3.0000000e+01   0.0000000e+00   0.0000000e+00
   2.2139772e+01   1.5811402e+01   7.1437255e+00   3.0817324e+01  -1.0174679e+01  -1.0678464e+01  -1.5851735e+00   8.7750565e-01  -4.6662024e+00  -1.8835986e+01  -9.0939369e+00   3.8900361e+01  -4.3856333e+00  -6.8686465e+00  -1.0568721e+01  -4.7366307e+01  -3.5739198e+00  -1.2780026e+01  -1.1007031e+01   6.1581410e-01   0.0000000e+00   3.0000000e+01   0.0000000e+00   0.0000000e+00
   2.1783078e+01   1.3876819e+01   5.7643801e+00   3.1534523e+01  -1.0444230e+01  -1.0434780e+01  -2.6827261e+00   2.4532326e-01  -4.9941264e+00  -1.7423783e+01  -7.9042764e+00   3.8717470e+01  -4.6537937e+00  -6.6881688e+00  -1.2141854e+01  -5.0870474e+01  -3.3178117e+00  -1.3811299e+01  -1.1230770e+01  -8.7956290e-01   0.0000000e+00   3.0000000e+01   0.0000000e+00   0.0000000e+00
   2.1499128e+01   1.3016151e+01   4.4899097e+00   3.0961412e+01  -1.0253580e+01  -1.0087466e+01  -3.6321292e+00   4.2426422e-01  -4.8844709e+00  -1.4943826e+01  -6.7257385e+00   3.8712856e+01  -4.0791576e+00  -6.0073723e+00  -1.2860561e+01  -5.4663178e+01  -2.5100833e+00  -1.3937483e+01  -1.0673897e+01  -1.6241578e+00   0.0000000e+00   3.0000000e+01   0.0000000e+00   0.0000000e+00
   2.0458151e+01   1.3099607e+01   3.7400162e+00   3.0853502e+01  -9.3425488e+00  -1.0116842e+01  -4.5925927e+00   8.5105794e-01  -4.9766173e+00  -1.2117886e+01  -5.5844111e+00   3.8309045e+01  -3.0252337e+00  -5.0403404e+00  -1.2325063e+01  -5.7482236e+01  -1.5433586e+00  -1.3433818e+01  -9.6273855e+00  -1.4311914e+00   0.0000000e+00   3.0000000e+01   0.0000000e+00   0.0000000e+00
   1.8716789e+01   1.3033023e+01   3.4946323e+00   3.1095624e+01  -8.5591161e+00  -1.0343785e+01  -5.5402408e+00   1.0615981e+00  -5.1519987e+00  -9.2351759e+00  -4.6336355e+00   3.7803815e+01  -1.5635511e+00  -3.8019761e+00  -1.1226809e+01  -5.8953291e+01  -6.7675878e-02  -1.2616810e+01  -8.5033990e+00  -8.3469818e-01   0.0000000e+00   3.0000000e+01   0.0000000e+00   0.0000000e+00
   1.7036695e+01   1.2623867e+01   3.7230398e+00   3.0401794e+01  -8.3993422e+00  -1.0137823e+01  -5.9034993e+00   1.3554417e+00  -4.6216237e+00  -6.4180011e+00  -3.8238426e+00   3.8027547e+01   3.3485581e-01  -2.2781796e+00  -9.7188775e+00  -5.9225428e+01   2.0647109e+00  -1.1358959e+01  -7.2365601e+00  -1.0563313e-02   0.0000000e+00   3.0000000e+01   0.0000000e+00   0.0000000e+00
   1.6064790e+01   1.2120200e+01   4.2845836e+00   3.0422353e+01  -8.6189011e+00  -9.5434065e+00  -5.2661210e+00   1.9849919e+00  -3.0580762e+00  -4.3195502e+00  -2.9914510e+00   3.9700849e+01   2.3995031e+00  -5.2686342e-01  -8.0378967e+00  -5.8493009e+01   4.3945335e+00  -9.3973762e+00  -5.7896118e+00   1.1989831e+00   0.0000000e+00   3.0000000e+01   0.0000000e+00   0.0000000e+00
   1.5467272e+01   1.1591639e+01   4.7761554e+00   3.2575527e+01  -8.1911005e+00  -8.8020800e+00  -3.7742142e+00   2.2422033e+00  -1.3473815e+00  -3.6052808e+00  -2.0956978e+00   4.1511868e+01   4.8264515e+00   1.4329295e+00  -6.3277803e+00  -5.7453615e+01   6.6125710e+00  -7.0643460e+00  -4.3724996e+00   2.2990668e+00   0.0000000e+00   3.0000000e+01   0.0000000e+00   0.0000000e+00
   1.4409398e+01   1.1330472e+01   5.1818236e+00   3.4989051e+01  -6.4016959e+00  -7.9173268e+00  -2.0638883e+00   1.7483528e+00  -5.9224865e-02  -3.4629295e+00  -1.2502338e+00   4.1424031e+01   7.3816586e+00   3.0833254e+00  -4.9485458e+00  -5.6570391e+01   8.7110951e+00  -4.9001184e+00  -3.2780137e+00   2.8096020e+00   0.0000000e+00   3.0000000e+01   0.0000000e+00   0.0000000e+00
   1.3211920e+01   1.2100732e+01   5.8623080e+00   3.6132655e+01  -4.0153210e+00  -6.6104680e+00  -2.9710136e-01   1.1381242e+00   1.3820074e+00  -3.0747795e+00  -6.6719888e-01   4.1633107e+01   9.5772426e+00   4.2073010e+00  -3.8389430e+00  -5.6033403e+01   1.0946459e+01  -2.9692796e+00  -2.3190758e+00   2.9435503e+00   0.0000000e+00   3.0000000e+01   0.0000000e+00   0.0000000e+00
   1.2665196e+01   1.3664453e+01   6.5103178e+00   3.6841246e+01  -2.4625239e+00  -5.2193465e+00   1.4024050e+00   8.0632291e-01   2.6893859e+00  -2.4594910e+00  -4.5323970e-01   4.3513833e+01   1.1298686e+01   4.9686889e+00  -3.1106700e+00  -5.5484386e+01   1.3060612e+01  -1.3080653e+00  -1.4353542e+00   2.9516476e+00   0.0000000e+00   3.0000000e+01   0.0000000e+00   0.0000000e+00
   1.2553328e+01   1.4285732e+01   6.6719373e+00   3.7593368e+01  -1.8515398e+00  -4.4148674e+00   2.5834315e+00   1.1243422e+00   3.6234512e+00  -1.7562544e+00  -4.5400428e-01   4.5033611e+01   1.1675574e+01   5.3477358e+00  -2.9727749e+00  -5.4724946e+01   1.4357149e+01  -4.8874511e-01  -9.8798053e-01   2.7189047e+00   0.0000000e+00   3.0000000e+01   0.0000000e+00   0.0000000e+00
   1.2615307e+01   1.3011468e+01   7.0028661e+00   3.8434319e+01  -1.3797328e+00  -3.8734248e+00   3.4785494e+00   2.4741180e+00   4.3406626e+00  -3.7926999e-01  -3.1202275e-01   4.4699487e+01   1.1041163e+01   5.7035688e+00  -2.6357085e+00  -5.3265874e+01   1.4924200e+01  -3.1916141e-01  -5.6668149e-01   2.6366070e+00   0.0000000e+00   3.0000000e+01   0.0000000e+00   0.0000000e+00
   1.2829184e+01   1.1689737e+01   7.8697611e+00   3.9673256e+01  -2.4623912e-01  -3.0374479e+00   4.6330956e+00   3.3591147e+00   4.3076478e+00   1.5585147e+00  -1.1806295e-01   4.2397780e+01   1.1035870e+01   6.4363637e+00  -2.0999687e+00  -5.1584070e+01   1.5469793e+01  -1.6713496e-01   2.4979446e-01   2.4771454e+00   0.0000000e+00   3.0000000e+01   0.0000000e+00   0.0000000e+00
   1.3137458e+01   1.2190726e+01   9.0551548e+00   3.9985192e+01   8.3554107e-01  -2.0137326e+00   5.9408450e+00   2.6395730e+00   3.6062797e+00   2.9514596e+00  -1.4923869e-01   4.0031805e+01   1.2272232e+01   7.5206890e+00  -1.7863588e+00  -5.0586572e+01   1.6282218e+01   2.9956580e-01   9.6297219e-01   1.6619198e+00   0.0000000e+00   3.0000000e+01   0.0000000e+00   0.0000000e+00
   1.3500142e+01   1.3872579e+01   1.0149168e+01   3.8187987e+01   5.8174249e-01  -1.0636651e+00   7.0528090e+00   1.4915003e+00   2.7745276e+00   2.8876382e+00  -3.8289577e-01   3.9126246e+01   1.2999742e+01   8.5681527e+00  -1.6316121e+00  -5.0331071e+01   1.7103660e+01   7.2546113e-01   1.0071329e+00   2.3328217e-01   0.0000000e+00   3.0000000e+01   0.0000000e+00   0.0000000e+00
   1.3567800e+01   1.6086902e+01   1.0819291e+01   3.6572842e+01  -2.2040050e-01  -6.4083606e-01   8.0956910e+00   1.1496623e+00   2.1221169e+00   2.1325065e+00  -4.5860548e-01   3.8596425e+01   1.2390292e+01   8.9104362e+00  -1.4240360e+00  -5.0291959e+01   1.7330071e+01   9.9579473e-01   5.6053257e-01  -1.1848770e+00   0.0000000e+00   3.0000000e+01   0.0000000e+00   0.0000000e+00
   1.2999899e+01   1.7543729e+01   1.0967618e+01   3.7181897e+01  -8.6602817e-02  -1.0970901e+00   8.9439023e+00   1.1428189e+00   2.1580804e+00   1.9228425e+00  -3.8829492e-01   3.7413296e+01   1.1142232e+01   8.2117602e+00  -1.4514945e+00  -4.9888961e+01   1.6595702e+01   9.8399185e-01  -2.1987733e-01  -2.3335216e+00   0.0000000e+00   3.0000000e+01   0.0000000e+00   0.0000000e+00
   1.1752745e+01   1.6767412e+01   1.0996529e+01   3.7681135e+01   8.2202071e-01  -2.4449750e+00   9.2412060e+00   1.1396414e+00   2.8477214e+00   1.8360061e+00  -5.6889459e-01   3.5675006e+01   9.7977416e+00   6.4954028e+00  -1.9562595e+00  -4.9274634e+01   1.5058515e+01   4.3060872e-01  -1.3233847e+00  -3.3422633e+00   0.0000000e+00   3.0000000e+01   0.0000000e+00   0.0000000e+00
   1.0437071e+01   1.4498318e+01   1.1070871e+01   3.6253612e+01   5.1963384e-01  -4.1607591e+00   9.1305772e+00   1.7204354e+00   3.0658378e+00   1.4609565e+00  -1.0234606e+00   3.4373964e+01   8.8411797e+00   4.2371494e+00  -2.7963815e+00  -4.9046093e+01   1.3286871e+01  -6.8620160e-01  -2.5091180e+00  -4.3344259e+00   0.0000000e+00   3.0000000e+01   0.0000000e+00   0.0000000e+00
   9.6573849e+00   1.2598768e+01   1.1167200e+01   3.3708663e+01  -1.6880520e+00  -6.0075522e+00   8.8142008e+00   2.3660072e+00   2.3314056e+00   9.9469910e-01  -1.4693228e+00   3.3527470e+01   8.1013701e+00   1.9014679e+00  -3.5178217e+00  -4.9009097e+01   1.1503223e+01  -2.1905996e+00  -3.6262221e+00  -5.4515578e+00   0.0000000e+00   3.0000000e+01   0.0000000e+00   0.0000000e+00
   9.0656207e+00   1.1715303e+01   1.1214203e+01   3.2445835e+01  -4.5807878e+00  -8.1341792e+00   8.3851825e+00   2.6395140e+00   7.0225863e-01   2.9245780e-01  -1.6735402e+00   3.2728204e+01   6.6940523e+00  -3.3054875e-01  -3.9206910e+00  -4.8214003e+01   9.4100758e+00  -4.0790534e+00  -4.6191332e+00  -6.3854101e+00   0.0000000e+00   3.0000000e+01   0.0000000e+00   0.0000000e+00
   7.7140266e+00   1.1389990e+01   1.0776101e+01   3.2363280e+01  -6.4644241e+00  -1.0613736e+01   7.6522827e+00   2.7039804e+00  -2.0428999e+00  -1.2267901e+00  -1.7786298e+00   3.1467978e+01   4.1867558e+00  -2.4600054e+00  -4.2902637e+00  -4.6528581e+01   6.6372834e+00  -6.4819385e+00  -5.5898247e+00  -6.6855443e+00   0.0000000e+00   3.0000000e+01   0.0000000e+00   0.0000000e+00
   5.4664935e+00   1.0443231e+01   9.6842778e+00   3.0583844e+01  -6.7927139e+00  -1.2903788e+01   6.5069199e+00   2.7544616e+00  -5.4458508e+00  -3.5824456e+00  -1.9174116e+00   2.9047392e+01   1.0906643e+00  -4.4280286e+00  -4.8310220e+00  -4.4877475e+01   3.5127753e+00  -9.5507375e+00  -6.5359553e+00  -6.7648670e+00   0.0000000e+00   3.0000000e+01   0.0000000e+00   0.0000000e+00
   2.9592495e+00   8.7389581e+00   8.4481472e+00   2.6673542e+01  -7.6729669e+00  -1.4862144e+01   4.9221575e+00   2.9325986e+00  -8.6474370e+00  -6.6439545e+00  -2.1302344e+00   2.5111903e+01  -1.9482574e+00  -6.3277850e+00  -5.5233028e+00  -4.3387723e+01   4.5805449e-01  -1.3060993e+01  -7.3098326e+00  -7.3066462e+00   0.0000000e+00   3.0000000e+01   0.0000000e+00   0.0000000e+00
   7.0776187e-01   7.4964227e+00   7.6395256e+00   2.3488307e+01  -1.0428060e+01  -1.6910950e+01   3.0154263e+00   3.3655927e+00  -1.1480979e+01  -9.6248289e+00  -2.6229711e+00   2.0979742e+01  -5.2024048e+00  -8.1451710e+00  -6.2435187e+00  -4.1805191e+01  -2.4553794e+00  -1.6449243e+01  -7.6411612e+00  -8.1680321e+00   0.0000000e+00   3.0000000e+01   0.0000000e+00   0.0000000e+00
  -9.9906782e-01   7.4178949e+00   7.6518553e+00   2.2141352e+01  -1.4056883e+01  -1.8946767e+01   1.3051946e+00   4.1704694e+00  -1.3607235e+01  -1.1222081e+01  -3.4416559e+00   1.8035404e+01  -8.5351048e+00  -9.5782651e+00  -6.7832049e+00  -4.0374766e+01  -4.8702216e+00  -1.8991271e+01  -7.1992331e+00  -8.6310346e+00   0.0000000e+00   3.0000000e+01   0.0000000e+00   0.0000000e+00
  -2.1892288e+00   7.8170056e+00   8.0455357e+00   2.2626161e+01  -1.6455589e+01  -2.0540892e+01   2.5399089e-01   4.8977528e+00  -1.4534787e+01  -1.1636233e+01  -4.2765748e+00   1.6035401e+01  -1.1272990e+01  -1.0147654e+01  -7.1816179e+00  -3.9442878e+01  -6.3079255e+00  -2.0664144e+01  -6.1993587e+00  -8.6705261e+00   0.0000000e+00   3.0000000e+01   0.0000000e+00   0.0000000e+00
  -2.9732921e+00   7.3698082e+00   8.3000329e+00   2.3977434e+01  -1.6458873e+01  -2.1149033e+01  -2.1817886e-01   4.6858012e+00  -1.4445892e+01  -1.1583937e+01  -4.7872521e+00   1.5096364e+01  -1.2464154e+01  -9.8693602e+00  -7.7937801e+00  -3.8812377e+01  -6.5299442e+00  -2.1571850e+01  -5.2340061e+00  -8.6882275e+00   0.0000000e+00   3.0000000e+01   0.0000000e+00   0.0000000e+00
  -2.7729805e+00   6.2323929e+00   8.3336613e+00   2.4623514e+01  -1.4663021e+01  -2.0414068e+01  -1.8275701e-01   3.9147618e+00  -1.3039116e+01  -1.1268343e+01  -4.7917548e+00   1.5874136e+01  -1.1474921e+01  -8.8060650e+00  -8.4689612e+00  -3.7719603e+01  -5.2257106e+00  -2.1357105e+01  -4.3275925e+00  -8.3592167e+00   0.0000000e+00   3.0000000e+01   0.0000000e+00   0.0000000e+00
  -2.0789885e+00   5.6886122e+00   8.2127882e+00   2.4798940e+01  -1.2728267e+01  -1.9163628e+01  -1.3745283e-03   2.7728180e+00  -1.0996998e+01  -1.0539636e+01  -4.5838861e+00   1.6924171e+01  -9.0462216e+00  -7.3439665e+00  -9.0729437e+00  -3.6088139e+01  -2.8769638e+00  -2.0200585e+01  -3.5899967e+00  -7.6950394e+00   0.0000000e+00   3.0000000e+01   0.0000000e+00   0.0000000e+00
  -1.3850686e+00   6.0011571e+00   8.1843854e+00   2.5987977e+01  -1.2066806e+01  -1.8505120e+01  -3.1194971e-01   1.3492306e+00  -9.7632650e+00  -9.4056860e+00  -4.9590451e+00   1.6642879e+01  -6.8033283e+00  -6.2626476e+00  -9.9684180e+00  -3.5399402e+01  -6.1842754e-01  -1.9150910e+01  -3.5270722e+00  -7.7164017e+00   0.0000000e+00   3.0000000e+01   0.0000000e+00   0.0000000e+00
  -4.0620193e-02   7.2124728e+00   8.5692883e+00   2.8024141e+01  -1.1662921e+01  -1.8858256e+01  -1.2335312e+00   3.7031103e-02  -8.5661147e+00  -8.5787077e+00  -6.0941760e+00   1.7059903e+01  -5.3317584e+00  -6.0696540e+00  -1.1382444e+01  -3.6665768e+01   9.8279634e-01  -1.8477752e+01  -4.1562237e+00  -8.7491175e+00   0.0000000e+00   3.0000000e+01   0.0000000e+00   0.0000000e+00
   1.7401752e+00   8.7930276e+00   8.9925682e+00   2.8600480e+01  -1.0460830e+01  -1.9523214e+01  -2.2217366e+00  -1.4413682e+00  -6.5815485e+00  -8.6623329e+00  -7.3114650e+00   1.8939540e+01  -4.2818226e+00  -6.2406808e+00  -1.2652456e+01  -3.9304955e+01   2.1534729e+00  -1.8007389e+01  -4.9907735e+00  -1.0357980e+01   0.0000000e+00   3.0000000e+01   0.0000000e+00   0.0000000e+00
   3.3628470e+00   9.4657580e+00   8.8467174e+00   2.8835333e+01  -8.9798459e+00  -1.9914904e+01  -3.1095306e+00  -3.1917153e+00  -4.5797001e+00  -8.8723079e+00  -8.2589472e+00   2.0792593e+01  -3.2838840e+00  -6.2641861e+00  -1.3177657e+01  -4.1940196e+01   3.1959976e+00  -1.7552019e+01  -5.6781983e+00  -1.2066797e+01   0.0000000e+00   3.0000000e+01   0.0000000e+00   0.0000000e+00
   4.4945083e+00   8.7998219e+00   7.9955815e+00   3.0166628e+01  -7.8293505e+00  -2.0029044e+01  -3.9390542e+00  -4.8007957e+00  -3.1370236e+00  -8.0196634e+00  -9.0966641e+00   2.1668915e+01  -1.8191137e+00  -5.5659822e+00  -1.2715424e+01  -4.3504878e+01   4.5676314e+00  -1.6999575e+01  -6.0803213e+00  -1.3735673e+01   0.0000000e+00   3.0000000e+01   0.0000000e+00   0.0000000e+00
   5.2320909e+00   8.2072017e+00   7.2072408e+00   3.2136405e+01  -7.0325838e+00  -1.9719285e+01  -4.4914022e+00  -5.4555333e+00  -2.1975164e+00  -6.4427197e+00  -9.6682784e+00   2.2283994e+01   4.4013257e-01  -4.2902573e+00  -1.1461661e+01  -4.3438852e+01   6.5465145e+00  -1.5939800e+01  -6.1223665e+00  -1.5130197e+01   0.0000000e+00   3.0000000e+01   0.0000000e+00   0.0000000e+00
   5.9810865e+00   8.0776579e+00   6.7773492e+00   3.3440566e+01  -6.5680243e+00  -1.9499580e+01  -5.2835001e+00  -5.6240722e+00  -1.4590535e+00  -5.6336113e+00  -1.0256104e+01   2.3932361e+01   2.1874831e+00  -3.8113367e+00  -1.0085578e+01  -4.1673693e+01   8.2556896e+00  -1.4755521e+01  -6.5318080e+00  -1.6754992e+01   0.0000000e+00   3.0000000e+01   0.0000000e+00   0.0000000e+00
   6.7139199e+00   7.8095455e+00   6.3937495e+00   3.2920390e+01  -6.4670816e+00  -2.0125779e+01  -6.7613755e+00  -6.2918700e+00  -9.3103364e-01  -6.1267375e+00  -1.1405464e+01   2.5702632e+01   2.5119302e+00  -4.8599268e+00  -9.5354730e+00  -3.8140349e+01   8.7381898e+00  -1.4161909e+01  -7.9125695e+00  -1.9055051e+01   0.0000000e+00   3.0000000e+01   0.0000000e+00   0.0000000e+00
   7.2790197e+00   6.8006759e+00   5.6796918e+00   3.2399064e+01  -6.2789319e+00  -2.1257513e+01  -8.5616051e+00  -7.2096226e+00  -5.9555629e-01  -7.2669736e+00  -1.2984832e+01   2.6550407e+01   1.5211105e+00  -6.9587709e+00  -1.0333443e+01  -3.3522819e+01   7.9844097e+00  -1.4278499e+01  -1.0009359e+01  -2.1615481e+01   0.0000000e+00   3.0000000e+01   0.0000000e+00   0.0000000e+00
   7.8017923e+00   5.3223869e+00   4.7205319e+00   3.2820029e+01  -6.2408587e+00  -2.2368456e+01  -1.0164282e+01  -8.3542611e+00  -2.7909618e-01  -8.3663492e+00  -1.4257489e+01   2.6484029e+01  -1.0945121e-02  -9.3657493e+00  -1.1947245e+01  -2.8836667e+01   6.6224614e+00  -1.4606561e+01  -1.2274325e+01  -2.3918799e+01   0.0000000e+00   3.0000000e+01   0.0000000e+00   0.0000000e+00
   8.7046870e+00   4.2510060e+00   3.7247649e+00   3.3459608e+01  -6.2948004e+00  -2.3492804e+01  -1.1428093e+01  -9.9402864e+00  -4.6021941e-01  -9.2230826e+00  -1.5021637e+01   2.6406603e+01  -1.1281775e+00  -1.1414369e+01  -1.3443847e+01  -2.4803572e+01   5.3457827e+00  -1.4796315e+01  -1.4293981e+01  -2.6001684e+01   0.0000000e+00   3.0000000e+01   0.0000000e+00   0.0000000e+00
   9.5286774e+00   4.0707819e+00   2.7786478e+00   3.3665064e+01  -6.3396362e+00  -2.4818233e+01  -1.2690380e+01  -1.1862638e+01  -1.8390206e+00  -1.0064159e+01  -1.5784325e+01   2.6667492e+01  -1.6594714e+00  -1.2973544e+01  -1.4687201e+01  -2.2340008e+01   4.1360528e+00  -1.5013048e+01  -1.6106117e+01  -2.8064215e+01   0.0000000e+00   3.0000000e+01   0.0000000e+00   0.0000000e+00
   9.2930176e+00   4.5231817e+00   2.2362626e+00   3.3133632e+01  -6.5059010e+00  -2.5971406e+01  -1.3906834e+01  -1.3089411e+01  -4.0342643e+00  -1.0876946e+01  -1.6516863e+01   2.5895839e+01  -2.2023918e+00  -1.3869608e+01  -1.5440613e+01  -2.1030156e+01   3.0490987e+00  -1.5554852e+01  -1.7472364e+01  -2.9658441e+01   0.0000000e+00   3.0000000e+01   0.0000000e+00   0.0000000e+00
   8.3060511e+00   5.1419376e+00   2.4259204e+00   3.1330008e+01  -7.2881144e+00  -2.6508344e+01  -1.4350187e+01  -1.2302400e+01  -5.7811658e+00  -1.1582994e+01  -1.6621383e+01   2.3440379e+01  -2.3382618e+00  -1.4054924e+01  -1.5284503e+01  -1.9535195e+01   2.4473817e+00  -1.6040719e+01  -1.7677257e+01  -2.9719482e+01   0.0000000e+00   3.0000000e+01   0.0000000e+00   0.0000000e+00
   7.3051426e+00   5.3583191e+00   2.7098616e+00   2.9391203e+01  -8.2564051e+00  -2.6630814e+01  -1.3865003e+01  -1.0406446e+01  -6.5638860e+00  -1.2423724e+01  -1.5948520e+01   2.1092666e+01  -2.0269583e+00  -1.3809923e+01  -1.4467496e+01  -1.7173593e+01   1.9753563e+00  -1.6301617e+01  -1.6919395e+01  -2.8477799e+01   0.0000000e+00   3.0000000e+01   0.0000000e+00   0.0000000e+00
   6.3036388e+00   4.6599604e+00   2.3706806e+00   2.8678009e+01  -8.8531989e+00  -2.6740769e+01  -1.3153270e+01  -9.4020829e+00  -6.9870511e+00  -1.3786101e+01  -1.4771355e+01   2.0229041e+01  -2.2583234e+00  -1.3716146e+01  -1.3687734e+01  -1.4809811e+01   9.2498775e-01  -1.6731300e+01  -1.6094446e+01  -2.7586124e+01   0.0000000e+00   3.0000000e+01   0.0000000e+00   0.0000000e+00
   5.1744463e+00   2.5020337e+00   1.1641758e+00   2.9395099e+01  -9.3944253e+00  -2.7188620e+01  -1.2967915e+01  -9.7753815e+00  -8.0468291e+00  -1.5255544e+01  -1.3799936e+01   1.9357553e+01  -3.9353250e+00  -1.4273321e+01  -1.3554900e+01  -1.3410723e+01  -9.8178171e-01  -1.7894733e+01  -1.5975112e+01  -2.8166617e+01   0.0000000e+00   3.0000000e+01   0.0000000e+00   0.0000000e+00
   3.8488376e+00   3.3848992e-01  -6.1129604e-02   2.9659064e+01  -1.0106856e+01  -2.7942845e+01  -1.3376572e+01  -1.0600221e+01  -9.9353354e+00  -1.6099741e+01  -1.3272539e+01   1.6991312e+01  -6.1744784e+00  -1.5208582e+01  -1.3825256e+01  -1.2158392e+01  -3.0990815e+00  -1.9444403e+01  -1.6323457e+01  -2.9329873e+01   0.0000000e+00   3.0000000e+01   0.0000000e+00   0.0000000e+00
   2.8616379e+00   2.4920861e-02  -3.3438268e-01   2.7174465e+01  -1.0512859e+01  -2.8320558e+01  -1.3501729e+01  -1.0724080e+01  -1.1706671e+01  -1.6435399e+01  -1.2746446e+01   1.3353232e+01  -7.5281563e+00  -1.5764858e+01  -1.3696096e+01  -1.0414010e+01  -4.4577014e+00  -2.0477672e+01  -1.6185096e+01  -2.9704000e+01   0.0000000e+00   3.0000000e+01   0.0000000e+00   0.0000000e+00
   2.9751685e+00   1.4846855e+00   3.6181812e-01   2.4155935e+01  -1.0836040e+01  -2.8078529e+01  -1.2571359e+01  -9.6550131e+00  -1.2341761e+01  -1.6332788e+01  -1.1903961e+01   1.0332635e+01  -7.8050597e+00  -1.5613592e+01  -1.2766406e+01  -8.7825627e+00  -4.9713329e+00  -2.0414441e+01  -1.5043896e+01  -2.8763117e+01   0.0000000e+00   3.0000000e+01   0.0000000e+00   0.0000000e+00
   4.2394907e+00   2.5488236e+00   1.4038705e+00   2.3015949e+01  -1.0800721e+01  -2.7179624e+01  -1.0710806e+01  -7.8009131e+00  -1.2202168e+01  -1.5808909e+01  -1.0743686e+01   8.9662461e+00  -7.5573235e+00  -1.4405636e+01  -1.1013661e+01  -7.6121938e+00  -4.9080641e+00  -1.9662455e+01  -1.3192745e+01  -2.7079779e+01   0.0000000e+00   3.0000000e+01   0.0000000e+00   0.0000000e+00
   6.2123999e+00   2.4724795e+00   2.4436916e+00   2.3032001e+01  -9.4578815e+00  -2.5805752e+01  -8.3755048e+00  -6.0288535e+00  -1.2248714e+01  -1.5113402e+01  -9.3351948e+00   7.8254709e+00  -7.0837192e+00  -1.2757514e+01  -8.9791413e+00  -6.7670335e+00  -4.5953530e+00  -1.8685078e+01  -1.1169898e+01  -2.5324644e+01   0.0000000e+00   3.0000000e+01   0.0000000e+00   0.0000000e+00
   7.8247955e+00   2.3415569e+00   3.5308644e+00   2.3145871e+01  -7.5381049e+00  -2.4889592e+01  -6.4073836e+00  -5.0958413e+00  -1.2919915e+01  -1.5107371e+01  -8.1542568e+00   6.1608172e+00  -6.8941752e+00  -1.1628884e+01  -7.5269109e+00  -6.2917576e+00  -4.5714890e+00  -1.7857983e+01  -9.7864610e+00  -2.4012694e+01   0.0000000e+00   3.0000000e+01   0.0000000e+00   0.0000000e+00
   8.2192395e+00   2.7644372e+00   4.7156708e+00   2.2975589e+01  -6.6991535e+00  -2.5085136e+01  -5.5379438e+00  -4.9897732e+00  -1.3715005e+01  -1.6078508e+01  -7.8470526e+00   4.8794466e+00  -7.4154760e+00  -1.1286947e+01  -7.1364147e+00  -6.4489904e+00  -5.1238557e+00  -1.7484933e+01  -9.7509521e+00  -2.3480753e+01   0.0000000e+00   3.0000000e+01   0.0000000e+00   0.0000000e+00
   7.7708661e+00   3.4716128e+00   5.7071229e+00   2.2420208e+01  -7.6724555e+00  -2.5919001e+01  -5.5303514e+00  -4.5265382e+00  -1.4285930e+01  -1.6838833e+01  -8.5060545e+00   4.0230503e+00  -8.7295395e+00  -1.1663386e+01  -7.7761915e+00  -7.1095586e+00  -5.9563583e+00  -1.7767431e+01  -1.0978191e+01  -2.3627128e+01   0.0000000e+00   3.0000000e+01   0.0000000e+00   0.0000000e+00
   7.3583426e+00   4.0899569e+00   6.5025054e+00   2.1021133e+01  -9.2421023e+00  -2.6229746e+01  -5.8240517e+00  -3.2801783e+00  -1.4678626e+01  -1.7187723e+01  -9.3949964e+00   2.8893057e+00  -9.8484603e+00  -1.2403997e+01  -9.0081456e+00  -7.4374169e+00  -6.5425017e+00  -1.8267284e+01  -1.2817403e+01  -2.3911968e+01   0.0000000e+00   3.0000000e+01   0.0000000e+00   0.0000000e+00
   7.4297104e+00   4.5393190e+00   7.0879252e+00   1.9154817e+01  -1.0101444e+01  -2.5817663e+01  -6.0697695e+00  -2.4157995e+00  -1.4685136e+01  -1.7694049e+01  -9.9902280e+00   1.7282792e+00  -1.0267126e+01  -1.3230747e+01  -1.0389092e+01  -6.9935091e+00  -6.7252514e+00  -1.8521159e+01  -1.4654553e+01  -2.4040046e+01   0.0000000e+00   3.0000000e+01   0.0000000e+00   0.0000000e+00
   8.1220374e+00   4.7357532e+00   7.4713448e+00   1.9166832e+01  -9.7657871e+00  -2.5309305e+01  -6.1626206e+00  -2.5175587e+00  -1.4668184e+01  -1.8101671e+01  -1.0383330e+01  -2.1330047e-02  -1.0160589e+01  -1.3985625e+01  -1.1634386e+01  -6.3660747e+00  -6.5114110e+00  -1.8373345e+01  -1.6117392e+01  -2.3917837e+01   0.0000000e+00   3.0000000e+01   0.0000000e+00   0.0000000e+00
   8.8298235e+00   5.0951802e+00   7.4484023e+00   2.0883001e+01  -7.8999770e+00  -2.4809496e+01  -6.0801095e+00  -2.9484116e+00  -1.4756522e+01  -1.8299868e+01  -1.0737488e+01  -1.7880125e+00  -1.0066884e+01  -1.4384616e+01  -1.2487719e+01  -6.0697572e+00  -5.9749048e+00  -1.8099607e+01  -1.7096547e+01  -2.3505182e+01   0.0000000e+00   3.0000000e+01   0.0000000e+00   0.0000000e+00
   9.0495519e+00   6.4862328e+00   7.4407698e+00   2.1466462e+01  -6.0396563e+00  -2.4326666e+01  -5.6634439e+00  -2.6756722e+00  -1.3957409e+01  -1.8440618e+01  -1.1009374e+01  -1.6848323e+00  -1.0146812e+01  -1.4667803e+01  -1.3001653e+01  -5.8182522e+00  -5.3472580e+00  -1.7685773e+01  -1.7321235e+01  -2.2348131e+01   0.0000000e+00   3.0000000e+01   0.0000000e+00   0.0000000e+00
   8.9140300e+00   8.2278797e+00   7.8781080e+00   2.0065967e+01  -5.8775547e+00  -2.3651463e+01  -4.8191364e+00  -1.3998947e+00  -1.1786521e+01  -1.8587254e+01  -1.1169905e+01  -5.1904787e-01  -1.0084083e+01  -1.4874976e+01  -1.3283425e+01  -5.2825802e+00  -4.7844759e+00  -1.7053133e+01  -1.6755359e+01  -2.0146507e+01   0.0000000e+00   3.0000000e+01   0.0000000e+00   0.0000000e+00
   8.6396250e+00   9.0729796e+00   8.7992518e+00   1.8792146e+01  -6.4903213e+00  -2.2891685e+01  -3.7093437e+00  -1.7723866e-01  -9.4883223e+00  -1.8893352e+01  -1.1268903e+01  -2.6398650e-01  -9.4840630e+00  -1.4797132e+01  -1.3313530e+01  -4.5678693e+00  -4.4637027e+00  -1.6215064e+01  -1.5814708e+01  -1.7303506e+01   0.0000000e+00   3.0000000e+01   0.0000000e+00   0.0000000e+00
   8.7714217e+00   8.7372030e+00   9.9755637e+00   1.9693876e+01  -6.3546173e+00  -2.2443437e+01  -2.5770542e+00   1.7265811e-01  -8.1831577e+00  -1.9544592e+01  -1.1413779e+01   1.4368042e-01  -8.7914302e+00  -1.4481736e+01  -1.3202413e+01  -4.0069734e+00  -4.5881541e+00  -1.5455753e+01  -1.4904068e+01  -1.4667052e+01   0.0000000e+00   3.0000000e+01   0.0000000e+00   0.0000000e+00
   9.5481014e+00   8.4615125e+00   1.0891301e+01   2.1635656e+01  -4.9306645e+00  -2.2158829e+01  -1.4009965e+00   7.6338577e-02  -7.3285813e+00  -1.9770988e+01  -1.1580862e+01   1.3802764e+00  -8.2367717e+00  -1.4240201e+01  -1.3060117e+01  -4.2085502e+00  -4.9392322e+00  -1.4823373e+01  -1.3819539e+01  -1.2421516e+01   0.0000000e+00   3.0000000e+01   0.0000000e+00   0.0000000e+00
   1.0641131e+01   9.3030686e+00   1.1368996e+01   2.2604488e+01  -2.8571323e+00  -2.1779566e+01  -4.0677089e-01   1.2346522e-01  -7.1598877e+00  -1.9671610e+01  -1.1817238e+01   1.5745485e+00  -7.8945068e+00  -1.3940464e+01  -1.2836308e+01  -5.2519380e+00  -5.2367802e+00  -1.4452120e+01  -1.2567305e+01  -1.0493061e+01   0.0000000e+00   3.0000000e+01   0.0000000e+00   0.0000000e+00
   1.1654668e+01   1.1081683e+01   1.1805200e+01   2.1807684e+01  -1.9994641e+00  -2.1283792e+01  -3.5190056e-02   2.5733201e-01  -8.0440583e+00  -1.9847445e+01  -1.2302147e+01   7.7011647e-01  -7.7466141e+00  -1.3646513e+01  -1.2699542e+01  -6.7429270e+00  -5.4418691e+00  -1.4495695e+01  -1.1626116e+01  -9.0746369e+00   0.0000000e+00   3.0000000e+01   0.0000000e+00   0.0000000e+00
   1.1962993e+01   1.2189267e+01   1.2045881e+01   2.0136462e+01  -2.2939496e+00  -2.1113461e+01  -3.7540613e-01   2.6293321e-01  -9.2475445e+00  -2.0275553e+01  -1.3084484e+01  -7.9430981e-03  -8.4880898e+00  -1.3913082e+01  -1.2988374e+01  -8.4486753e+00  -5.7834044e+00  -1.5267836e+01  -1.1454321e+01  -8.4004651e+00   0.0000000e+00   3.0000000e+01   0.0000000e+00   0.0000000e+00
   1.1348461e+01   1.1508385e+01   1.1754071e+01   1.9164851e+01  -2.7298167e+00  -2.1548788e+01  -1.1212649e+00   4.1695700e-01  -1.0385625e+01  -2.0772551e+01  -1.3720917e+01  -1.1809239e+00  -1.0075199e+01  -1.4873257e+01  -1.3589874e+01  -9.4854990e+00  -6.4177647e+00  -1.6622527e+01  -1.1819768e+01  -7.9692282e+00   0.0000000e+00   3.0000000e+01   0.0000000e+00   0.0000000e+00
   1.0637354e+01   9.9522288e+00   1.1027202e+01   1.9405209e+01  -3.2988682e+00  -2.2770025e+01  -2.1359030e+00   9.7576466e-01  -1.1408503e+01  -2.0919008e+01  -1.4250713e+01  -2.2493018e+00  -1.1669517e+01  -1.6121689e+01  -1.4264637e+01  -9.3956390e+00  -7.2630471e+00  -1.8056070e+01  -1.2371628e+01  -7.2601642e+00   0.0000000e+00   3.0000000e+01   0.0000000e+00   0.0000000e+00
   1.0294087e+01   9.1983893e+00   1.0518485e+01   1.9465866e+01  -3.8496238e+00  -2.4746153e+01  -3.2472010e+00   1.5244579e+00  -1.2095916e+01  -2.0713969e+01  -1.5035665e+01  -2.8593987e+00  -1.2785953e+01  -1.7444860e+01  -1.4969669e+01  -8.7949825e+00  -8.3082324e+00  -1.9185089e+01  -1.3101157e+01  -6.3357450e+00   0.0000000e+00   3.0000000e+01   0.0000000e+00   0.0000000e+00
   9.9104519e+00   9.1099435e+00   1.0239734e+01   1.8004778e+01  -4.3990285e+00  -2.6874834e+01  -4.6662451e+00   1.4440778e+00  -1.2515912e+01  -2.1688296e+01  -1.5967837e+01  -3.4977399e+00  -1.3794427e+01  -1.8632985e+01  -1.5645205e+01  -8.4005146e+00  -9.5746753e+00  -2.0262018e+01  -1.4216046e+01  -5.6866082e+00   0.0000000e+00   3.0000000e+01   0.0000000e+00   0.0000000e+00
   9.3538062e+00   9.3060031e+00   9.9872084e+00   1.6192295e+01  -5.6083289e+00  -2.8364021e+01  -6.1523391e+00   7.7663228e-01  -1.2774216e+01  -2.3972629e+01  -1.6446319e+01  -4.4760096e+00  -1.4563981e+01  -1.9466952e+01  -1.6011896e+01  -8.1271471e+00  -1.0664338e+01  -2.1128978e+01  -1.5394740e+01  -5.2233046e+00   0.0000000e+00   3.0000000e+01   0.0000000e+00   0.0000000e+00
   8.4354233e+00   9.6400295e+00   9.8564575e+00   1.4529960e+01  -7.4216160e+00  -2.8556916e+01  -7.2995218e+00  -5.0474558e-03  -1.2804700e+01  -2.5595942e+01  -1.6133915e+01  -6.0546617e+00  -1.4792449e+01  -1.9643616e+01  -1.5829480e+01  -7.6613806e+00  -1.1052195e+01  -2.1433476e+01  -1.6106780e+01  -4.7242355e+00   0.0000000e+00   3.0000000e+01   0.0000000e+00   0.0000000e+00
   7.0579522e+00   9.6395102e+00   9.8260060e+00   1.2663844e+01  -8.9870985e+00  -2.7842676e+01  -7.8928722e+00  -1.4970940e-01  -1.2836211e+01  -2.5776493e+01  -1.4935682e+01  -8.3812191e+00  -1.4520499e+01  -1.8741865e+01  -1.4857253e+01  -6.7475173e+00  -1.0821943e+01  -2.1023366e+01  -1.5948290e+01  -3.9562165e+00   0.0000000e+00   3.0000000e+01   0.0000000e+00   0.0000000e+00
   5.8159666e+00   9.2372910e+00   9.5562165e+00   1.2339801e+01  -9.3129590e+00  -2.7266462e+01  -7.9521031e+00   1.1422038e+00  -1.3126831e+01  -2.5086830e+01  -1.3416246e+01  -1.0855142e+01  -1.4634610e+01  -1.7223464e+01  -1.3474839e+01  -5.5404204e+00  -1.0618871e+01  -2.0326997e+01  -1.5218387e+01  -3.1115458e+00   0.0000000e+00   3.0000000e+01   0.0000000e+00   0.0000000e+00
   5.3123683e+00   8.7289543e+00   8.8286269e+00   1.2605128e+01  -8.6922907e+00  -2.6954767e+01  -7.7348129e+00   2.6887269e+00  -1.3445979e+01  -2.3981261e+01  -1.2217251e+01  -1.2970620e+01  -1.5193576e+01  -1.5839072e+01  -1.2243355e+01  -4.6845489e+00  -1.0447447e+01  -1.9749238e+01  -1.4382452e+01  -2.6131592e+00   0.0000000e+00   3.0000000e+01   0.0000000e+00   0.0000000e+00
   5.4683619e+00   7.8840726e+00   7.6037218e+00   1.1575615e+01  -7.8845571e+00  -2.6387539e+01  -7.2993021e+00   2.9205805e+00  -1.4003017e+01  -2.2641402e+01  -1.1342523e+01  -1.4837199e+01  -1.5217387e+01  -1.4530779e+01  -1.1105831e+01  -4.1445780e+00  -9.8742809e+00  -1.9273051e+01  -1.3488721e+01  -2.5212184e+00   0.0000000e+00   3.0000000e+01   0.0000000e+00   0.0000000e+00
   5.8201417e+00   7.3130140e+00   6.2687043e+00   1.0232410e+01  -7.5249129e+00  -2.5683644e+01  -6.7270894e+00   2.4182234e+00  -1.4342918e+01  -2.1313121e+01  -1.0642566e+01  -1.5908597e+01  -1.4815200e+01  -1.3733103e+01  -1.0170374e+01  -3.5831634e+00  -9.1770775e+00  -1.8748108e+01  -1.2624008e+01  -2.5749555e+00   0.0000000e+00   3.0000000e+01   0.0000000e+00   0.0000000e+00
   5.6384875e+00   7.0398851e+00   5.1184601e+00   1.0534504e+01  -7.8251320e+00  -2.5414354e+01  -6.5169557e+00   2.0973861e+00  -1.3924775e+01  -2.0157685e+01  -1.0410297e+01  -1.6286635e+01  -1.5128801e+01  -1.3754748e+01  -9.8541827e+00  -3.3028290e+00  -8.9287137e+00  -1.8629099e+01  -1.2234236e+01  -2.9621223e+00   0.0000000e+00   3.0000000e+01   5.0000000e+01   0.0000000e+00
   5.0496779e+00   6.8358886e+00   4.2577457e+00   1.1675294e+01  -7.6369956e+00  -2.5668902e+01  -6.9014831e+00   1.1789606e+00  -1.3613888e+01  -1.9677271e+01  -1.0575746e+01  -1.7019036e+01  -1.5859975e+01  -1.4397643e+01  -1.0146046e+01  -3.3783512e+00  -9.2377541e+00  -1.9001575e+01  -1.2324014e+01  -3.7525546e+00   0.0000000e+00   3.0000000e+01   5.0000000e+01   0.0000000e+00
   4.7284909e+00   6.5693537e+00   3.3738445e+00   1.2304518e+01  -6.6821004e+00  -2.6124654e+01  -7.6568350e+00  -3.6888097e-01  -1.3966529e+01  -2.0315189e+01  -1.0497437e+01  -1.8003846e+01  -1.6449963e+01  -1.4940541e+01  -1.0239838e+01  -2.7532944e+00  -9.7590781e+00  -1.9324558e+01  -1.2476328e+01  -4.4624043e+00   0.0000000e+00   3.0000000e+01   5.0000000e+01   0.0000000e+00
   4.5761919e+00   6.0480022e+00   2.1848152e+00   1.1678413e+01  -6.4057694e+00  -2.6748801e+01  -8.5207626e+00  -1.7311280e+00  -1.4192469e+01  -2.1170604e+01  -9.9313596e+00  -1.8750020e+01  -1.6827294e+01  -1.5029359e+01  -9.8329777e+00  -1.4960458e+00  -1.0285600e+01  -1.9201869e+01  -1.2492100e+01  -4.7429144e+00   0.0000000e+00   3.0000000e+01   5.0000000e+01   0.0000000e+00
   3.8758676e+00   4.8921335e+00   6.3281036e-01   8.6969584e+00  -7.7714431e+00  -2.7689490e+01  -9.5492890e+00  -2.9483539e+00  -1.4189671e+01  -2.1218080e+01  -9.2504693e+00  -1.8850057e+01  -1.7272861e+01  -1.4658337e+01  -9.2880207e+00  -1.1100531e+00  -1.0746778e+01  -1.8972841e+01  -1.2591748e+01  -5.0700804e+00   0.0000000e+00   3.0000000e+01   5.0000000e+01   0.0000000e+00
   2.8563319e+00   3.8688148e+00  -6.2564868e-01   6.4175851e+00  -9.5729226e+00  -2.8570649e+01  -1.0534154e+01  -4.1588773e+00  -1.4005195e+01  -1.9991840e+01  -8.1476683e+00  -1.8444962e+01  -1.6730677e+01  -1.3516198e+01  -8.3074730e+00  -1.6775326e+00  -1.0447362e+01  -1.8162145e+01  -1.2450855e+01  -5.3712414e+00   0.0000000e+00   3.0000000e+01   5.0000000e+01   0.0000000e+00
   2.2437269e+00   3.7304171e+00  -1.2214539e+00   7.2133557e+00  -9.6673635e+00  -2.8885344e+01  -1.1113379e+01  -5.0857218e+00  -1.3609131e+01  -1.7746815e+01  -6.7832475e+00  -1.8259824e+01  -1.4627895e+01  -1.1645566e+01  -6.9274999e+00  -2.7711466e+00  -9.2334155e+00  -1.6314655e+01  -1.1852689e+01  -5.4696876e+00   0.0000000e+00   3.0000000e+01   5.0000000e+01   0.0000000e+00
   2.1246392e+00   4.0674734e+00  -1.2483502e+00   8.6008613e+00  -8.7511544e+00  -2.8847686e+01  -1.1394229e+01  -5.6460675e+00  -1.3092270e+01  -1.5352476e+01  -5.8563610e+00  -1.8637224e+01  -1.2214949e+01  -9.9962730e+00  -5.8625783e+00  -4.3609310e+00  -7.8558401e+00  -1.4003744e+01  -1.1349422e+01  -5.6716367e+00   0.0000000e+00   3.0000000e+01   5.0000000e+01   0.0000000e+00
   2.0375434e+00   4.1062895e+00  -1.1972951e+00   9.0962128e+00  -8.7605171e+00  -2.9226787e+01  -1.1684945e+01  -6.0247377e+00  -1.2674487e+01  -1.3540059e+01  -5.4988756e+00  -1.8235984e+01  -1.1054034e+01  -9.1484001e+00  -5.4744580e+00  -6.2289806e+00  -7.0518556e+00  -1.2334083e+01  -1.1684767e+01  -6.2434347e+00   0.0000000e+00   3.0000000e+01   5.0000000e+01   0.0000000e+00
   1.6221633e+00   4.3935126e+00  -1.0848968e+00   9.3205105e+00  -9.1457013e+00  -2.9986442e+01  -1.1983410e+01  -6.2124559e+00  -1.1828642e+01  -1.2554879e+01  -5.4516157e+00  -1.6646573e+01  -1.0886749e+01  -9.2614393e+00  -5.9328416e+00  -8.1160306e+00  -6.8697006e+00  -1.1523613e+01  -1.2871710e+01  -6.9159234e+00   0.0000000e+00   3.0000000e+01   5.0000000e+01   0.0000000e+00
   6.7597042e-01   4.9230558e+00  -7.9365032e-01   9.8423292e+00  -9.2013031e+00  -3.0809737e+01  -1.2232469e+01  -6.2624348e+00  -1.0402277e+01  -1.2286680e+01  -5.3938248e+00  -1.5487899e+01  -1.0819417e+01  -1.0035926e+01  -7.1837798e+00  -9.8499930e+00  -7.0428075e+00  -1.1443006e+01  -1.4622340e+01  -7.3905754e+00   0.0000000e+00   3.0000000e+01   5.0000000e+01   0.0000000e+00
  -1.4343488e-01   5.1959510e+00  -6.2072257e-01   1.0158283e+01  -8.9170000e+00  -3.1571124e+01  -1.2392827e+01  -5.9824266e+00  -9.3940948e+00  -1.2507982e+01  -5.1185750e+00  -1.5977950e+01  -1.0070242e+01  -1.1114170e+01  -8.9010408e+00  -1.1964409e+01  -7.4302453e+00  -1.1806108e+01  -1.6504103e+01  -7.4050122e+00   0.0000000e+00   3.0000000e+01   5.0000000e+01   0.0000000e+00
  -3.9077524e-01   5.3042180e+00  -8.9890251e-01   1.0261675e+01  -8.4679732e+00  -3.2181144e+01  -1.2527772e+01  -5.2263525e+00  -9.3474991e+00  -1.3015011e+01  -4.7779641e+00  -1.6995217e+01  -9.0574284e+00  -1.2340867e+01  -1.0902126e+01  -1.5548736e+01  -8.0662217e+00  -1.2391642e+01  -1.8143400e+01  -7.0112650e+00   0.0000000e+00   3.0000000e+01   5.0000000e+01   0.0000000e+00
  -5.9175604e-01   5.0676587e+00  -1.5163688e+00   1.0210897e+01  -8.1543092e+00  -3.2826094e+01  -1.2935402e+01  -4.7484390e+00  -9.7604614e+00  -1.3688000e+01  -4.4978864e+00  -1.7779367e+01  -8.6063218e+00  -1.3686787e+01  -1.3068200e+01  -2.1141933e+01  -9.1520002e+00  -1.3063755e+01  -1.9300058e+01  -6.4516432e+00   0.0000000e+00   3.0000000e+01   5.0000000e+01   0.0000000e+00
  -7.1337451e-01   4.5852118e+00  -2.3533208e+00   9.2542778e+00  -7.9601876e+00  -3.3700997e+01  -1.3367498e+01  -4.5717615e+00  -1.0155798e+01  -1.4805820e+01  -4.2257614e+00  -1.8916812e+01  -8.6747505e+00  -1.4869240e+01  -1.4724897e+01  -2.7796446e+01  -1.0487922e+01  -1.3654381e+01  -1.9913305e+01  -5.8414290e+00   0.0000000e+00   3.0000000e+01   5.0000000e+01   0.0000000e+00
  -6.5751518e-01   4.6356142e+00  -3.2574767e+00   7.0536506e+00  -8.6556651e+00  -3.4697387e+01  -1.3434839e+01  -4.2068865e+00  -1.0232662e+01  -1.5607443e+01  -4.0010625e+00  -2.0903586e+01  -8.4625586e+00  -1.5952209e+01  -1.5885235e+01  -3.4010982e+01  -1.1649930e+01  -1.4016036e+01  -2.0213722e+01  -5.3493441e+00   0.0000000e+00   3.0000000e+01   5.0000000e+01   0.0000000e+00
  -6.2147634e-01   4.1890625e+00  -4.0568472e+00   4.5821756e+00  -9.9721486e+00  -3.5768306e+01  -1.3775512e+01  -3.9622555e+00  -1.0143843e+01  -1.5528092e+01  -4.0798212e+00  -2.2469212e+01  -8.4365537e+00  -1.7040101e+01  -1.7250357e+01  -3.9451380e+01  -1.2811559e+01  -1.4647735e+01  -2.0860023e+01  -5.6591263e+00   0.0000000e+00   3.0000000e+01   5.0000000e+01   0.0000000e+00
  -4.3862663e-01   3.5163266e+00  -4.0576513e+00   3.8292439e+00  -1.0816734e+01  -3.6923258e+01  -1.4388926e+01  -3.9090283e+00  -1.0013754e+01  -1.5225130e+01  -4.1921900e+00  -2.2579704e+01  -9.2592713e+00  -1.8357037e+01  -1.8879585e+01  -4.3697242e+01  -1.3965791e+01  -1.5562758e+01  -2.1823824e+01  -6.4808479e+00   0.0000000e+00   3.0000000e+01   5.0000000e+01   0.0000000e+00
   1.5345558e-03   3.5233055e+00  -2.9938504e+00   4.5347095e+00  -1.0427578e+01  -3.7665910e+01  -1.4575100e+01  -3.8112859e+00  -1.0128920e+01  -1.5396107e+01  -3.9492392e+00  -2.1654960e+01  -1.0826878e+01  -1.9653151e+01  -2.0292879e+01  -4.6170429e+01  -1.4612458e+01  -1.6448369e+01  -2.2554136e+01  -6.8889675e+00   0.0000000e+00   3.0000000e+01   5.0000000e+01   0.0000000e+00
   5.3579082e-01   4.1246776e+00  -1.2660336e+00   4.1347698e+00  -9.3064126e+00  -3.7855167e+01  -1.4413498e+01  -4.1437314e+00  -1.0997410e+01  -1.5867228e+01  -3.4313333e+00  -2.1005643e+01  -1.2087254e+01  -2.0472538e+01  -2.1096417e+01  -4.7014653e+01  -1.4464466e+01  -1.7269871e+01  -2.2789668e+01  -6.6812839e+00   0.0000000e+00   3.0000000e+01   5.0000000e+01   0.0000000e+00
   9.7939064e-01   4.8168462e+00   1.6937654e-01   2.7124378e+00  -8.4531393e+00  -3.7705595e+01  -1.4092663e+01  -4.8492248e+00  -1.1716605e+01  -1.6090287e+01  -2.9797314e+00  -2.1356297e+01  -1.2467146e+01  -2.0684678e+01  -2.1283244e+01  -4.7375254e+01  -1.3711971e+01  -1.8231793e+01  -2.2686547e+01  -6.2811284e+00   0.0000000e+00   3.0000000e+01   5.0000000e+01   0.0000000e+00
   1.6057910e+00   5.4927512e+00   1.0196282e+00   2.1564370e+00  -8.0340005e+00  -3.7132485e+01  -1.3490953e+01  -5.2105186e+00  -1.0997004e+01  -1.6097808e+01  -2.6389694e+00  -2.1927504e+01  -1.2137330e+01  -2.0533335e+01  -2.0898899e+01  -4.7798699e+01  -1.2572579e+01  -1.8924876e+01  -2.2159858e+01  -5.6571788e+00   0.0000000e+00   3.0000000e+01   5.0000000e+01   0.0000000e+00
   2.4015617e+00   5.7546810e+00   1.7584671e+00   3.0148603e+00  -7.6289237e+00  -3.6241371e+01  -1.2856689e+01  -4.9371678e+00  -9.7313964e+00  -1.6377474e+01  -2.5241771e+00  -2.1948339e+01  -1.1904458e+01  -2.0320470e+01  -2.0373640e+01  -4.8109223e+01  -1.1393576e+01  -1.9135904e+01  -2.1439130e+01  -4.9503893e+00   0.0000000e+00   3.0000000e+01   5.0000000e+01   0.0000000e+00
   3.3443327e+00   5.5049869e+00   2.5098639e+00   4.4892307e+00  -7.0810936e+00  -3.5232347e+01  -1.2230791e+01  -4.4989851e+00  -9.1320081e+00  -1.6967006e+01  -2.5523499e+00  -2.2169692e+01  -1.1964438e+01  -2.0003828e+01  -1.9944646e+01  -4.8437221e+01  -1.0437532e+01  -1.8923894e+01  -2.0669297e+01  -4.5799093e+00   0.0000000e+00   3.0000000e+01   5.0000000e+01   0.0000000e+00
   4.1823374e+00   5.0540231e+00   2.8557796e+00   4.9054050e+00  -5.8981701e+00  -3.4170317e+01  -1.1508516e+01  -4.6590290e+00  -9.3849326e+00  -1.7190170e+01  -2.6162987e+00  -2.2770281e+01  -1.2181624e+01  -1.9258742e+01  -1.9435089e+01  -4.8873962e+01  -9.7785613e+00  -1.8527152e+01  -1.9835272e+01  -5.1325725e+00   0.0000000e+00   3.0000000e+01   5.0000000e+01   0.0000000e+00
   4.4187515e+00   5.1928680e+00   2.8527114e+00   3.0188884e+00  -4.5869854e+00  -3.2980437e+01  -1.0419646e+01  -5.2536010e+00  -1.0213387e+01  -1.6710923e+01  -2.5354976e+00  -2.3967639e+01  -1.1960367e+01  -1.8157630e+01  -1.8539061e+01  -4.8739785e+01  -9.4374207e+00  -1.7836623e+01  -1.8769952e+01  -6.4311815e+00   0.0000000e+00   3.0000000e+01   5.0000000e+01   0.0000000e+00
   3.9994440e+00   5.5497171e+00   2.9353181e+00   9.5574942e-01  -3.7996642e+00  -3.1885783e+01  -9.2006942e+00  -5.5276628e+00  -1.1195313e+01  -1.6515406e+01  -2.2974054e+00  -2.5881505e+01  -1.1339688e+01  -1.7049994e+01  -1.7145045e+01  -4.7712653e+01  -9.7040067e+00  -1.6897271e+01  -1.7522010e+01  -7.8051052e+00   0.0000000e+00   3.0000000e+01   5.0000000e+01   0.0000000e+00
   3.3397816e+00   5.8926797e+00   3.5690033e+00   5.3891914e-01  -3.8216390e+00  -3.1304069e+01  -8.1250050e+00  -5.1277456e+00  -1.1779655e+01  -1.6624656e+01  -1.9657804e+00  -2.7057031e+01  -1.0936204e+01  -1.6292669e+01  -1.5398879e+01  -4.5485102e+01  -1.0510059e+01  -1.5818139e+01  -1.6125258e+01  -8.5429769e+00   0.0000000e+00   3.0000000e+01   5.0000000e+01   0.0000000e+00
   2.8302934e+00   6.6696302e+00   4.3147779e+00   2.7680349e-01  -4.2099379e+00  -3.1384532e+01  -6.8572541e+00  -4.0623261e+00  -1.2118944e+01  -1.6554934e+01  -1.7314983e+00  -2.6229844e+01  -1.1523246e+01  -1.5601204e+01  -1.3191207e+01  -4.1420495e+01  -1.1285363e+01  -1.4947190e+01  -1.4539671e+01  -8.5385979e+00   0.0000000e+00   3.0000000e+01   5.0000000e+01   0.0000000e+00
   2.6505145e+00   8.1767209e+00   4.9445291e+00  -1.9197441e+00  -3.4008185e+00  -3.1589094e+01  -5.1729989e+00  -2.1129966e+00  -1.2130370e+01  -1.6177419e+01  -1.4125502e+00  -2.4326182e+01  -1.2479306e+01  -1.4755439e+01  -1.0349401e+01  -3.5012517e+01  -1.1448867e+01  -1.4163031e+01  -1.2564336e+01  -7.6761043e+00   0.0000000e+00   3.0000000e+01   5.0000000e+01   0.0000000e+00
   2.2894474e+00   9.3661483e+00   5.6054840e+00  -4.2909863e+00  -1.7927787e+00  -3.1214211e+01  -3.4122804e+00   6.4429060e-01  -1.2110567e+01  -1.5533907e+01  -1.0435231e+00  -2.3107029e+01  -1.2658231e+01  -1.3757206e+01  -7.6499876e+00  -2.7320320e+01  -1.1091467e+01  -1.3405037e+01  -1.0585901e+01  -6.2830245e+00   0.0000000e+00   3.0000000e+01   5.0000000e+01   0.0000000e+00
   1.6612119e+00   9.5170711e+00   5.9984908e+00  -3.3897480e+00  -1.8870232e+00  -3.0750310e+01  -2.2126374e+00   2.2539031e+00  -1.1525039e+01  -1.4971774e+01  -7.4455372e-01  -2.2607826e+01  -1.1960144e+01  -1.2792322e+01  -5.7809457e+00  -2.0410904e+01  -1.0729243e+01  -1.2896449e+01  -9.3222653e+00  -5.3631328e+00   0.0000000e+00   3.0000000e+01   5.0000000e+01   0.0000000e+00
   1.2359985e+00   8.8165092e+00   5.7044274e+00  -5.1263323e-01  -3.2510608e+00  -3.1106302e+01  -1.6854114e+00   2.1495998e+00  -1.0441045e+01  -1.4561011e+01  -6.8586298e-01  -2.1962058e+01  -1.1348908e+01  -1.1805648e+01  -4.5431269e+00  -1.5143159e+01  -1.0327618e+01  -1.2815986e+01  -8.8304178e+00  -5.2191275e+00   0.0000000e+00   3.0000000e+01   5.0000000e+01   0.0000000e+00
   1.3829946e+00   8.6636957e+00   5.2173104e+00   4.5305875e-01  -3.3170229e+00  -3.1848909e+01  -1.2882550e+00   1.6808823e+00  -9.5849978e+00  -1.4360052e+01  -7.7420024e-01  -2.0699951e+01  -1.0768477e+01  -1.0665600e+01  -3.4837146e+00  -1.1216040e+01  -9.3236083e+00  -1.2569333e+01  -8.2589511e+00  -5.0016066e+00   0.0000000e+00   3.0000000e+01   5.0000000e+01   0.0000000e+00
   1.9899709e+00   9.5525611e+00   5.1017120e+00  -3.0375527e-01  -1.3372202e+00  -3.1940895e+01  -6.1510337e-01   1.4479546e+00  -9.1123634e+00  -1.4386977e+01  -9.4370611e-01  -1.8759704e+01  -9.8959488e+00  -9.2464770e+00  -2.3496404e+00  -7.9157823e+00  -7.5682186e+00  -1.1739990e+01  -7.0731124e+00  -4.0709003e+00   0.0000000e+00   3.0000000e+01   5.0000000e+01   0.0000000e+00
   2.8531932e+00   1.0613739e+01   5.6333217e+00   3.7185527e-01   8.9284659e-01  -3.0600656e+01   5.0013238e-01   1.6973270e+00  -8.8972226e+00  -1.4015295e+01  -1.1412453e+00  -1.5921823e+01  -8.4638977e+00  -7.6801259e+00  -1.2038648e+00  -4.9656070e+00  -5.2114812e+00  -1.0233108e+01  -5.0924944e+00  -1.9778592e+00   0.0000000e+00   3.0000000e+01   5.0000000e+01   0.0000000e+00
   4.2099186e+00   1.1421959e+01   6.4103428e+00   3.0956583e+00   1.9567687e+00  -2.7938818e+01   2.1912892e+00   2.3961596e+00  -8.5884313e+00  -1.3344715e+01  -1.3172005e+00  -1.2955175e+01  -6.7325728e+00  -5.9117152e+00   4.6854716e-02  -2.1136142e+00  -2.3828265e+00  -8.3503237e+00  -2.6730399e+00   9.8907759e-01   0.0000000e+00   3.0000000e+01   5.0000000e+01   0.0000000e+00
   6.0745760e+00   1.2846042e+01   7.2389894e+00   6.0104751e+00   3.0931753e+00  -2.4886518e+01   4.3127491e+00   2.9927070e+00  -7.4171143e+00  -1.2190858e+01  -1.5417341e+00  -1.1622974e+01  -4.6504008e+00  -4.2017349e+00   1.3140861e+00   1.2733471e-01   6.7600385e-01  -6.2682051e+00  -2.8739645e-01   3.9585484e+00   0.0000000e+00   3.0000000e+01   5.0000000e+01   0.0000000e+00
   7.9158216e+00   1.4845648e+01   8.0738892e+00   7.9185354e+00   5.5254651e+00  -2.2164861e+01   6.2382879e+00   3.4115071e+00  -5.4377757e+00  -1.0772345e+01  -1.7188519e+00  -1.1941907e+01  -2.7121552e+00  -2.6448946e+00   2.4368690e+00   1.2588924e+00   3.6072536e+00  -4.2431534e+00   1.7139445e+00   6.3109940e+00   0.0000000e+00   0.0000000e+00   5.0000000e+01   0.0000000e+00
   9.6511042e+00   1.6927202e+01   8.8637632e+00   9.9179738e+00   9.0155396e+00  -1.9805979e+01   7.6950743e+00   3.9184526e+00  -3.5297281e+00  -9.7230971e+00  -1.6085810e+00  -1.1298572e+01  -1.0504699e+00  -1.1190331e+00   3.3111262e+00   1.5468187e+00   6.2043673e+00  -2.3100212e+00   3.3151166e+00   8.1126257e+00   0.0000000e+00   0.0000000e+00   5.0000000e+01   0.0000000e+00
   1.1063812e+01   1.7564758e+01   9.2866889e+00   1.2312989e+01   1.1711189e+01  -1.7816599e+01   8.4361542e+00   4.2454053e+00  -2.5382332e+00  -9.1309462e+00  -1.6226986e+00  -9.7043993e+00   1.8313022e-01  -1.5291533e-02   3.5205949e+00   9.6822983e-01   8.1832189e+00  -9.4399939e-01   4.1347783e+00   9.1683947e+00   0.0000000e+00   0.0000000e+00   5.0000000e+01   0.0000000e+00
   1.1842012e+01   1.6267006e+01   9.3133993e+00   1.3431855e+01   1.2419037e+01  -1.6483853e+01   8.0996713e+00   3.9765122e+00  -2.1801357e+00  -9.0464832e+00  -2.1457780e+00  -9.6956084e+00   1.1158597e+00   1.2998702e-01   2.7772346e+00  -3.0644304e-01   9.4073677e+00  -4.1859720e-01   3.8114834e+00   9.3428123e+00   0.0000000e+00   0.0000000e+00   5.0000000e+01   0.0000000e+00
   1.1787116e+01   1.4563634e+01   9.2110441e+00   1.3990353e+01   1.2191833e+01  -1.6011035e+01   6.8348963e+00   3.1060664e+00  -1.8178151e+00  -8.9668653e+00  -2.9999568e+00  -1.1073892e+01   2.0963506e+00  -3.2052209e-01   1.5819941e+00  -1.0048992e+00   9.9645383e+00  -3.5911762e-01   2.7040650e+00   8.9168881e+00   0.0000000e+00   0.0000000e+00   5.0000000e+01   0.0000000e+00
   1.1114604e+01   1.3814729e+01   9.3415921e+00   1.3818426e+01   1.1945058e+01  -1.6202120e+01   5.4855413e+00   2.1322340e+00  -8.3985156e-01  -8.3361111e+00  -3.6678437e+00  -1.1372981e+01   3.0612247e+00  -7.3732653e-01   6.8253055e-01  -7.0257132e-01   1.0133759e+01  -1.7782247e-01   1.7304395e+00   8.5298641e+00   0.0000000e+00   0.0000000e+00   5.0000000e+01   0.0000000e+00
   1.0278650e+01   1.3891894e+01   9.4342845e+00   1.2624871e+01   1.1186031e+01  -1.6678573e+01   4.6352215e+00   1.2984586e+00   5.4617775e-01  -7.6305265e+00  -4.1685181e+00  -9.6401041e+00   3.1079386e+00  -5.8269877e-01   3.0444118e-01  -4.8013735e-01   1.0019603e+01  -6.7567890e-02   1.2236558e+00   8.2504421e+00   0.0000000e+00   0.0000000e+00   5.0000000e+01   0.0000000e+00
   9.8876949e+00   1.3888855e+01   9.0372981e+00   1.2876961e+01   1.0155637e+01  -1.6863186e+01   4.2713689e+00   6.9684465e-01   1.2027615e+00  -7.3230210e+00  -4.3693288e+00  -7.8149434e+00   2.8312670e+00   2.0468672e-01   5.5009051e-01  -8.9361539e-01   9.9927225e+00   8.6405175e-02   1.3821027e+00   8.2275972e+00   0.0000000e+00   0.0000000e+00   5.0000000e+01   0.0000000e+00
   1.0047193e+01   1.3359173e+01   8.1816942e+00   1.4419625e+01   9.8729459e+00  -1.6507370e+01   4.1572307e+00   5.0769969e-01   1.0145394e+00  -6.9504786e+00  -4.1579835e+00  -8.0168842e+00   3.1557588e+00   1.1649764e+00   1.3300600e+00  -1.2498349e+00   1.0327384e+01   6.0295434e-01   2.2364027e+00   8.6526277e+00   0.0000000e+00   0.0000000e+00   5.0000000e+01   0.0000000e+00
   1.0149757e+01   1.3100126e+01   7.6401873e+00   1.4664555e+01   9.5874167e+00  -1.5880919e+01   4.3025330e+00   7.0454173e-01   1.3528191e+00  -6.6191337e+00  -3.8114143e+00  -1.0163137e+01   4.3749974e+00   2.0863487e+00   2.3436059e+00  -9.0442247e-01   1.1084424e+01   1.5875135e+00   3.6188804e+00   9.4396505e+00   0.0000000e+00   0.0000000e+00   5.0000000e+01   0.0000000e+00
   9.9790349e+00   1.3453990e+01   7.5358488e+00   1.4009452e+01   9.5740728e+00  -1.5272889e+01   4.6461228e+00   1.0672395e+00   2.0381448e+00  -6.8527089e+00  -3.7514312e+00  -1.1522831e+01   5.7115929e+00   3.1876721e+00   3.2622454e+00  -1.3311560e-01   1.2035004e+01   2.6988857e+00   5.0466470e+00   1.0152227e+01   0.0000000e+00   0.0000000e+00   5.0000000e+01   0.0000000e+00
   1.0136911e+01   1.4086345e+01   7.3606371e+00   1.4841160e+01   1.0009340e+01  -1.4834917e+01   4.9782153e+00   1.3821537e+00   2.5110408e+00  -6.6325761e+00  -4.0485032e+00  -1.1553804e+01   6.5948766e+00   4.2729283e+00   3.8121248e+00   6.5747687e-01   1.2799565e+01   3.6713732e+00   6.2131049e+00   1.0613694e+01   0.0000000e+00   0.0000000e+00   5.0000000e+01   0.0000000e+00
   1.0837692e+01   1.3810869e+01   6.9193653e+00   1.5976250e+01   1.0532442e+01  -1.4590468e+01   5.0354655e+00   1.7900089e+00   2.9973927e+00  -5.0554823e+00  -4.6174520e+00  -1.2177863e+01   7.1172108e+00   5.2119199e+00   3.9013744e+00   1.0405264e+00   1.3421874e+01   4.2355604e+00   6.9173217e+00   1.0806452e+01   0.0000000e+00   0.0000000e+00   5.0000000e+01   0.0000000e+00
   1.1599926e+01   1.2946038e+01   6.3660427e+00   1.5689721e+01   1.1391812e+01  -1.4296452e+01   4.7162387e+00   1.9646144e+00   3.2802972e+00  -2.9476848e+00  -5.1784879e+00  -1.3004359e+01   7.8417487e+00   6.0226175e+00   3.6024885e+00   1.0928481e+00   1.4356662e+01   4.4373002e+00   6.9555242e+00   1.0661458e+01   0.0000000e+00   0.0000000e+00   5.0000000e+01   0.0000000e+00
   1.2083371e+01   1.1940459e+01   5.3700632e+00   1.6557756e+01   1.1986634e+01  -1.4178880e+01   4.1182142e+00   2.2166388e+00   3.1457669e+00  -1.6172319e+00  -5.5926946e+00  -1.2790589e+01   8.5532270e+00   6.8956821e+00   3.0692283e+00   1.1741493e+00   1.5483311e+01   4.1943114e+00   6.0850756e+00   9.8970408e+00   0.0000000e+00   0.0000000e+00   5.0000000e+01   0.0000000e+00
   1.2244885e+01   1.0957964e+01   4.0761015e+00   1.9211906e+01   1.2265096e+01  -1.4403988e+01   3.4540109e+00   2.5963227e+00   3.3014232e+00  -1.7118740e+00  -5.7700466e+00  -1.1330573e+01   9.0652722e+00   7.6645571e+00   2.6305812e+00   1.2397485e+00   1.6285690e+01   3.5878702e+00   4.7393512e+00   8.6331290e+00   0.0000000e+00   0.0000000e+00   5.0000000e+01   0.0000000e+00
   1.1741881e+01   1.0172789e+01   2.8147138e+00   2.1005485e+01   1.2542932e+01  -1.5015900e+01   2.6668116e+00   2.3345576e+00   3.6678820e+00  -3.0473397e+00  -5.8151208e+00  -9.3729026e+00   8.6743499e+00   7.5349515e+00   2.0660590e+00   1.2689089e+00   1.6086984e+01   2.4249085e+00   3.0775147e+00   6.9294617e+00   0.0000000e+00   0.0000000e+00   5.0000000e+01   0.0000000e+00
   1.0828319e+01   1.0161307e+01   1.8538240e+00   1.9785821e+01   1.2546489e+01  -1.6127748e+01   1.5767418e+00   1.6128484e+00   4.0156763e+00  -4.2321526e+00  -5.6572762e+00  -9.4248379e+00   7.5629648e+00   6.0320026e+00   9.7009691e-01   1.3459958e+00   1.4824284e+01   7.1269681e-01   1.1057373e+00   5.0709694e+00   0.0000000e+00   0.0000000e+00   5.0000000e+01   0.0000000e+00
   9.6814023e+00   1.0385284e+01   8.5335846e-01   1.6582464e+01   1.1249147e+01  -1.7468979e+01  -1.2570221e-02   4.8997175e-01   4.4223349e+00  -4.5378659e+00  -5.2958221e+00  -1.1270726e+01   6.4818102e+00   3.8494997e+00  -3.6647582e-01   1.4112806e+00   1.2952929e+01  -1.4213654e+00  -9.3302929e-01   3.2709587e+00   0.0000000e+00   0.0000000e+00   5.0000000e+01   0.0000000e+00
   8.5652433e+00   1.0363587e+01  -2.3019514e-01   1.4039179e+01   9.0175418e+00  -1.8671205e+01  -1.6508351e+00  -8.2253150e-01   4.8769313e+00  -3.6736448e+00  -4.9165225e+00  -1.2733329e+01   6.2283816e+00   1.7790301e+00  -1.3130592e+00   1.6417953e+00   1.1015521e+01  -3.3588364e+00  -2.4298069e+00   2.0040273e+00   0.0000000e+00   0.0000000e+00   5.0000000e+01   0.0000000e+00
   8.3043815e+00   1.0153622e+01  -9.2791626e-01   1.3115090e+01   8.0580115e+00  -1.9708948e+01  -2.6435663e+00  -1.7999921e+00   5.0802521e+00  -2.4271397e+00  -4.7353630e+00  -1.3356911e+01   6.3201873e+00   4.4744672e-01  -1.5124441e+00   2.1025269e+00   9.2331720e+00  -4.6547451e+00  -3.0103191e+00   1.6772930e+00   0.0000000e+00   0.0000000e+00   5.0000000e+01   0.0000000e+00
   8.6687746e+00   1.0465210e+01  -7.2642160e-01   1.1865554e+01   8.8869547e+00  -2.0003242e+01  -2.4398094e+00  -2.2614320e+00   4.9199951e+00  -1.9873635e+00  -4.5009540e+00  -1.3322267e+01   6.2189345e+00   1.5605539e-01  -8.7590133e-01   2.4483825e+00   7.9293855e+00  -5.1026480e+00  -2.3452197e+00   2.2813555e+00   0.0000000e+00   0.0000000e+00   5.0000000e+01   0.0000000e+00
   9.1313717e+00   1.1777836e+01   3.5687573e-01   1.0361650e+01   1.0021594e+01  -1.9219907e+01  -1.2865923e+00  -2.0039976e+00   5.0486188e+00  -1.8506034e+00  -4.1294492e+00  -1.3222815e+01   5.9799394e+00   8.1849021e-01   3.5531415e-01   2.5794139e+00   7.5245873e+00  -4.6868765e+00  -6.0800028e-01   3.4393152e+00   0.0000000e+00   0.0000000e+00   5.0000000e+01   0.0000000e+00
   9.9351767e+00   1.4145795e+01   1.7094479e+00   1.0171120e+01   1.0696790e+01  -1.7851732e+01   7.4384913e-02  -1.1423808e+00   5.7146347e+00  -1.2248228e+00  -3.6760156e+00  -1.3899569e+01   6.0575766e+00   1.9121962e+00   1.7747544e+00   2.8516370e+00   8.0436516e+00  -3.4012757e+00   1.5772731e+00   4.9047804e+00   0.0000000e+00   0.0000000e+00   5.0000000e+01   0.0000000e+00
   1.1140462e+01   1.6100646e+01   2.5832665e+00   1.1433151e+01   1.1833646e+01  -1.6572546e+01   1.1047351e+00  -5.7318119e-01   5.9544245e+00  -5.8500879e-01  -3.4142257e+00  -1.4339910e+01   6.3396512e+00   3.0380350e+00   2.7905349e+00   3.2718966e+00   9.0136837e+00  -1.8807878e+00   3.2016452e+00   5.9114397e+00   0.0000000e+00   0.0000000e+00   5.0000000e+01   0.0000000e+00
   1.2321847e+01   1.6605081e+01   2.9789970e+00   1.2986192e+01   1.3881040e+01  -1.5486499e+01   1.8795489e+00  -8.5840886e-01   5.8428504e+00  -1.5929290e-01  -3.3369394e+00  -1.3248449e+01   6.6246081e+00   3.8342613e+00   3.1782418e+00   3.3604226e+00   9.9972649e+00  -5.5127799e-01   4.0186122e+00   6.0181958e+00   0.0000000e+00   0.0000000e+00   5.0000000e+01   0.0000000e+00
   1.2519260e+01   1.5965830e+01   2.9955614e+00   1.3425080e+01   1.5741191e+01  -1.4655794e+01   2.6158230e+00  -1.5814075e+00   5.5327466e+00  -1.7729779e-01  -3.3587112e+00  -1.2195962e+01   6.3130812e+00   4.3886284e+00   3.3311562e+00   3.0320098e+00   1.0444156e+01   2.4130494e-01   4.2114456e+00   5.2814268e+00   0.0000000e+00   0.0000000e+00   5.0000000e+01   0.0000000e+00
   1.1926448e+01   1.5123122e+01   2.9785436e+00   1.3397414e+01   1.6378150e+01  -1.3924770e+01   3.5268288e+00  -2.2028919e+00   5.0325791e+00  -9.4219026e-01  -3.2460698e+00  -1.3229653e+01   6.0015126e+00   4.9609512e+00   3.8741365e+00   3.2081401e+00   1.0482239e+01   8.1007312e-01   4.3062617e+00   4.3577493e+00   0.0000000e+00   0.0000000e+00   5.0000000e+01   0.0000000e+00
   1.1540536e+01   1.5017648e+01   3.1747481e+00   1.4351738e+01   1.6754316e+01  -1.3222320e+01   4.8187135e+00  -2.3661054e+00   4.9604458e+00  -1.0502714e+00  -3.0635558e+00  -1.4409466e+01   6.3378760e+00   5.5772034e+00   4.8579353e+00   4.4613286e+00   1.0842537e+01   1.9184867e+00   4.6771485e+00   3.9168228e+00   0.0000000e+00   0.0000000e+00   5.0000000e+01   0.0000000e+00
   1.1695934e+01   1.5736342e+01   3.6706817e+00   1.5541859e+01   1.7480833e+01  -1.2819676e+01   6.1929080e+00  -2.0918329e+00   5.3021798e+00  -2.5067110e-01  -3.0641732e+00  -1.4161159e+01   7.1601193e+00   6.2494947e+00   5.8817653e+00   5.9431994e+00   1.1783147e+01   3.6800493e+00   5.1831886e+00   3.9812555e+00   0.0000000e+00   0.0000000e+00   5.0000000e+01   0.0000000e+00
   1.2161858e+01   1.6197280e+01   4.2960523e+00   1.5124157e+01   1.8052902e+01  -1.2648115e+01   7.1806568e+00  -1.0804605e+00   5.5182116e+00   6.4821044e-01  -3.0568213e+00  -1.4225365e+01   7.9157068e+00   6.9812833e+00   6.7304269e+00   6.6752823e+00   1.2934495e+01   5.5235040e+00   5.5563993e+00   4.2650710e+00   0.0000000e+00   0.0000000e+00   5.0000000e+01   0.0000000e+00
   1.2127242e+01   1.6368201e+01   4.8466143e+00   1.3299480e+01   1.7757336e+01  -1.2776566e+01   7.4223062e+00   2.4601318e-01   6.1872674e+00   1.7706888e+00  -2.7760469e+00  -1.4889864e+01   8.1633190e+00   7.2130514e+00   7.2143936e+00   6.5070400e+00   1.3783018e+01   7.1474330e+00   5.5163530e+00   4.8568641e+00   0.0000000e+00   0.0000000e+00   5.0000000e+01   0.0000000e+00
   1.1368172e+01   1.6463170e+01   5.0354387e+00   1.1134100e+01   1.5986247e+01  -1.3630663e+01   6.7251219e+00   8.9247008e-01   6.8691909e+00   2.7936004e+00  -2.3582236e+00  -1.5536731e+01   7.6942023e+00   6.9499615e+00   7.1790253e+00   5.7989124e+00   1.3945155e+01   8.1879069e+00   4.7269048e+00   6.4925845e+00   0.0000000e+00   0.0000000e+00   5.0000000e+01   0.0000000e+00
   1.0673280e+01   1.6534567e+01   4.9766217e+00   9.3701017e+00   1.3368043e+01  -1.4834080e+01   5.5137964e+00   8.1582680e-01   6.1024037e+00   3.2315269e+00  -1.7938761e+00  -1.5801224e+01   7.1819609e+00   6.5681486e+00   6.7835984e+00   5.2291775e+00   1.3692501e+01   8.6593071e+00   3.4293754e+00   1.0232322e+01   0.0000000e+00   0.0000000e+00   5.0000000e+01   0.0000000e+00
   1.0003391e+01   1.5901967e+01   4.7231420e+00   8.6695146e+00   1.2174307e+01  -1.5691320e+01   4.3194973e+00   6.1550605e-01   3.8320865e+00   2.6711082e+00  -1.1632331e+00  -1.5172236e+01   6.7681667e+00   6.4304435e+00   6.3706631e+00   5.2134884e+00   1.3327965e+01   8.4987789e+00   2.0607087e+00   1.4489787e+01   0.0000000e+00   0.0000000e+00   5.0000000e+01   0.0000000e+00
   9.2973604e+00   1.4649088e+01   4.2292031e+00   8.7843226e+00   1.2359622e+01  -1.6078422e+01   3.4837236e+00   3.6191729e-01   1.6232400e+00   1.7011111e+00  -7.4242388e-01  -1.4895228e+01   6.6209302e+00   6.4125796e+00   6.0486367e+00   5.3095920e+00   1.2809916e+01   7.8518328e+00   1.1559383e+00   1.5544233e+01   0.0000000e+00   0.0000000e+00   5.0000000e+01   0.0000000e+00
   8.6778978e+00   1.3602956e+01   3.7523873e+00   8.7308327e+00   1.2363083e+01  -1.6519696e+01   3.1720334e+00   3.2048505e-01   1.5458482e-01   1.0152489e+00  -5.6010839e-01  -1.6224708e+01   6.6164357e+00   6.5341623e+00   6.0316849e+00   5.4293078e+00   1.2223561e+01   7.1601561e+00   1.0212158e+00   1.3845027e+01   0.0000000e+00   0.0000000e+00   5.0000000e+01   0.0000000e+00
   8.5269805e+00   1.3458948e+01   3.7121015e+00   7.7174562e+00   1.1497911e+01  -1.7153760e+01   3.0978941e+00   5.2469349e-01  -6.0020471e-01   4.0556015e-01  -4.3252591e-01  -1.8280996e+01   6.4808098e+00   6.6387468e+00   6.4304106e+00   5.7191609e+00   1.1670548e+01   6.7996328e+00   1.6469585e+00   1.2451670e+01   0.0000000e+00   0.0000000e+00   5.0000000e+01   0.0000000e+00
   8.9418921e+00   1.3600284e+01   3.7051505e+00   6.0463402e+00   9.9304237e+00  -1.8163577e+01   2.7312290e+00   4.2526272e-01  -1.3604522e+00  -5.5964534e-01  -5.8536281e-01  -1.9760497e+01   5.4634659e+00   6.1769443e+00   6.6353163e+00   5.8830263e+00   1.0645136e+01   6.3369572e+00   2.3079376e+00   1.2103173e+01   0.0000000e+00   0.0000000e+00   5.0000000e+01   0.0000000e+00
   9.7002653e+00   1.4094841e+01   3.7010478e+00   5.1481837e+00   8.9243194e+00  -1.9084938e+01   2.5755368e+00   1.8536361e-01  -2.7648443e+00  -1.3603280e+00  -8.5205246e-01  -2.1001516e+01   3.9470739e+00   5.3411733e+00   6.5867413e+00   6.1353948e+00   9.3240961e+00   5.9486825e+00   2.9473581e+00   1.3317308e+01   0.0000000e+00   0.0000000e+00   5.0000000e+01   0.0000000e+00
   1.0205001e+01   1.4949496e+01   3.6586888e+00   5.3832082e+00   8.4639295e+00  -1.9617370e+01   2.9604046e+00   1.7853080e-01  -4.6280148e+00  -1.8059250e+00  -1.0563801e+00  -2.1985978e+01   2.2443999e+00   4.7434936e+00   6.5028792e+00   6.7977091e+00   8.2321970e+00   5.8523868e+00   3.4744201e+00   1.6066828e+01   0.0000000e+00   0.0000000e+00   5.0000000e+01   0.0000000e+00
   1.0036122e+01   1.5868957e+01   3.4361256e+00   5.9571171e+00   8.2685515e+00  -1.9841318e+01   3.6214628e+00   7.3071993e-01  -6.0500895e+00  -2.0123840e+00  -9.1823807e-01  -2.1987059e+01   6.7438481e-01   4.5813973e+00   6.4076821e+00   8.0579059e+00   7.6384539e+00   5.9803869e+00   3.6484117e+00   1.8112195e+01   0.0000000e+00   0.0000000e+00   5.0000000e+01   0.0000000e+00
   9.7536574e+00   1.6105197e+01   2.9107080e+00   6.0105627e+00   8.2889029e+00  -1.9863147e+01   3.8288394e+00   1.2747189e+00  -7.2200910e+00  -2.2358997e+00  -5.8977201e-01  -2.1882570e+01  -3.8170262e-01   4.7568217e+00   6.1576520e+00   9.4325803e+00   7.4101396e+00   5.7637577e+00   3.1230208e+00   1.6550214e+01   0.0000000e+00   0.0000000e+00   5.0000000e+01   0.0000000e+00
   9.9665270e+00   1.5472876e+01   2.2762989e+00   5.9182698e+00   7.9953938e+00  -1.9987756e+01   3.0817904e+00   9.4078970e-01  -7.6300387e+00  -2.3541407e+00  -2.8995077e-01  -2.2636907e+01  -8.0004781e-01   4.5980765e+00   5.8270816e+00   1.0293353e+01   7.3472321e+00   5.1095015e+00   2.0292781e+00   1.2634476e+01   0.0000000e+00   0.0000000e+00   5.0000000e+01   0.0000000e+00
   1.0831106e+01   1.5113300e+01   1.8687683e+00   6.5639699e+00   8.3244803e+00  -2.0065660e+01   2.0295389e+00   2.0459993e-01  -6.9248714e+00  -1.6568904e+00   8.2462359e-02  -2.2811312e+01  -7.7657359e-01   4.3670621e+00   6.0455704e+00   1.1200396e+01   7.4986216e+00   4.5495473e+00   1.0414928e+00   8.9020526e+00   0.0000000e+00   0.0000000e+00   5.0000000e+01   0.0000000e+00
   1.2079797e+01   1.6112050e+01   1.9592564e+00   8.2223889e+00   9.7990021e+00  -1.9929569e+01   1.4164122e+00  -1.0688812e-01  -5.6977452e+00  -2.7770068e-01   5.8551662e-01  -2.1160106e+01  -1.9382309e-01   4.5718568e+00   6.9998143e+00   1.2581565e+01   8.1013415e+00   4.4442138e+00   5.6611094e-01   6.3182399e+00   0.0000000e+00   0.0000000e+00   5.0000000e+01   0.0000000e+00
   1.3248520e+01   1.7167409e+01   2.2152237e+00   1.1607536e+01   1.1647430e+01  -1.9712034e+01   9.0946366e-01  -1.2782412e-01  -4.4784293e+00   3.0670388e-01   1.0174202e+00  -1.8159777e+01   2.5047274e-01   5.1222101e+00   8.1141491e+00   1.4045656e+01   9.2259631e+00   4.3852645e+00   1.9368560e-01   4.5826544e+00   0.0000000e+00   0.0000000e+00   5.0000000e+01   0.0000000e+00
   1.4474495e+01   1.7622448e+01   2.6435221e+00   1.4815579e+01   1.3338046e+01  -1.9290386e+01   2.6125546e-01  -2.8239349e-01  -3.3270783e+00   4.9610756e-01   1.4575313e+00  -1.4821591e+01   7.3271167e-01   5.8753136e+00   9.0293718e+00   1.5221381e+01   1.1016003e+01   4.4379578e+00   1.8188078e-02   3.3152332e+00   0.0000000e+00   0.0000000e+00   5.0000000e+01   0.0000000e+00
   1.5705739e+01   1.7639940e+01   3.2917725e+00   1.5852984e+01   1.4560410e+01  -1.8157764e+01   1.5933681e-01  -3.6564807e-01  -1.9920697e+00   1.2004620e+00   1.8630030e+00  -1.2043138e+01   1.7837786e+00   7.1540324e+00   9.9417020e+00   1.5893346e+01   1.3331725e+01   5.0184864e+00   7.4118599e-01   2.6035347e+00   0.0000000e+00   0.0000000e+00   5.0000000e+01   0.0000000e+00
   1.6975268e+01   1.7512484e+01   4.0287554e+00   1.6142680e+01   1.5140306e+01  -1.6278354e+01   9.2824019e-01  -2.7067821e-01  -7.7830197e-01   1.8643015e+00   2.3260794e+00  -1.1108166e+01   3.3312184e+00   8.8622516e+00   1.0937083e+01   1.5798427e+01   1.5493068e+01   6.2783721e+00   2.5182474e+00   2.3667664e+00   0.0000000e+00   0.0000000e+00   5.0000000e+01   0.0000000e+00
   1.8333285e+01   1.7767798e+01   4.8090265e+00   1.7278610e+01   1.6064531e+01  -1.4523874e+01   1.9382318e+00   1.7809151e-01  -2.5648553e-01   2.0467465e+00   3.0365158e+00  -1.1717553e+01   4.4689155e+00   1.0529340e+01   1.1646833e+01   1.4710722e+01   1.6718021e+01   7.7253968e+00   4.4905753e+00   2.2574772e+00   0.0000000e+00   0.0000000e+00   5.0000000e+01   0.0000000e+00
   1.9389553e+01   1.8510041e+01   5.5625664e+00   1.8612933e+01   1.7508062e+01  -1.3327081e+01   2.7265976e+00   6.8522664e-01  -6.3686082e-02   1.9487160e+00   3.8538488e+00  -1.2260278e+01   4.9395408e+00   1.1491911e+01   1.1596567e+01   1.2724930e+01   1.6905699e+01   8.9545140e+00   5.8092447e+00   2.1472772e+00   0.0000000e+00   0.0000000e+00   5.0000000e+01   0.0000000e+00
   1.9915940e+01   1.8605742e+01   6.0342992e+00   1.9262082e+01   1.8315276e+01  -1.2922343e+01   2.8733666e+00   2.9295866e-01  -4.6397961e-01   1.6717704e+00   4.3400356e+00  -1.2362716e+01   4.6866731e+00   1.1400477e+01   1.0399820e+01   9.6642920e+00   1.6065612e+01   9.3992391e+00   5.5314361e+00   1.6010808e+00   0.0000000e+00   0.0000000e+00   5.0000000e+01   0.0000000e+00
   1.9940964e+01   1.7651963e+01   6.2093987e+00   1.7965719e+01   1.8345877e+01  -1.3384222e+01   2.2698611e+00  -1.1333306e+00  -1.1781558e+00   1.4928564e+00   4.5501611e+00  -1.2988278e+01   4.0762131e+00   1.0366672e+01   8.3425524e+00   5.7566752e+00   1.4510826e+01   8.8997067e+00   3.6549839e+00   5.1273526e-01   0.0000000e+00   0.0000000e+00   5.0000000e+01   0.0000000e+00
   1.9278764e+01   1.5988747e+01   5.9549029e+00   1.5910315e+01   1.7909505e+01  -1.4170219e+01   1.2802199e+00  -3.0153415e+00  -1.6134554e+00   1.6769027e+00   4.5206845e+00  -1.3688005e+01   3.3963771e+00   9.2225346e+00   6.2224212e+00   1.8730704e+00   1.2927286e+01   7.6763310e+00   1.0800852e+00  -8.2235251e-01   0.0000000e+00   0.0000000e+00   5.0000000e+01   0.0000000e+00
   1.8660081e+01   1.5427590e+01   5.8287200e+00   1.5139102e+01   1.7073834e+01  -1.3990508e+01   5.3344254e-01  -4.9302898e+00  -9.7349242e-01   2.5698128e+00   4.2571357e+00  -1.4100946e+01   3.4950486e+00   8.6538489e+00   4.7742151e+00  -1.5762991e+00   1.2256300e+01   6.6202493e+00  -7.8304198e-01  -1.7338460e+00   0.0000000e+00   0.0000000e+00   5.0000000e+01   0.0000000e+00
   1.8794345e+01   1.6478630e+01   6.2114316e+00   1.5102350e+01   1.6966961e+01  -1.2879931e+01   2.6406610e-01  -6.8362100e+00   2.1310383e-01   3.7775229e+00   3.8663955e+00  -1.3739942e+01   4.4347443e+00   8.6355887e+00   4.1142114e+00  -4.3779729e+00   1.2707936e+01   6.3317119e+00  -1.4074728e+00  -1.9838492e+00   0.0000000e+00   0.0000000e+00   5.0000000e+01   0.0000000e+00
   1.9565678e+01   1.7569348e+01   6.6860186e+00   1.5593203e+01   1.8363344e+01  -1.1749386e+01   3.1074466e-01  -8.7053807e+00   1.1854494e+00   4.8070994e+00   3.5857959e+00  -1.1555031e+01   5.7130404e+00   9.0297785e+00   3.9357044e+00  -6.5778692e+00   1.3754799e+01   6.7588835e+00  -1.2451051e+00  -1.8297291e+00   0.0000000e+00   0.0000000e+00   5.0000000e+01   0.0000000e+00
   2.0351207e+01   1.7573776e+01   6.7104077e+00   1.7181428e+01   2.0616495e+01  -1.1003143e+01   3.3885076e-01  -1.0093824e+01   2.1734624e+00   5.3922445e+00   3.3164739e+00  -8.7478664e+00   6.7444744e+00   9.9513234e+00   3.9239133e+00  -8.6076813e+00   1.4944378e+01   7.2501892e+00  -1.0142423e+00  -1.5218534e+00   0.0000000e+00   0.0000000e+00   5.0000000e+01   0.0000000e+00
   2.0950316e+01   1.7554659e+01   6.6951009e+00   1.9061724e+01   2.2480931e+01  -1.0509505e+01   5.4162299e-01  -1.0729604e+01   3.5852756e+00   5.9976567e+00   2.9958475e+00  -6.8474676e+00   7.8478671e+00   1.0764313e+01   3.6796710e+00  -1.0428393e+01   1.6240281e+01   7.5970627e+00  -9.0694473e-01  -8.5959176e-01   0.0000000e+00   0.0000000e+00   5.0000000e+01   0.0000000e+00
   2.1220986e+01   1.8154708e+01   7.3933228e+00   1.9977417e+01   2.3073046e+01  -9.6846827e+00   1.2954204e+00  -1.0575384e+01   5.3804703e+00   6.6592021e+00   2.7095836e+00  -6.0136874e+00   9.2611570e+00   1.1246795e+01   3.1386620e+00  -1.1864625e+01   1.7893080e+01   7.9288395e+00  -7.7915611e-01   5.1930186e-01   0.0000000e+00   0.0000000e+00   5.0000000e+01   0.0000000e+00
   2.1422297e+01   1.9605174e+01   9.1381129e+00   2.0281968e+01   2.3658631e+01  -8.2329055e+00   2.5853828e+00  -9.4994527e+00   7.0106165e+00   7.1861330e+00   2.6205602e+00  -5.2651041e+00   1.1084242e+01   1.2012384e+01   2.8737348e+00  -1.2541472e+01   2.0212889e+01   8.7296921e+00  -1.9923359e-01   2.9398403e+00   0.0000000e+00   0.0000000e+00   5.0000000e+01   0.0000000e+00
   2.2245583e+01   2.1206611e+01   1.1069322e+01   2.1786603e+01   2.5269110e+01  -6.7166980e+00   3.8242270e+00  -8.0222296e+00   7.5988157e+00   7.7509184e+00   2.4348042e+00  -3.1685380e+00   1.2676697e+01   1.3154471e+01   2.9900933e+00  -1.2533485e+01   2.2652577e+01   9.9148703e+00   5.8206581e-01   5.5339687e+00   0.0000000e+00   0.0000000e+00   5.0000000e+01   0.0000000e+00
   2.3682461e+01   2.2347152e+01   1.2483296e+01   2.4224078e+01   2.6895372e+01  -5.4204166e+00   4.5100817e+00  -7.2594109e+00   7.0180387e+00   8.5274794e+00   1.8711593e+00  -1.5136054e+00   1.3861211e+01   1.3784609e+01   3.0900495e+00  -1.2218477e+01   2.4429839e+01   1.1054955e+01   1.0827802e+00   7.3232482e+00   0.0000000e+00   0.0000000e+00   5.0000000e+01   0.0000000e+00
   2.4871288e+01   2.3061069e+01   1.3186298e+01   2.4821538e+01   2.7729633e+01  -4.5342011e+00   4.5545966e+00  -7.3429883e+00   6.0045874e+00   9.3782834e+00   8.4716601e-01  -2.1489064e+00   1.4685129e+01   1.3332728e+01   2.6962372e+00  -1.1896380e+01   2.5087146e+01   1.1718795e+01   7.4310156e-01   8.0101607e+00   0.0000000e+00   0.0000000e+00   5.0000000e+01   0.0000000e+00
   2.5250649e+01   2.3480722e+01   1.3096630e+01   2.2563537e+01   2.7465796e+01  -4.4122508e+00   4.1942031e+00  -7.5733499e+00   5.3521808e+00   9.5459304e+00  -2.1963665e-01  -3.7496135e+00   1.5237320e+01   1.1886132e+01   1.7545036e+00  -1.1771487e+01   2.4493570e+01   1.1646131e+01  -6.5005461e-01   7.7865417e+00   0.0000000e+00   0.0000000e+00   5.0000000e+01   0.0000000e+00
   2.4644360e+01   2.3228367e+01   1.2205166e+01   2.0535463e+01   2.6007052e+01  -5.3713880e+00   3.1980113e+00  -7.7897457e+00   4.7318362e+00   8.7172092e+00  -9.7802201e-01  -4.9945507e+00   1.4627635e+01   9.5215072e+00   4.2784510e-01  -1.1929047e+01   2.2296318e+01   1.0506461e+01  -3.0784699e+00   6.8164858e+00   0.0000000e+00   0.0000000e+00   5.0000000e+01   0.0000000e+00
   2.3397689e+01   2.2119510e+01   1.1042735e+01   2.0016541e+01   2.3739229e+01  -7.0806651e+00   1.3857951e+00  -8.3030240e+00   4.2745476e+00   6.9672835e+00  -1.2890162e+00  -6.0697479e+00   1.2394403e+01   6.5996897e+00  -8.2122711e-01  -1.1945842e+01   1.8794759e+01   8.5976666e+00  -5.9587647e+00   5.6921731e+00   0.0000000e+00   0.0000000e+00   5.0000000e+01   0.0000000e+00
   2.1686924e+01   1.9899166e+01   9.7678636e+00   1.9478896e+01   2.2036064e+01  -8.4719427e+00  -6.0716241e-01  -8.6973670e+00   3.9936996e+00   4.9773743e+00  -1.0536870e+00  -7.8362208e+00   9.4534606e+00   4.3012029e+00  -1.3955932e+00  -1.1041829e+01   1.5115881e+01   6.6380245e+00  -8.4576389e+00   5.1299420e+00   0.0000000e+00   0.0000000e+00   5.0000000e+01   0.0000000e+00
   1.9820522e+01   1.7807531e+01   8.3884216e+00   1.8068090e+01   2.1474034e+01  -8.9378602e+00  -2.0690304e+00  -8.6385920e+00   3.9135664e+00   4.1465514e+00  -2.5752197e-01  -9.9837206e+00   7.3222275e+00   2.9700563e+00  -1.2336230e+00  -9.2569077e+00   1.2395768e+01   5.4286274e+00  -9.8716648e+00   5.2898211e+00   0.0000000e+00   0.0000000e+00   5.0000000e+01   0.0000000e+00
   1.8459599e+01   1.6633479e+01   7.1342517e+00   1.6385420e+01   2.0622054e+01  -9.3252650e+00  -3.1618436e+00  -8.2730564e+00   3.9963538e+00   4.6342856e+00   7.8260039e-01  -1.0876275e+01   6.4060692e+00   2.5719844e+00  -6.5690551e-01  -6.7996663e+00   1.0888467e+01   4.9528204e+00  -1.0227790e+01   5.6962180e+00   0.0000000e+00   0.0000000e+00   5.0000000e+01   0.0000000e+00
   1.7640583e+01   1.6351967e+01   6.4510852e+00   1.6280126e+01   1.9054431e+01  -1.0067015e+01  -4.2005751e+00  -7.9311545e+00   4.5433888e+00   6.1392408e+00   2.0349599e+00  -1.0099433e+01   7.0308303e+00   3.1334469e+00   3.7712348e-01  -3.6100009e+00   1.0416416e+01   5.2093614e+00  -9.6634765e+00   6.2007420e+00   0.0000000e+00   0.0000000e+00   5.0000000e+01   0.0000000e+00
   1.6757084e+01   1.6117663e+01   6.4681855e+00   1.8148324e+01   1.7954525e+01  -1.0994913e+01  -5.2501830e+00  -7.7462160e+00   5.6227642e+00   8.0489727e+00   3.3740897e+00  -9.1825443e+00   8.6182334e+00   4.2983009e+00   1.8313300e+00  -2.5843525e-01   1.0590888e+01   6.0664758e+00  -8.5641557e+00   6.6694869e+00   0.0000000e+00   0.0000000e+00   5.0000000e+01   0.0000000e+00
   1.5609509e+01   1.5177965e+01   7.0210509e+00   1.9215023e+01   1.7936064e+01  -1.1866009e+01  -6.3494099e+00  -7.7371575e+00   6.4426492e+00   9.0105982e+00   4.5882399e+00  -1.0044901e+01   9.9340213e+00   5.2759687e+00   3.1296840e+00   1.9829625e+00   1.0977529e+01   7.0074605e+00  -7.4140454e+00   6.9364829e+00   0.0000000e+00   0.0000000e+00   5.0000000e+01   0.0000000e+00
