nt = 720
nc = 24
channels = F7 T3 T5 Fp1 F3 C3 P3 O1 F8 T4 T6 Fp2 F4 C4 P4 O2 Fz Cz Pz Oz TR SOn Occ RAp
ne = 20
type = B
fsmp = 120.0000000000
band = 0.1 0.2 44 58 0
orig.file = s1_bl1
orig.nt = 282640
orig.sample_range = 214068 217663
orig.fsmp = 600
orig.subject = 1
orig.run = 39
  -1.9819578e+00  -8.6369667e+00  -7.9574864e+00  -3.4570221e+01  -1.2322314e+01  -1.1041098e+01   3.0534239e+00  -1.5582861e+01  -1.3787974e+01  -3.7308866e+00   1.0454922e+00  -3.7008940e+01  -1.5725166e+01  -1.2684082e+01  -5.0468861e+00  -1.8222254e+01  -2.3902415e+01  -7.3174259e+00  -9.0940044e+00  -5.9272484e+00   0.0000000e+00   0.0000000e+00   0.0000000e+00   0.0000000e+00
  -5.3537599e+00  -9.1304561e+00  -9.4051858e+00  -4.1501608e+01  -1.5611111e+01  -1.1008253e+01   9.1846123e-02  -1.6153581e+01  -1.6259804e+01  -6.8801675e+00  -6.7923309e-01  -3.7914664e+01  -1.8760842e+01  -1.4323446e+01  -6.0691109e+00  -2.1245212e+01  -2.5107627e+01  -8.9814362e+00  -9.2320529e+00  -9.2897108e+00   0.0000000e+00   0.0000000e+00   0.0000000e+00   0.0000000e+00
  -6.0185709e+00  -8.2956075e+00  -1.0324710e+01  -4.1341727e+01  -1.5367732e+01  -9.0378701e+00  -7.3855716e-01  -1.5217537e+01  -1.7225498e+01  -8.1224653e+00  -1.3072230e+00  -3.3683997e+01  -1.8694585e+01  -1.4380048e+01  -5.9676231e+00  -2.2944193e+01  -2.3644887e+01  -8.5572517e+00  -8.0896831e+00  -1.1395058e+01   0.0000000e+00   0.0000000e+00   0.0000000e+00   0.0000000e+00
  -5.2788442e+00  -7.3847566e+00  -1.0642611e+01  -3.6724323e+01  -1.2995194e+01  -6.1361906e+00  -9.1522780e-01  -1.3918235e+01  -1.6883566e+01  -8.2360043e+00  -1.5673386e+00  -2.7630761e+01  -1.7534844e+01  -1.4230369e+01  -5.8672334e+00  -2.4215924e+01  -2.1242094e+01  -7.1570370e+00  -6.8082799e+00  -1.2737721e+01   0.0000000e+00   0.0000000e+00   0.0000000e+00   0.0000000e+00
  -4.3140842e+00  -7.1137792e+00  -1.0425243e+01  -3.0431376e+01  -9.9335132e+00  -3.2539847e+00  -1.1572575e+00  -1.2782460e+01  -1.5705136e+01  -7.9557470e+00  -1.5978426e+00  -2.1194505e+01  -1.6438513e+01  -1.4074000e+01  -5.9881673e+00  -2.5398116e+01  -1.8917467e+01  -5.4604760e+00  -5.8232654e+00  -1.3506384e+01   0.0000000e+00   0.0000000e+00   0.0000000e+00   0.0000000e+00
  -3.4564885e+00  -6.9018717e+00  -1.0112913e+01  -2.3998217e+01  -7.0964407e+00  -1.0959688e+00  -1.4222504e+00  -1.1799286e+01  -1.3755034e+01  -7.5438896e+00  -1.2104176e+00  -1.4408486e+01  -1.5292516e+01  -1.3595456e+01  -6.0344189e+00  -2.6332747e+01  -1.6689765e+01  -3.7318983e+00  -4.9715722e+00  -1.3785233e+01   0.0000000e+00   0.0000000e+00   0.0000000e+00   0.0000000e+00
  -3.0145071e+00  -6.7919494e+00  -9.9375890e+00  -1.8820534e+01  -5.1663150e+00   4.1290546e-01  -1.5860053e+00  -1.1087223e+01  -1.1573466e+01  -6.7247596e+00  -5.1848726e-01  -7.8821697e+00  -1.3465333e+01  -1.2618734e+01  -5.8712230e+00  -2.6734615e+01  -1.4268640e+01  -2.0173819e+00  -4.0056941e+00  -1.3764780e+01   0.0000000e+00   0.0000000e+00   0.0000000e+00   0.0000000e+00
  -2.6964011e+00  -6.7472636e+00  -9.8809217e+00  -1.4729782e+01  -4.8422931e+00   1.8453891e+00  -1.5274502e+00  -1.0640196e+01  -9.7644131e+00  -5.3600636e+00   2.8780181e-01  -2.2592966e+00  -1.0423045e+01  -1.1131170e+01  -5.4172502e+00  -2.6494061e+01  -1.1365861e+01  -3.1030197e-02  -2.6799525e+00  -1.3493621e+01   0.0000000e+00   0.0000000e+00   0.0000000e+00   0.0000000e+00
  -1.9299346e+00  -6.0797597e+00  -9.9386946e+00  -1.0503466e+01  -4.8646807e+00   3.3471838e+00  -1.2842235e+00  -9.8278220e+00  -8.0924279e+00  -3.7941690e+00   1.0135200e+00   2.7835960e+00  -6.4189346e+00  -9.4547117e+00  -4.7532182e+00  -2.6215785e+01  -8.0446413e+00   2.3827933e+00  -1.2767656e+00  -1.3076677e+01   0.0000000e+00   0.0000000e+00   0.0000000e+00   0.0000000e+00
  -1.0619169e+00  -4.8851274e+00  -1.0061636e+01  -6.4409235e+00  -3.3681309e+00   4.7377448e+00  -9.9674000e-01  -8.7590266e+00  -6.0837815e+00  -2.5627680e+00   1.3509361e+00   8.0849105e+00  -2.2873565e+00  -7.9967396e+00  -4.2060603e+00  -2.6717361e+01  -4.8777412e+00   4.7347835e+00  -3.7031774e-01  -1.3010491e+01   0.0000000e+00   0.0000000e+00   0.0000000e+00   0.0000000e+00
  -4.5226042e-01  -3.6814564e+00  -9.9916520e+00  -2.4821587e+00  -1.1535075e+00   5.8317479e+00  -7.9238968e-01  -8.6454954e+00  -4.0041205e+00  -1.8376065e+00   1.2078122e+00   1.3373966e+01   1.2389550e+00  -7.1399500e+00  -4.1577226e+00  -2.7991179e+01  -2.4835179e+00   6.4416672e+00  -2.0711126e-01  -1.3719742e+01   0.0000000e+00   0.0000000e+00   0.0000000e+00   0.0000000e+00
   3.1783264e-01  -2.7137569e+00  -9.4847650e+00   1.7200925e+00   6.6202225e-01   6.8369665e+00  -4.7792527e-01  -9.3984763e+00  -2.6445338e+00  -1.3551682e+00   7.9474126e-01   1.7611322e+01   3.9758282e+00  -6.9389959e+00  -4.6064555e+00  -2.9154001e+01  -9.6944407e-01   7.5147199e+00  -5.2288105e-01  -1.4661247e+01   0.0000000e+00   0.0000000e+00   0.0000000e+00   0.0000000e+00
   1.6353091e+00  -2.1361659e+00  -8.6492197e+00   5.2894459e+00   2.0120662e+00   8.0728094e+00   2.2773345e-01  -9.9662851e+00  -1.8040686e+00  -9.3309985e-01   3.3580719e-01   2.0616648e+01   6.2203338e+00  -6.9930302e+00  -5.2330290e+00  -2.9488220e+01   4.6172279e-02   8.2850632e+00  -7.6483253e-01  -1.5232345e+01   0.0000000e+00   0.0000000e+00   0.0000000e+00   0.0000000e+00
   3.2567291e+00  -1.8402455e+00  -7.7029412e+00   8.5622854e+00   2.9860592e+00   9.3200607e+00   1.1381848e+00  -9.8746335e+00  -3.9019084e-01  -5.1153661e-01   6.4340372e-02   2.3719773e+01   8.3407488e+00  -6.9432530e+00  -5.7291831e+00  -2.9307023e+01   9.2569003e-01   8.9767474e+00  -6.5611756e-01  -1.5441573e+01   0.0000000e+00   0.0000000e+00   0.0000000e+00   0.0000000e+00
   4.7431695e+00  -1.1948955e+00  -6.8562147e+00   1.2424237e+01   3.6824422e+00   1.0351111e+01   1.9440484e+00  -9.0895958e+00   1.4438623e+00  -3.5075631e-02   1.5174722e-01   2.7434115e+01   1.0358395e+01  -6.6086967e+00  -5.8293695e+00  -2.9194203e+01   1.8176674e+00   9.6154676e+00  -2.8697400e-01  -1.5372761e+01   0.0000000e+00   0.0000000e+00   0.0000000e+00   0.0000000e+00
   5.7831940e+00   1.1696652e-01  -6.2009469e+00   1.6290255e+01   4.1866988e+00   1.1046684e+01   2.4454272e+00  -8.3303540e+00   2.7736216e+00   4.6993151e-01   5.5655805e-01   3.1012239e+01   1.2178645e+01  -6.1139531e+00  -5.5406937e+00  -2.9096773e+01   2.7109100e+00   1.0252188e+01   7.9351510e-02  -1.5184701e+01   0.0000000e+00   0.0000000e+00   0.0000000e+00   0.0000000e+00
   6.3440439e+00   1.2835049e+00  -5.8823127e+00   1.9505313e+01   5.1041348e+00   1.1369185e+01   2.6355902e+00  -8.5921510e+00   3.3626534e+00   1.0823403e+00   1.1604797e+00   3.4065683e+01   1.3668772e+01  -5.4891233e+00  -4.9511832e+00  -2.8799920e+01   3.6006892e+00   1.0937714e+01   2.1851948e-01  -1.5177152e+01   0.0000000e+00   0.0000000e+00   0.0000000e+00   0.0000000e+00
   6.5451584e+00   1.4457535e+00  -6.0009068e+00   2.1225265e+01   6.5825137e+00   1.1525587e+01   2.7527119e+00  -9.4193528e+00   3.7852687e+00   1.9393318e+00   1.8548633e+00   3.5976554e+01   1.4709673e+01  -4.7791473e+00  -4.2100807e+00  -2.8365972e+01   4.6134775e+00   1.1630997e+01   2.6656381e-01  -1.5388013e+01   0.0000000e+00   0.0000000e+00   0.0000000e+00   0.0000000e+00
   6.3175967e+00   1.1246793e+00  -6.2001041e+00   2.2469690e+01   7.6517034e+00   1.1634985e+01   3.0527856e+00  -9.9539918e+00   4.3011587e+00   2.6834433e+00   2.3606214e+00   3.6961993e+01   1.5663427e+01  -4.3350834e+00  -3.7867190e+00  -2.8049379e+01   5.7023843e+00   1.2431548e+01   3.4670412e-01  -1.5494507e+01   0.0000000e+00   0.0000000e+00   0.0000000e+00   0.0000000e+00
   5.5800163e+00   1.1260985e+00  -6.0395940e+00   2.4152178e+01   7.3302701e+00   1.1770382e+01   3.5244570e+00  -1.0305602e+01   4.6848715e+00   2.8759941e+00   2.1418175e+00   3.8470795e+01   1.6535954e+01  -4.6217474e+00  -4.1781687e+00  -2.8152149e+01   6.4813628e+00   1.3346041e+01   2.4990865e-01  -1.5152789e+01   0.0000000e+00   0.0000000e+00   0.0000000e+00   0.0000000e+00
   4.4531645e+00   1.1156280e+00  -5.5813236e+00   2.4980106e+01   6.3440199e+00   1.1763443e+01   3.9592382e+00  -1.0479583e+01   4.7560385e+00   2.4297023e+00   1.1352173e+00   3.9718041e+01   1.6774861e+01  -5.5488246e+00  -5.3250058e+00  -2.8486318e+01   6.7308189e+00   1.4062492e+01  -1.5521792e-01  -1.4007260e+01   0.0000000e+00   0.0000000e+00   0.0000000e+00   0.0000000e+00
   3.0905543e+00   8.3704635e-01  -5.2604644e+00   2.5108720e+01   5.4248182e+00   1.1104092e+01   4.2352422e+00  -1.0091618e+01   4.2534611e+00   1.6715306e+00  -4.2026312e-02   3.9828626e+01   1.6320923e+01  -6.4708307e+00  -6.6569330e+00  -2.8360126e+01   6.7181417e+00   1.4222083e+01  -7.5429324e-01  -1.1943490e+01   0.0000000e+00   0.0000000e+00   0.0000000e+00   0.0000000e+00
   1.7208023e+00   3.7524270e-01  -5.3802921e+00   2.5333276e+01   4.4090859e+00   9.7601969e+00   4.3055894e+00  -9.2071841e+00   3.6076333e+00   9.9161669e-01  -8.6108182e-01   3.9142289e+01   1.5613767e+01  -6.9607481e+00  -7.7100295e+00  -2.7619515e+01   6.7437499e+00   1.3705308e+01  -1.5420773e+00  -9.4363983e+00   0.0000000e+00   0.0000000e+00   0.0000000e+00   0.0000000e+00
   6.3994796e-01  -3.1343222e-01  -5.8763841e+00   2.5778344e+01   3.6146884e+00   8.3382315e+00   4.0813600e+00  -8.4118692e+00   3.3676851e+00   7.3140379e-01  -1.1194269e+00   3.7843043e+01   1.5265179e+01  -7.0872373e+00  -8.2579946e+00  -2.6459523e+01   6.9257987e+00   1.2898827e+01  -2.4539609e+00  -6.9431873e+00   0.0000000e+00   0.0000000e+00   0.0000000e+00   0.0000000e+00
  -9.2177734e-02  -1.2612463e+00  -6.7970297e+00   2.5951807e+01   3.3053312e+00   7.2632538e+00   3.4893996e+00  -8.2385271e+00   2.9962495e+00   9.3182083e-01  -1.0655148e+00   3.7726589e+01   1.5066225e+01  -7.0263912e+00  -8.3296420e+00  -2.5254386e+01   7.2563797e+00   1.2106359e+01  -3.4887857e+00  -4.9350151e+00   0.0000000e+00   0.0000000e+00   0.0000000e+00   0.0000000e+00
  -3.6638911e-01  -2.3029164e+00  -8.0663691e+00   2.5884826e+01   3.5674960e+00   6.4463414e+00   2.5105403e+00  -9.1698404e+00   2.1706463e+00   1.3161744e+00  -1.1611781e+00   3.9202522e+01   1.4841796e+01  -7.0550824e+00  -8.3962896e+00  -2.4770886e+01   7.8382849e+00   1.1230618e+01  -4.8545642e+00  -4.0987365e+00   0.0000000e+00   0.0000000e+00   0.0000000e+00   0.0000000e+00
   1.8469653e-02  -2.9488721e+00  -9.2010840e+00   2.7321271e+01   4.1690386e+00   5.9206831e+00   1.2387535e+00  -1.0963855e+01   1.7745232e+00   1.4865854e+00  -1.5332451e+00   4.0117700e+01   1.5286406e+01  -7.4736175e+00  -8.8906479e+00  -2.5327750e+01   8.9209639e+00   1.0314791e+01  -6.4998417e+00  -4.4758593e+00   0.0000000e+00   0.0000000e+00   0.0000000e+00   0.0000000e+00
   9.1013677e-01  -2.6508770e+00  -1.0033706e+01   2.9981143e+01   5.1226252e+00   5.9704876e+00   3.7409843e-02  -1.2748850e+01   2.4282643e+00   1.1011926e+00  -2.0523083e+00   3.9737729e+01   1.6570537e+01  -8.2583738e+00  -9.7384081e+00  -2.6397942e+01   1.0401506e+01   9.7068628e+00  -7.8752073e+00  -5.2852290e+00   0.0000000e+00   0.0000000e+00   0.0000000e+00   0.0000000e+00
   1.8385451e+00  -1.7943103e+00  -1.0730154e+01   3.1510529e+01   6.3499800e+00   6.4225130e+00  -9.0412901e-01  -1.3732007e+01   3.3257127e+00   1.6193572e-01  -2.7795409e+00   3.9727307e+01   1.7706752e+01  -9.2229422e+00  -1.0711238e+01  -2.7606241e+01   1.1632524e+01   9.4181646e+00  -8.6768318e+00  -5.9159266e+00   0.0000000e+00   0.0000000e+00   0.0000000e+00   0.0000000e+00
   2.3204209e+00  -1.1669192e+00  -1.1378049e+01   3.1401424e+01   7.1591926e+00   6.7845024e+00  -1.6790153e+00  -1.3815680e+01   3.6219375e+00  -9.9370666e-01  -3.6658896e+00   4.0973605e+01   1.8044562e+01  -1.0188525e+01  -1.1572124e+01  -2.8901230e+01   1.1949851e+01   9.1072270e+00  -8.9877769e+00  -6.1904017e+00   0.0000000e+00   0.0000000e+00   0.0000000e+00   0.0000000e+00
   2.0004243e+00  -1.6488427e+00  -1.2166145e+01   3.0611678e+01   7.0581248e+00   6.4022705e+00  -2.6082317e+00  -1.3780012e+01   3.1942773e+00  -2.3758744e+00  -4.5621675e+00   4.2944467e+01   1.7473780e+01  -1.1350569e+01  -1.2373174e+01  -3.0091742e+01   1.0946388e+01   8.3613160e+00  -9.2128941e+00  -6.3095331e+00   0.0000000e+00   0.0000000e+00   0.0000000e+00   0.0000000e+00
   8.1544901e-01  -4.0007853e+00  -1.3108054e+01   2.9988756e+01   5.5730958e+00   4.9713348e+00  -4.1271361e+00  -1.3895139e+01   1.8987122e+00  -4.3264253e+00  -5.4122014e+00   4.4403224e+01   1.5927911e+01  -1.2996384e+01  -1.3382636e+01  -3.0850627e+01   8.6351602e+00   6.9111886e+00  -9.9271233e+00  -6.4982121e+00   0.0000000e+00   0.0000000e+00   0.0000000e+00   0.0000000e+00
  -7.5964935e-01  -7.5290119e+00  -1.4047190e+01   2.9960300e+01   2.9073833e+00   2.7095276e+00  -6.2849237e+00  -1.4151459e+01  -1.9579503e-01  -6.4886819e+00  -5.9923625e+00   4.3807076e+01   1.3568322e+01  -1.4909666e+01  -1.4496048e+01  -3.0794661e+01   5.6223512e+00   4.8316155e+00  -1.1220827e+01  -6.8013669e+00   0.0000000e+00   0.0000000e+00   0.0000000e+00   0.0000000e+00
  -2.0998907e+00  -1.0603976e+01  -1.4802011e+01   2.9403653e+01   5.2819721e-01   1.7633544e-01  -8.5520432e+00  -1.4511163e+01  -2.4755722e+00  -8.1311008e+00  -6.0331835e+00   4.0621216e+01   1.1124952e+01  -1.6779774e+01  -1.5347879e+01  -2.9964163e+01   2.8661120e+00   2.4548268e+00  -1.2469361e+01  -7.0716156e+00   0.0000000e+00   0.0000000e+00   0.0000000e+00   0.0000000e+00
  -3.2183438e+00  -1.2592003e+01  -1.5133437e+01   2.6740397e+01  -8.7840671e-01  -1.7303222e+00  -1.0305432e+01  -1.4379463e+01  -4.2065171e+00  -8.9029539e+00  -5.6035976e+00   3.7005393e+01   9.4594417e+00  -1.8233965e+01  -1.5588669e+01  -2.8734164e+01   9.8991806e-01   1.9939217e-01  -1.2992434e+01  -7.0474337e+00   0.0000000e+00   0.0000000e+00   0.0000000e+00   0.0000000e+00
  -4.2627743e+00  -1.3595510e+01  -1.5013744e+01   2.3568830e+01  -1.9535963e+00  -2.4411992e+00  -1.1164389e+01  -1.3588099e+01  -4.8715506e+00  -8.7787040e+00  -4.6783599e+00   3.5773852e+01   8.8672185e+00  -1.8868109e+01  -1.4921086e+01  -2.7033019e+01   1.3318955e-01  -1.3270872e+00  -1.2375395e+01  -6.3850445e+00   0.0000000e+00   0.0000000e+00   0.0000000e+00   0.0000000e+00
  -4.7500455e+00  -1.3897636e+01  -1.4569670e+01   2.3401472e+01  -3.2372140e+00  -2.2484852e+00  -1.0903599e+01  -1.1908791e+01  -4.8118769e+00  -7.9570987e+00  -3.2407088e+00   3.6931436e+01   9.1088944e+00  -1.8221296e+01  -1.3272764e+01  -2.4576159e+01   2.9567942e-01  -1.7498326e+00  -1.0669467e+01  -4.8488704e+00   0.0000000e+00   0.0000000e+00   0.0000000e+00   0.0000000e+00
  -4.1411490e+00  -1.4349616e+01  -1.4003793e+01   2.5987155e+01  -3.2041783e+00  -1.3425728e+00  -9.6550509e+00  -9.6571831e+00  -4.4397847e+00  -6.5737083e+00  -1.5357157e+00   3.8858378e+01   9.8191157e+00  -1.6267355e+01  -1.0977767e+01  -2.1681413e+01   1.4336847e+00  -1.2712560e+00  -8.3974421e+00  -2.8760397e+00   0.0000000e+00   0.0000000e+00   0.0000000e+00   0.0000000e+00
  -2.7290766e+00  -1.4546778e+01  -1.3528472e+01   2.8285051e+01  -1.4896810e+00   4.3976391e-01  -7.9577813e+00  -8.0792777e+00  -3.7748466e+00  -4.8391438e+00   1.6291572e-01   3.9788822e+01   1.1041296e+01  -1.3683563e+01  -8.6265933e+00  -1.9136932e+01   3.3951528e+00  -2.4409708e-01  -6.1751343e+00  -1.1759896e+00   0.0000000e+00   0.0000000e+00   0.0000000e+00   0.0000000e+00
  -1.4181647e+00  -1.3284213e+01  -1.2933101e+01   2.9267623e+01  -1.8367623e-01   2.8116018e+00  -6.4573117e+00  -7.2183614e+00  -2.6330655e+00  -3.0898867e+00   1.4720971e+00   3.9347020e+01   1.2694451e+01  -1.1437390e+01  -6.7968895e+00  -1.7396818e+01   5.6957381e+00   1.1798266e+00  -4.4694766e+00   3.0140882e-02   0.0000000e+00   0.0000000e+00   0.0000000e+00   0.0000000e+00
  -8.0704816e-01  -1.1057391e+01  -1.2186145e+01   2.9760747e+01  -4.5252900e-02   4.7906758e+00  -5.8202251e+00  -6.9409194e+00  -1.5039903e+00  -1.7804278e+00   2.0069852e+00   3.9093757e+01   1.3968651e+01  -1.0215831e+01  -5.9424385e+00  -1.6509655e+01   7.5040270e+00   2.5273665e+00  -3.8160046e+00   4.3697009e-01   0.0000000e+00   0.0000000e+00   0.0000000e+00   0.0000000e+00
  -6.1680316e-01  -9.0219153e+00  -1.1676464e+01   3.0920781e+01  -4.0497980e-01   5.8087321e+00  -6.0252656e+00  -7.4789335e+00  -1.0369036e+00  -1.0599363e+00   1.8774228e+00   3.9862880e+01   1.4524375e+01  -9.8753832e+00  -5.9995969e+00  -1.6387576e+01   8.6168706e+00   3.3037119e+00  -4.2093893e+00  -7.5047288e-02   0.0000000e+00   0.0000000e+00   0.0000000e+00   0.0000000e+00
  -3.3555794e-01  -8.0517320e+00  -1.1687535e+01   3.2521710e+01  -8.9846210e-03   6.4218027e+00  -6.4409907e+00  -8.6316501e+00  -1.2191331e+00  -7.4481889e-01   1.4771277e+00   4.1596279e+01   1.4602700e+01  -9.8668476e+00  -6.5297091e+00  -1.6686277e+01   9.4094632e+00   3.5738336e+00  -4.9850736e+00  -9.9916473e-01   0.0000000e+00   0.0000000e+00   0.0000000e+00   0.0000000e+00
   3.0534648e-01  -8.0640454e+00  -1.2025020e+01   3.3509290e+01   1.6937950e+00   7.2807488e+00  -6.5959890e+00  -9.9733753e+00  -1.8403464e+00  -9.2562414e-01   9.5638541e-01   4.4017622e+01   1.4287284e+01  -9.8708856e+00  -7.2249781e+00  -1.6678747e+01   1.0080266e+01   3.7415303e+00  -5.5029290e+00  -1.7308240e+00   0.0000000e+00   0.0000000e+00   0.0000000e+00   0.0000000e+00
   1.1409625e+00  -8.5213547e+00  -1.2450202e+01   3.4490485e+01   3.1724678e+00   8.5378403e+00  -6.3368731e+00  -1.0827031e+01  -2.6481455e+00  -1.3886818e+00   2.9887215e-01   4.5967791e+01   1.3405289e+01  -9.7032387e+00  -7.8316028e+00  -1.6013545e+01   1.0586185e+01   3.8937203e+00  -5.5724859e+00  -2.1222040e+00   0.0000000e+00   0.0000000e+00   0.0000000e+00   0.0000000e+00
   1.7520263e+00  -9.0441834e+00  -1.3148389e+01   3.6062729e+01   3.2383852e+00   9.8906072e+00  -5.9017744e+00  -1.1360610e+01  -3.2717909e+00  -1.8244717e+00  -3.2383869e-01   4.6449908e+01   1.2148629e+01  -9.3069213e+00  -8.0839393e+00  -1.5106754e+01   1.0966871e+01   3.7042279e+00  -5.3922934e+00  -2.4685744e+00   0.0000000e+00   0.0000000e+00   0.0000000e+00   0.0000000e+00
   2.1378100e+00  -9.2327216e+00  -1.4069064e+01   3.7754601e+01   2.5327038e+00   1.0871221e+01  -5.6517971e+00  -1.2244497e+01  -3.8662539e+00  -2.3540860e+00  -8.8555878e-01   4.6110535e+01   1.1295315e+01  -8.9544739e+00  -8.0525680e+00  -1.4466433e+01   1.1373341e+01   3.1017835e+00  -5.2623602e+00  -2.9550765e+00   0.0000000e+00   0.0000000e+00   0.0000000e+00   0.0000000e+00
   2.7204808e+00  -8.8492237e+00  -1.4750384e+01   3.9206908e+01   2.7895518e+00   1.1228822e+01  -5.5540563e+00  -1.3038707e+01  -4.4775203e+00  -3.0277160e+00  -1.5611658e+00   4.5720416e+01   1.1292969e+01  -9.2147167e+00  -8.1145065e+00  -1.4293563e+01   1.1777542e+01   2.4280645e+00  -5.3773482e+00  -3.3605926e+00   0.0000000e+00   0.0000000e+00   0.0000000e+00   0.0000000e+00
   3.3560115e+00  -8.5647223e+00  -1.5077275e+01   4.0317484e+01   4.5227127e+00   1.1033993e+01  -5.4781320e+00  -1.3394128e+01  -4.5437107e+00  -3.6309449e+00  -2.2665650e+00   4.5950244e+01   1.1503626e+01  -1.0060277e+01  -8.4497443e+00  -1.4385525e+01   1.1972857e+01   1.7152091e+00  -5.9117408e+00  -3.7422900e+00   0.0000000e+00   0.0000000e+00   0.0000000e+00   0.0000000e+00
   3.4475422e+00  -9.0900469e+00  -1.5196862e+01   4.0243149e+01   5.6598722e+00   1.0611189e+01  -5.6105505e+00  -1.4022841e+01  -4.2364092e+00  -3.9476946e+00  -2.8922454e+00   4.7509680e+01   1.1399818e+01  -1.1000560e+01  -9.0042081e+00  -1.4678458e+01   1.1994764e+01   6.6924592e-01  -6.8872052e+00  -4.6493827e+00   0.0000000e+00   0.0000000e+00   0.0000000e+00   0.0000000e+00
   3.1308451e+00  -9.6656507e+00  -1.5188345e+01   3.9324883e+01   5.1924050e+00   1.0411134e+01  -5.7993765e+00  -1.4655374e+01  -3.5977495e+00  -3.9626105e+00  -3.4401868e+00   4.9567921e+01   1.1561274e+01  -1.1534856e+01  -9.4622033e+00  -1.5211964e+01   1.2415201e+01  -4.2874486e-01  -7.8416075e+00  -5.8863675e+00   0.0000000e+00   0.0000000e+00   0.0000000e+00   0.0000000e+00
   3.0628992e+00  -9.3009254e+00  -1.5077722e+01   3.9010665e+01   4.2461490e+00   1.0715970e+01  -5.3987532e+00  -1.4250475e+01  -1.9586832e+00  -3.6240982e+00  -3.7536500e+00   5.1123330e+01   1.2918111e+01  -1.1373159e+01  -9.3934378e+00  -1.5600341e+01   1.3750126e+01  -7.8235819e-01  -8.0824359e+00  -6.4535820e+00   0.0000000e+00   0.0000000e+00   0.0000000e+00   0.0000000e+00
   3.6635635e+00  -8.3149343e+00  -1.4837651e+01   3.9399033e+01   4.1259782e+00   1.1310708e+01  -4.3417999e+00  -1.2743083e+01  -1.4748460e-01  -2.7890396e+00  -3.8925415e+00   5.1656121e+01   1.5635849e+01  -1.0453050e+01  -8.7273273e+00  -1.5787576e+01   1.5786410e+01  -3.1444335e-01  -7.5637898e+00  -6.1600635e+00   0.0000000e+00   0.0000000e+00   0.0000000e+00   0.0000000e+00
   4.7893545e+00  -7.2814118e+00  -1.4522025e+01   4.0548766e+01   5.3246142e+00   1.2134104e+01  -3.0673437e+00  -1.1530370e+01   9.5664997e-01  -1.3839134e+00  -3.9764251e+00   5.2446095e+01   1.9213590e+01  -8.9222961e+00  -7.6365643e+00  -1.6296793e+01   1.8175174e+01   6.2182663e-01  -6.5007291e+00  -5.7256464e+00   0.0000000e+00   0.0000000e+00   0.0000000e+00   0.0000000e+00
   5.7075108e+00  -6.6328855e+00  -1.4287953e+01   4.2279527e+01   6.9448149e+00   1.3031866e+01  -1.9043901e+00  -1.1881749e+01   2.1210766e+00   1.3388794e-01  -4.0677372e+00   5.4668007e+01   2.2201215e+01  -7.4372108e+00  -6.4450929e+00  -1.7462585e+01   2.0549901e+01   1.6829882e+00  -5.2582495e+00  -5.8038121e+00   0.0000000e+00   0.0000000e+00   0.0000000e+00   0.0000000e+00
   6.2092349e+00  -6.6127551e+00  -1.4033144e+01   4.3757986e+01   7.6600332e+00   1.3780574e+01  -9.8072033e-01  -1.3124469e+01   3.5056395e+00   1.4091334e+00  -4.1996171e+00   5.6804661e+01   2.3519255e+01  -6.5925434e+00  -5.5391424e+00  -1.9106783e+01   2.2434394e+01   2.6177607e+00  -4.2773488e+00  -6.3325439e+00   0.0000000e+00   0.0000000e+00   0.0000000e+00   0.0000000e+00
   6.6178789e+00  -7.0873938e+00  -1.3568284e+01   4.4738747e+01   7.3246211e+00   1.4186708e+01  -4.0171506e-01  -1.3715708e+01   3.9726883e+00   2.1329982e+00  -4.3987322e+00   5.7269057e+01   2.3350594e+01  -6.5036289e+00  -5.2715747e+00  -2.0969791e+01   2.3386430e+01   3.2305104e+00  -3.8815061e+00  -6.9758400e+00   0.0000000e+00   0.0000000e+00   0.0000000e+00   0.0000000e+00
   6.9587837e+00  -7.6320487e+00  -1.2753629e+01   4.4910747e+01   7.0770464e+00   1.3928045e+01  -3.4695738e-01  -1.3420872e+01   3.2693550e+00   1.9172082e+00  -4.6818807e+00   5.5763822e+01   2.1985285e+01  -7.2395997e+00  -5.8619897e+00  -2.3180378e+01   2.3119600e+01   3.2626073e+00  -4.2070074e+00  -7.7052556e+00   0.0000000e+00   0.0000000e+00   0.0000000e+00   0.0000000e+00
   6.9505470e+00  -8.1278284e+00  -1.1839324e+01   4.3681720e+01   7.6308107e+00   1.3064208e+01  -8.5549933e-01  -1.3594683e+01   2.0103146e+00   9.5368410e-01  -4.9901389e+00   5.2961338e+01   1.9361304e+01  -8.7574930e+00  -7.2279388e+00  -2.5606160e+01   2.1664807e+01   2.5108263e+00  -5.2347048e+00  -8.8350018e+00   0.0000000e+00   0.0000000e+00   0.0000000e+00   0.0000000e+00
   6.6459516e+00  -8.1119387e+00  -1.1218619e+01   4.1884273e+01   7.3889998e+00   1.2176394e+01  -1.4666172e+00  -1.4516197e+01   6.9035139e-01  -6.9417119e-02  -5.0740935e+00   5.0145525e+01   1.6537980e+01  -1.0418770e+01  -8.7129765e+00  -2.7532591e+01   1.9790295e+01   1.4307763e+00  -6.3995852e+00  -1.0166427e+01   0.0000000e+00   0.0000000e+00   0.0000000e+00   0.0000000e+00
   6.4183311e+00  -7.5508228e+00  -1.1017976e+01   4.0920615e+01   5.7257157e+00   1.1624840e+01  -1.9550104e+00  -1.5555023e+01  -5.7536541e-01  -7.3344604e-01  -4.7216807e+00   4.8622217e+01   1.4800557e+01  -1.1374831e+01  -9.5607504e+00  -2.8538070e+01   1.8316499e+01   6.8724590e-01  -6.9869336e+00  -1.1280900e+01   0.0000000e+00   0.0000000e+00   0.0000000e+00   0.0000000e+00
   6.4793846e+00  -7.2604116e+00  -1.1107565e+01   4.0969535e+01   4.3904559e+00   1.1658349e+01  -2.3754306e+00  -1.6257581e+01  -1.5064444e+00  -1.1394059e+00  -3.9803232e+00   4.7937840e+01   1.4328484e+01  -1.1324073e+01  -9.5378173e+00  -2.8637190e+01   1.7529365e+01   4.7968039e-01  -6.6968795e+00  -1.2026569e+01   0.0000000e+00   0.0000000e+00   0.0000000e+00   0.0000000e+00
   6.9108455e+00  -7.4003397e+00  -1.1153965e+01   4.1455769e+01   4.4515231e+00   1.2436610e+01  -2.4907934e+00  -1.5784015e+01  -1.6989267e+00  -1.4028364e+00  -3.0844342e+00   4.6496385e+01   1.4392735e+01  -1.0521683e+01  -8.8581806e+00  -2.7901641e+01   1.7371353e+01   7.2565979e-01  -5.5489561e+00  -1.2047243e+01   0.0000000e+00   0.0000000e+00   0.0000000e+00   0.0000000e+00
   7.6683934e+00  -7.1735346e+00  -1.0956541e+01   4.1674039e+01   5.5216420e+00   1.3638160e+01  -2.0729183e+00  -1.3756444e+01  -1.2675525e+00  -1.6622884e+00  -2.4064776e+00   4.4958699e+01   1.4600826e+01  -9.3061395e+00  -7.8456122e+00  -2.6600927e+01   1.7812037e+01   1.3786303e+00  -3.7978208e+00  -1.1118151e+01   0.0000000e+00   0.0000000e+00   0.0000000e+00   0.0000000e+00
   8.5457615e+00  -6.4131604e+00  -1.0707743e+01   4.1945714e+01   6.2735250e+00   1.4871772e+01  -1.3170867e+00  -1.1271517e+01  -2.7175783e-01  -2.0085312e+00  -2.1750120e+00   4.5156710e+01   1.5182453e+01  -7.7532239e+00  -6.6760709e+00  -2.5229898e+01   1.8767940e+01   2.3984852e+00  -1.8447419e+00  -9.7916763e+00   0.0000000e+00   0.0000000e+00   0.0000000e+00   0.0000000e+00
   9.3895766e+00  -5.6375097e+00  -1.0560532e+01   4.2784216e+01   6.2272023e+00   1.6051075e+01  -4.1147668e-01  -9.3677279e+00   1.0546054e+00  -2.3683062e+00  -2.3070837e+00   4.7125462e+01   1.6232259e+01  -5.8265167e+00  -5.3354766e+00  -2.4322987e+01   2.0084974e+01   3.7015661e+00   2.6205965e-01  -8.5513394e+00   0.0000000e+00   0.0000000e+00   0.0000000e+00   0.0000000e+00
   9.9006857e+00  -5.3115696e+00  -1.0331284e+01   4.3361977e+01   6.2325162e+00   1.7274442e+01   6.7501989e-01  -7.7204639e+00   2.1584155e+00  -2.4921392e+00  -2.6792793e+00   5.0141413e+01   1.7430694e+01  -3.7465506e+00  -3.9376742e+00  -2.4032691e+01   2.1721137e+01   5.2418415e+00   2.5911725e+00  -7.1421720e+00   0.0000000e+00   0.0000000e+00   0.0000000e+00   0.0000000e+00
   9.9270332e+00  -5.3785097e+00  -9.8381332e+00   4.3846598e+01   6.4677704e+00   1.8813882e+01   1.8715695e+00  -5.8439150e+00   3.1334734e+00  -2.0747998e+00  -3.0063599e+00   5.3168437e+01   1.8716506e+01  -1.6186434e+00  -2.5743563e+00  -2.3947899e+01   2.3740401e+01   7.0916967e+00   5.0555981e+00  -5.2775535e+00   0.0000000e+00   0.0000000e+00   0.0000000e+00   0.0000000e+00
   9.5954235e+00  -5.2223246e+00  -9.2284942e+00   4.4812884e+01   6.5145792e+00   2.0486254e+01   3.0126888e+00  -4.0388845e+00   3.9641945e+00  -1.1163820e+00  -2.8571156e+00   5.4618074e+01   2.0377728e+01   6.1202935e-01  -1.1725939e+00  -2.3867972e+01   2.5988791e+01   9.0901989e+00   7.4636477e+00  -3.2159828e+00   0.0000000e+00   0.0000000e+00   0.0000000e+00   0.0000000e+00
   9.0949831e+00  -4.7450876e+00  -8.6952210e+00   4.5651237e+01   6.8322782e+00   2.1793487e+01   3.9836455e+00  -2.6669887e+00   4.6221450e+00  -3.4581782e-02  -2.1142942e+00   5.4274035e+01   2.2138925e+01   2.5067006e+00   1.5622782e-01  -2.3899710e+01   2.7891230e+01   1.0806924e+01   9.6088148e+00  -1.3341311e+00   0.0000000e+00   0.0000000e+00   0.0000000e+00   0.0000000e+00
   8.5220050e+00  -4.0593386e+00  -8.3448174e+00   4.5305672e+01   7.4682419e+00   2.2385148e+01   4.4993593e+00  -2.2482600e+00   5.0904568e+00   6.2736940e-01  -1.2422487e+00   5.3413405e+01   2.3172895e+01   3.3909213e+00   1.0166584e+00  -2.4145640e+01   2.8766463e+01   1.1875405e+01   1.1176630e+01  -4.9606019e-02   0.0000000e+00   0.0000000e+00   0.0000000e+00   0.0000000e+00
   7.5289455e+00  -3.3242649e+00  -8.1948785e+00   4.3056087e+01   7.1106862e+00   2.2138331e+01   4.3955025e+00  -2.6473487e+00   4.8861674e+00   7.9030823e-01  -5.8298793e-01   5.2584369e+01   2.3008529e+01   3.0875573e+00   1.2772402e+00  -2.4355251e+01   2.8217948e+01   1.2173126e+01   1.1904006e+01   5.5328646e-01   0.0000000e+00   0.0000000e+00   0.0000000e+00   0.0000000e+00
   6.0834774e+00  -3.3359936e+00  -8.2976484e+00   4.0106821e+01   5.3323607e+00   2.1430652e+01   3.8062712e+00  -3.2597609e+00   3.9150519e+00   6.0249731e-01  -2.5570819e-01   5.1502178e+01   2.1716584e+01   2.0178743e+00   1.1334267e+00  -2.4324223e+01   2.6506741e+01   1.1793360e+01   1.1815076e+01   5.4504971e-01   0.0000000e+00   0.0000000e+00   0.0000000e+00   0.0000000e+00
   4.8101862e+00  -3.7858117e+00  -8.3783189e+00   3.8391860e+01   3.5086006e+00   2.0747513e+01   3.0741099e+00  -3.9076463e+00   2.7997380e+00   4.1536041e-01  -2.1997871e-01   5.0129215e+01   1.9868127e+01   9.0935159e-01   9.3013661e-01  -2.4172177e+01   2.4615827e+01   1.1074589e+01   1.1305965e+01   3.6209178e-02   0.0000000e+00   0.0000000e+00   0.0000000e+00   0.0000000e+00
   4.1330323e+00  -3.4117692e+00  -8.1340162e+00   3.8425001e+01   2.8576568e+00   2.0347334e+01   2.7885413e+00  -4.0743427e+00   2.0896160e+00   4.8809349e-01  -1.9583533e-01   4.8958934e+01   1.7803702e+01   1.9748477e-01   1.0252646e+00  -2.3688530e+01   2.3323032e+01   1.0440866e+01   1.0935847e+01  -3.5002736e-01   0.0000000e+00   0.0000000e+00   0.0000000e+00   0.0000000e+00
   4.1014715e+00  -2.0767976e+00  -7.5730345e+00   3.9456585e+01   2.8752696e+00   2.0247703e+01   3.1121668e+00  -3.8573130e+00   1.9112598e+00   5.5315060e-01  -1.8675316e-02   4.8217866e+01   1.5824454e+01  -2.7627501e-01   1.3063754e+00  -2.2787731e+01   2.2435770e+01   1.0062840e+01   1.0921197e+01  -3.4069727e-01   0.0000000e+00   0.0000000e+00   0.0000000e+00   0.0000000e+00
   4.1610773e+00  -6.7711602e-01  -6.9267717e+00   4.0197122e+01   2.4771855e+00   2.0022706e+01   3.6497241e+00  -3.6900252e+00   2.1036061e+00   8.0181945e-02   3.1421835e-01   4.7435130e+01   1.4366989e+01  -7.5506035e-01   1.4909335e+00  -2.1627387e+01   2.1315432e+01   9.6880617e+00   1.1030867e+01  -2.0337434e-01   0.0000000e+00   0.0000000e+00   0.0000000e+00   0.0000000e+00
   3.2913732e+00   9.9587020e-02  -6.7450461e+00   3.8864716e+01   1.6901682e+00   1.9668818e+01   4.1940834e+00  -3.5726085e+00   2.0416245e+00  -9.9716962e-01   7.7124588e-01   4.6814597e+01   1.3410600e+01  -1.4045912e+00   1.5413398e+00  -2.0512374e+01   1.9919928e+01   8.9557150e+00   1.1176997e+01  -1.1388708e-01   0.0000000e+00   0.0000000e+00   0.0000000e+00   0.0000000e+00
   1.4288210e+00   1.8904249e-01  -7.0465795e+00   3.5611270e+01   9.8239145e-01   1.9476242e+01   4.7927204e+00  -2.9771985e+00   1.9004106e+00  -2.2118449e+00   1.2429822e+00   4.6175855e+01   1.2932372e+01  -2.3732095e+00   1.5507044e+00  -1.9718228e+01   1.8680884e+01   8.0215989e+00   1.1498017e+01   1.7296193e-01   0.0000000e+00   0.0000000e+00   0.0000000e+00   0.0000000e+00
  -4.2614814e-01  -4.1896322e-01  -7.4067748e+00   3.3264271e+01   3.4156345e-01   1.9304217e+01   5.4514812e+00  -1.6062637e+00   2.5424052e+00  -3.0028629e+00   1.7960568e+00   4.5198318e+01   1.3183981e+01  -3.2534984e+00   1.8498806e+00  -1.8829650e+01   1.7993073e+01   7.3919554e+00   1.2077205e+01   1.0563738e+00   0.0000000e+00   0.0000000e+00   0.0000000e+00   0.0000000e+00
  -1.3033746e+00  -1.3005912e+00  -7.7075901e+00   3.4093607e+01   5.1013476e-01   1.9280433e+01   6.1909591e+00  -3.4247830e-01   3.8056431e+00  -3.0482905e+00   2.4632196e+00   4.4890140e+01   1.4698715e+01  -3.1761969e+00   2.7759920e+00  -1.7576358e+01   1.8317750e+01   7.4574851e+00   1.3048536e+01   2.4484972e+00   0.0000000e+00   0.0000000e+00   0.0000000e+00   0.0000000e+00
  -1.1324096e+00  -1.5584164e+00  -7.7860783e+00   3.7733112e+01   1.6371715e+00   1.9809447e+01   7.0940593e+00   1.4397409e-01   5.1897096e+00  -2.6016192e+00   2.9631463e+00   4.6064972e+01   1.7282359e+01  -1.7587468e+00   4.2572040e+00  -1.6486896e+01   1.9798276e+01   8.2756348e+00   1.4570076e+01   3.9577144e+00   0.0000000e+00   0.0000000e+00   0.0000000e+00   0.0000000e+00
  -6.9483451e-01  -8.2159861e-01  -7.5375873e+00   4.0884187e+01   2.5166553e+00   2.1069904e+01   8.3424609e+00  -3.8958842e-03   6.5507184e+00  -1.6912794e+00   3.1851459e+00   4.8529411e+01   2.0019080e+01   6.6997854e-01   6.0054948e+00  -1.5838964e+01   2.2093814e+01   9.6203080e+00   1.6597998e+01   5.2232842e+00   0.0000000e+00   0.0000000e+00   0.0000000e+00   0.0000000e+00
  -8.3058729e-01   5.9934799e-01  -7.0012679e+00   4.1085576e+01   2.8920377e+00   2.2856731e+01   9.8963039e+00  -3.4917701e-01   8.2057558e+00  -1.9012474e-01   3.2626110e+00   5.0725229e+01   2.2563628e+01   3.3076752e+00   7.6444902e+00  -1.5515693e+01   2.4627955e+01   1.1276786e+01   1.8753037e+01   6.0242267e+00   0.0000000e+00   0.0000000e+00   0.0000000e+00   0.0000000e+00
  -2.4352637e+00   1.8482455e+00  -6.3004485e+00   4.0120746e+01   3.2514736e+00   2.4559636e+01   1.1349318e+01  -2.6430693e-01   9.6183578e+00   1.4096729e+00   3.2384474e+00   5.0993852e+01   2.4486935e+01   5.5358855e+00   8.7986073e+00  -1.5424650e+01   2.6530346e+01   1.2804775e+01   2.0403447e+01   6.1578026e+00   0.0000000e+00   0.0000000e+00   0.0000000e+00   0.0000000e+00
  -5.9918510e+00   2.6419672e+00  -5.5451181e+00   3.9874963e+01   3.9970468e+00   2.5512366e+01   1.2548449e+01   1.1506112e-01   1.0002995e+01   2.4388510e+00   3.1981347e+00   4.9600441e+01   2.5221768e+01   7.0123824e+00   9.3789598e+00  -1.5398432e+01   2.7146049e+01   1.3697965e+01   2.1316216e+01   5.5597472e+00   0.0000000e+00   0.0000000e+00   0.0000000e+00   0.0000000e+00
  -1.1503754e+01   3.1620448e+00  -4.7709795e+00   3.9275417e+01   4.2530001e+00   2.5711694e+01   1.3774744e+01   6.6458388e-01   9.7173191e+00   2.7703960e+00   3.2788057e+00   4.7232795e+01   2.4436210e+01   7.5331223e+00   9.5426746e+00  -1.5093902e+01   2.6392717e+01   1.3766993e+01   2.1739616e+01   4.6289297e+00   0.0000000e+00   0.0000000e+00   0.0000000e+00   0.0000000e+00
  -1.9520510e+01   3.6648358e+00  -3.8687798e+00   3.7709315e+01   3.4982315e+00   2.5679170e+01   1.5327572e+01   1.5207262e+00   9.3380183e+00   3.1602552e+00   3.6470864e+00   4.4771443e+01   2.2867416e+01   7.2802679e+00   9.5858393e+00  -1.4245674e+01   2.4889343e+01   1.3420040e+01   2.2218211e+01   3.9518801e+00   0.0000000e+00   0.0000000e+00   0.0000000e+00   0.0000000e+00
  -3.1616107e+01   4.0209341e+00  -2.9618604e+00   3.6019061e+01   2.5060712e+00   2.5531017e+01   1.7057259e+01   2.6744858e+00   8.7359257e+00   3.9872856e+00   4.1393586e+00   4.3404406e+01   2.1335506e+01   6.9212103e+00   9.7189636e+00  -1.3112780e+01   2.3250457e+01   1.2951068e+01   2.2888324e+01   3.5089402e+00   0.0000000e+00   0.0000000e+00   0.0000000e+00   0.0000000e+00
  -4.8314949e+01   4.2675522e+00  -2.5018798e+00   3.4540699e+01   1.4635884e+00   2.5256537e+01   1.8422696e+01   3.7968416e+00   8.0808541e+00   4.6387991e+00   4.3675454e+00   4.2879847e+01   1.9664451e+01   6.9359963e+00   9.9237352e+00  -1.2235325e+01   2.1814913e+01   1.2225414e+01   2.3357248e+01   2.7279041e+00   0.0000000e+00   0.0000000e+00   0.0000000e+00   0.0000000e+00
  -6.6974730e+01   4.7535019e+00  -2.4255861e+00   3.4199115e+01   8.1732380e-01   2.4871704e+01   1.8976067e+01   4.2566020e+00   7.6784944e+00   4.6954045e+00   4.1899558e+00   4.2699070e+01   1.8153556e+01   7.2747420e+00   1.0076169e+01  -1.1890560e+01   2.1172554e+01   1.1557938e+01   2.3314918e+01   1.4948927e+00   0.0000000e+00   0.0000000e+00   0.0000000e+00   0.0000000e+00
  -8.4104256e+01   5.5608146e+00  -2.3071009e+00   3.5399818e+01   1.5291130e+00   2.4584723e+01   1.8796819e+01   3.5294297e+00   7.4125366e+00   4.4750890e+00   3.9615196e+00   4.3353589e+01   1.7502459e+01   8.0299503e+00   1.0268108e+01  -1.1692520e+01   2.1724251e+01   1.1506605e+01   2.2877036e+01   1.7423689e-01   0.0000000e+00   0.0000000e+00   0.0000000e+00   0.0000000e+00
  -9.8300924e+01   6.3654092e+00  -1.9964043e+00   3.6905671e+01   3.1239397e+00   2.4607410e+01   1.8204523e+01   1.8888309e+00   7.3323400e+00   4.5161926e+00   4.1166366e+00   4.4669988e+01   1.7878318e+01   9.4777425e+00   1.0759107e+01  -1.1161926e+01   2.3337585e+01   1.2208412e+01   2.2487433e+01  -9.2297256e-01   0.0000000e+00   0.0000000e+00   0.0000000e+00   0.0000000e+00
  -1.0980240e+02   6.9672964e+00  -1.5992423e+00   3.8461920e+01   4.2990536e+00   2.4977936e+01   1.7470757e+01   3.3386013e-01   7.7080658e+00   5.1943947e+00   4.5202956e+00   4.5722219e+01   1.9153481e+01   1.1492876e+01   1.1658249e+01  -1.0604928e+01   2.5699778e+01   1.3557633e+01   2.2621457e+01  -1.6600570e+00   0.0000000e+00   0.0000000e+00   0.0000000e+00   0.0000000e+00
  -1.1897194e+02   7.6540927e+00  -1.0947363e+00   3.9621986e+01   4.4797847e+00   2.5585950e+01   1.7019155e+01  -3.6287001e-01   8.5070591e+00   6.2501147e+00   4.9120417e+00   4.6707298e+01   2.1266763e+01   1.3508552e+01   1.2813324e+01  -1.0262986e+01   2.8371621e+01   1.5536832e+01   2.3371600e+01  -1.7940741e+00   0.0000000e+00   0.0000000e+00   0.0000000e+00   0.0000000e+00
  -1.2601227e+02   8.1459334e+00  -6.2872692e-01   4.0171240e+01   4.2139821e+00   2.6000672e+01   1.7116802e+01   9.0555382e-03   9.6164014e+00   7.2749573e+00   5.3943588e+00   4.7613223e+01   2.3646877e+01   1.5063462e+01   1.4006470e+01  -9.7701209e+00   3.0752881e+01   1.7858986e+01   2.4365190e+01  -9.4590903e-01   0.0000000e+00   0.0000000e+00   0.0000000e+00   0.0000000e+00
  -1.3133270e+02   8.0081877e+00  -4.6860732e-01   4.0969264e+01   4.3359045e+00   2.5901840e+01   1.7385164e+01   9.9214657e-01   1.0879274e+01   8.1855100e+00   6.0305276e+00   4.7405222e+01   2.5372071e+01   1.5959002e+01   1.5014630e+01  -9.1442783e+00   3.2158775e+01   1.9874522e+01   2.5134441e+01   9.3000275e-01   0.0000000e+00   0.0000000e+00   0.0000000e+00   0.0000000e+00
  -1.3578188e+02   6.8554874e+00  -8.8043807e-01   4.0723292e+01   4.5150807e+00   2.5118778e+01   1.7198662e+01   1.6500785e+00   1.1482793e+01   8.6647703e+00   6.6345915e+00   4.6871157e+01   2.5711474e+01   1.6049344e+01   1.5587431e+01  -9.0000106e+00   3.2125870e+01   2.0740762e+01   2.5226400e+01   3.2032045e+00   0.0000000e+00   0.0000000e+00   0.0000000e+00   0.0000000e+00
  -1.4003011e+02   5.0073406e+00  -1.9218172e+00   3.8562718e+01   3.7965727e+00   2.3479006e+01   1.6420449e+01   1.2626241e+00   1.1179155e+01   8.4999899e+00   7.1484783e+00   4.6362564e+01   2.4583895e+01   1.5021597e+01   1.5559442e+01  -9.6170395e+00   3.0622341e+01   2.0070659e+01   2.4457342e+01   5.0966908e+00   0.0000000e+00   0.0000000e+00   0.0000000e+00   0.0000000e+00
  -1.4408335e+02   3.2859671e+00  -3.2969407e+00   3.6351530e+01   1.7773339e+00   2.1372248e+01   1.5507540e+01   2.3469079e-01   1.0092892e+01   7.9562152e+00   7.7025088e+00   4.4293406e+01   2.2774477e+01   1.2985592e+01   1.4922451e+01  -1.0336140e+01   2.7983771e+01   1.8229888e+01   2.3129981e+01   6.5535520e+00   0.0000000e+00   0.0000000e+00   0.0000000e+00   0.0000000e+00
  -1.4765757e+02   1.9704215e+00  -4.5356598e+00   3.4767457e+01  -8.0987302e-01   1.9471699e+01   1.4880320e+01  -4.9091292e-01   8.5491694e+00   7.2203429e+00   8.2162329e+00   4.0417031e+01   2.0823283e+01   1.0570327e+01   1.3754008e+01  -1.0674905e+01   2.4884645e+01   1.5717307e+01   2.1765351e+01   7.9058580e+00   0.0000000e+00   0.0000000e+00   0.0000000e+00   0.0000000e+00
  -1.4998173e+02   1.3930001e+00  -5.0043335e+00   3.3540325e+01  -2.3641719e+00   1.8120564e+01   1.4770673e+01   5.1391574e-02   7.1948089e+00   6.5153937e+00   8.4182783e+00   3.7121002e+01   1.9061427e+01   8.4362567e+00   1.2428544e+01  -1.0449633e+01   2.2286547e+01   1.3224331e+01   2.0888708e+01   9.3757768e+00   0.0000000e+00   0.0000000e+00   0.0000000e+00   0.0000000e+00
  -1.5052914e+02   1.4481782e+00  -4.5041875e+00   3.2708573e+01  -1.9858531e+00   1.7634685e+01   1.5136684e+01   1.6005687e+00   6.2271854e+00   5.9797180e+00   7.9883278e+00   3.5934789e+01   1.8161763e+01   7.2254910e+00   1.1432856e+01  -9.9086884e+00   2.0920768e+01   1.1423294e+01   2.0745461e+01   1.0809101e+01   0.0000000e+00   0.0000000e+00   0.0000000e+00   0.0000000e+00
  -1.4960712e+02   1.9515655e+00  -3.3012277e+00   3.2130091e+01  -2.2739266e-01   1.8475839e+01   1.5692288e+01   2.5517162e+00   5.8008633e+00   5.5072384e+00   7.0779632e+00   3.5997148e+01   1.8647569e+01   7.2016041e+00   1.1044255e+01  -9.5136416e+00   2.1062404e+01   1.0771864e+01   2.1407391e+01   1.2007166e+01   0.0000000e+00   0.0000000e+00   0.0000000e+00   0.0000000e+00
  -1.4813131e+02   3.1091073e+00  -1.9982335e+00   3.2491235e+01   1.7010293e+00   2.0521237e+01   1.6200111e+01   2.6498949e+00   6.0016844e+00   5.2789865e+00   6.3511566e+00   3.6611202e+01   2.0285129e+01   8.1196690e+00   1.1260765e+01  -9.0966785e+00   2.2386820e+01   1.1219621e+01   2.2636553e+01   1.3063887e+01   0.0000000e+00   0.0000000e+00   0.0000000e+00   0.0000000e+00
  -1.4671418e+02   4.8207322e+00  -1.3794027e+00   3.4116647e+01   2.9531681e+00   2.2884384e+01   1.6464233e+01   2.3159925e+00   6.5581300e+00   5.2655508e+00   5.9749420e+00   3.7340706e+01   2.2545177e+01   9.4022018e+00   1.1694768e+01  -8.6896412e+00   2.4183226e+01   1.2106495e+01   2.3793942e+01   1.3832182e+01   0.0000000e+00   0.0000000e+00   0.0000000e+00   0.0000000e+00
  -1.4533597e+02   6.5612948e+00  -1.3562344e+00   3.5667159e+01   4.0121450e+00   2.4741924e+01   1.6434655e+01   1.5605566e+00   7.3061864e+00   5.1323905e+00   5.7438491e+00   3.7914485e+01   2.4865730e+01   1.0413816e+01   1.1926127e+01  -8.4354248e+00   2.5913438e+01   1.2875345e+01   2.4380714e+01   1.4096161e+01   0.0000000e+00   0.0000000e+00   0.0000000e+00   0.0000000e+00
  -1.4371870e+02   7.8409517e+00  -1.2078492e+00   3.6331477e+01   5.2653491e+00   2.5952685e+01   1.6265089e+01   1.0212962e+00   8.4629337e+00   5.0459945e+00   5.6068490e+00   3.8390819e+01   2.6822102e+01   1.0664396e+01   1.1818098e+01  -8.2262030e+00   2.7255556e+01   1.3444439e+01   2.4468574e+01   1.4181878e+01   0.0000000e+00   0.0000000e+00   0.0000000e+00   0.0000000e+00
  -1.4177470e+02   7.7273972e+00  -1.0011778e+00   3.6085606e+01   5.9424792e+00   2.6634560e+01   1.5803043e+01   9.4636440e-01   9.6164842e+00   5.1365883e+00   5.4031739e+00   3.9036086e+01   2.7693361e+01   9.9343866e+00   1.1316456e+01  -8.0859322e+00   2.7839789e+01   1.3572428e+01   2.3951938e+01   1.4251318e+01   0.0000000e+00   0.0000000e+00   0.0000000e+00   0.0000000e+00
  -1.4003548e+02   6.0453580e+00  -1.0561062e+00   3.5592472e+01   5.5306746e+00   2.6666191e+01   1.4827130e+01   1.0288777e+00   9.6630289e+00   5.0235323e+00   4.9300019e+00   3.9842819e+01   2.6884434e+01   8.2892497e+00   1.0383180e+01  -7.9732905e+00   2.7368116e+01   1.2845628e+01   2.2629676e+01   1.4090315e+01   0.0000000e+00   0.0000000e+00   0.0000000e+00   0.0000000e+00
  -1.3877517e+02   4.4488471e+00  -1.5407769e+00   3.5729538e+01   4.9328215e+00   2.6105724e+01   1.3664560e+01   1.1869382e+00   8.4125472e+00   4.5244872e+00   4.3005643e+00   4.0363326e+01   2.4658131e+01   6.1810037e+00   9.2246349e+00  -7.5592026e+00   2.5972499e+01   1.1317845e+01   2.0941898e+01   1.3768447e+01   0.0000000e+00   0.0000000e+00   0.0000000e+00   0.0000000e+00
  -1.3767820e+02   4.0889795e+00  -2.3350492e+00   3.5521414e+01   4.7525845e+00   2.5569774e+01   1.3021322e+01   1.6768447e+00   6.8926498e+00   3.7555711e+00   3.7320812e+00   3.9651620e+01   2.1881233e+01   4.0659500e+00   8.1283919e+00  -6.7551323e+00   2.4260006e+01   9.4752141e+00   1.9751424e+01   1.3704737e+01   0.0000000e+00   0.0000000e+00   0.0000000e+00   0.0000000e+00
  -1.3630706e+02   4.8608335e+00  -3.0199473e+00   3.4639475e+01   4.4522698e+00   2.5177101e+01   1.3255749e+01   2.6088307e+00   5.5240382e+00   2.6917588e+00   3.1443647e+00   3.8018332e+01   1.9408338e+01   2.2391836e+00   7.1521295e+00  -5.9833065e+00   2.2600967e+01   7.7595880e+00   1.9333738e+01   1.3959811e+01   0.0000000e+00   0.0000000e+00   0.0000000e+00   0.0000000e+00
  -1.3465999e+02   6.3253654e+00  -3.3830729e+00   3.3238330e+01   3.8195745e+00   2.4558361e+01   1.4019255e+01   3.5640914e+00   3.9189762e+00   1.2789293e+00   2.3108014e+00   3.6693329e+01   1.7418030e+01   8.4008033e-01   6.1729221e+00  -5.8022991e+00   2.0902001e+01   6.1688162e+00   1.9267414e+01   1.4048590e+01   0.0000000e+00   0.0000000e+00   0.0000000e+00   0.0000000e+00
  -1.3337644e+02   7.5994025e+00  -3.1878922e+00   3.1602219e+01   2.5555965e+00   2.3582337e+01   1.4841348e+01   4.1835653e+00   2.2922199e+00  -3.0218294e-01   1.0482149e+00   3.5664631e+01   1.5384305e+01  -4.3694623e-01   5.1118951e+00  -6.3602004e+00   1.9005191e+01   4.5158801e+00   1.9165888e+01   1.3723439e+01   1.0000000e+03   0.0000000e+00   0.0000000e+00   0.0000000e+00
  -1.3261721e+02   7.8315469e+00  -2.2658339e+00   3.0501263e+01   8.5695530e-01   2.2593907e+01   1.5650136e+01   4.5655869e+00   1.0739375e+00  -1.8343692e+00  -4.6856185e-01   3.4554065e+01   1.2822267e+01  -1.9454864e+00   4.1105861e+00  -7.0414518e+00   1.7146524e+01   2.8973869e+00   1.9057047e+01   1.3348811e+01   1.0000000e+03   0.0000000e+00   0.0000000e+00   0.0000000e+00
  -1.3179826e+02   7.3076865e+00  -9.0241681e-01   2.9523039e+01  -2.2580063e-01   2.2159946e+01   1.6310842e+01   4.4481784e+00   4.9546378e-02  -3.0440775e+00  -1.8286316e+00   3.2959648e+01   1.0108891e+01  -3.4345012e+00   3.2761264e+00  -7.3103977e+00   1.5681032e+01   1.5553279e+00   1.8918203e+01   1.2942171e+01   1.0000000e+03   3.0000000e+01   0.0000000e+00   0.0000000e+00
  -1.3021011e+02   7.4781696e+00   4.1148127e-01   2.8008077e+01  -2.7907151e-01   2.2525690e+01   1.6673749e+01   4.1633950e+00  -4.5142814e-01  -3.6570994e+00  -2.7056737e+00   3.1656384e+01   8.1751704e+00  -4.2632353e+00   2.6967216e+00  -7.0663451e+00   1.4903035e+01   8.3445441e-01   1.8689689e+01   1.2372298e+01   1.0000000e+03   3.0000000e+01   0.0000000e+00   0.0000000e+00
  -1.2741007e+02   9.0837710e+00   1.2651404e+00   2.7120389e+01  -1.0246754e-01   2.3597380e+01   1.6798227e+01   4.2665077e+00  -1.9914774e-01  -3.6511856e+00  -2.9668581e+00   3.1561380e+01   7.6316833e+00  -3.8010850e+00   2.7007364e+00  -6.2198395e+00   1.5199032e+01   1.1219941e+00   1.8639123e+01   1.1938874e+01   1.0000000e+03   3.0000000e+01   0.0000000e+00   0.0000000e+00
  -1.2369048e+02   1.1587112e+01   1.1891782e+00   2.8105189e+01   5.2429883e-01   2.4998962e+01   1.6652498e+01   3.7914506e+00   5.9011813e-01  -3.0737515e+00  -2.7551969e+00   3.2422150e+01   8.4359705e+00  -1.6910424e+00   3.6950734e+00  -5.0012237e+00   1.6730279e+01   2.5852769e+00   1.9242960e+01   1.1825489e+01   0.0000000e+00   3.0000000e+01   0.0000000e+00   0.0000000e+00
  -1.2036588e+02   1.3447160e+01   1.1245101e-01   3.0259324e+01   2.4778010e+00   2.6408983e+01   1.6264650e+01   2.4901709e+00   2.0128964e+00  -1.9530664e+00  -2.2342421e+00   3.4124072e+01   1.0040431e+01   1.9236946e+00   5.8066870e+00  -3.8190520e+00   1.9348947e+01   5.0436445e+00   2.0829263e+01   1.2088516e+01   0.0000000e+00   3.0000000e+01   0.0000000e+00   0.0000000e+00
  -1.1842631e+02   1.3332931e+01  -1.4546644e+00   3.3380505e+01   4.6959246e+00   2.8119449e+01   1.6106109e+01   1.2043372e+00   4.1421240e+00  -3.4236118e-01  -1.3814895e+00   3.4942763e+01   1.2741889e+01   6.5932609e+00   8.8083873e+00  -2.8129763e+00   2.2910204e+01   8.1895547e+00   2.3548049e+01   1.2889328e+01   0.0000000e+00   3.0000000e+01   0.0000000e+00   0.0000000e+00
  -1.1753852e+02   1.1311589e+01  -3.1206973e+00   3.6481671e+01   5.2819540e+00   3.0072946e+01   1.6575490e+01   5.6529287e-01   6.4169218e+00   1.7873601e+00  -2.1977079e-01   3.4948093e+01   1.6940316e+01   1.1510990e+01   1.2104196e+01  -1.7263458e+00   2.6864591e+01   1.1758536e+01   2.7029563e+01   1.4257188e+01   0.0000000e+00   3.0000000e+01   0.0000000e+00   0.0000000e+00
  -1.1683364e+02   8.8104917e+00  -4.6278235e+00   3.7283075e+01   4.2926062e+00   3.1120460e+01   1.7280718e+01   7.5101601e-01   7.9664434e+00   4.0194243e+00   1.0279750e+00   3.6209488e+01   2.1121008e+01   1.5303192e+01   1.4852869e+01  -4.7328721e-01   2.9906405e+01   1.5187899e+01   3.0159968e+01   1.5769863e+01   0.0000000e+00   3.0000000e+01   0.0000000e+00   0.0000000e+00
  -1.1633990e+02   6.7783897e+00  -5.8063496e+00   3.5051597e+01   3.5018880e+00   3.0291283e+01   1.7361042e+01   1.5773970e+00   8.3066527e+00   5.2854989e+00   1.8578849e+00   3.7756633e+01   2.3002447e+01   1.6831513e+01   1.6247362e+01   4.2091179e-01   3.0792357e+01   1.7507898e+01   3.1635397e+01   1.6739645e+01   0.0000000e+00   3.0000000e+01   0.0000000e+00   0.0000000e+00
  -1.1639759e+02   5.0329764e+00  -6.4906094e+00   3.2068348e+01   2.8449657e+00   2.7957420e+01   1.6369270e+01   2.2323890e+00   7.3056907e+00   4.9248348e+00   1.8892023e+00   3.7981844e+01   2.2050935e+01   1.6149565e+01   1.5918155e+01   4.5148823e-01   2.9472481e+01   1.8092071e+01   3.0910973e+01   1.6626144e+01   0.0000000e+00   3.0000000e+01   0.0000000e+00   0.0000000e+00
  -1.1653436e+02   3.7259723e+00  -6.4493015e+00   3.0170965e+01   1.4634584e+00   2.5365376e+01   1.4695263e+01   2.0813533e+00   5.2071692e+00   3.2139326e+00   1.0553003e+00   3.5922774e+01   1.9845397e+01   1.4317599e+01   1.4233173e+01  -3.0446750e-01   2.6976321e+01   1.7273966e+01   2.8591891e+01   1.5484907e+01   0.0000000e+00   3.0000000e+01   0.0000000e+00   0.0000000e+00
  -1.1596402e+02   3.2650661e+00  -5.7250142e+00   2.8700618e+01  -4.4949910e-01   2.3511826e+01   1.3049851e+01   1.2507732e+00   2.8278647e+00   1.1528170e+00  -4.9204028e-01   3.2281499e+01   1.7836368e+01   1.2226454e+01   1.1916215e+01  -1.5838737e+00   2.4377233e+01   1.5867737e+01   2.5737243e+01   1.3828214e+01   0.0000000e+00   3.0000000e+01   0.0000000e+00   0.0000000e+00
  -1.1442992e+02   3.2597550e+00  -4.9239108e+00   2.7582019e+01  -2.1687764e+00   2.2531625e+01   1.1758015e+01   1.6758952e-01   8.3582937e-01  -6.2893350e-01  -2.2505465e+00   3.0023641e+01   1.5752990e+01   1.0224682e+01   9.6695347e+00  -3.2081701e+00   2.2107088e+01   1.4339380e+01   2.3035290e+01   1.2012992e+01   0.0000000e+00   3.0000000e+01   0.0000000e+00   0.0000000e+00
  -1.1237832e+02   3.0663123e+00  -4.7739577e+00   2.7063917e+01  -2.7883617e+00   2.2125438e+01   1.0858217e+01  -5.9401886e-01  -6.0381330e-01  -2.0665177e+00  -3.6545342e+00   2.9208838e+01   1.3363136e+01   8.5925475e+00   7.9883795e+00  -4.9075021e+00   2.0320625e+01   1.2779246e+01   2.0931753e+01   1.0266409e+01   0.0000000e+00   3.0000000e+01   0.0000000e+00   0.0000000e+00
  -1.1021584e+02   2.5633201e+00  -5.2157358e+00   2.6208717e+01  -2.2590443e+00   2.2162803e+01   1.0256864e+01  -7.8699152e-01  -1.5230411e+00  -3.1886538e+00  -4.6184040e+00   2.7635925e+01   1.1155470e+01   7.4371068e+00   6.7648133e+00  -6.4249124e+00   1.8998995e+01   1.1259192e+01   1.9520195e+01   8.7126643e+00   0.0000000e+00   3.0000000e+01   0.0000000e+00   0.0000000e+00
  -1.0843547e+02   2.0706546e+00  -5.5315078e+00   2.4012555e+01  -1.9001453e+00   2.2673713e+01   9.6989298e+00  -7.0850472e-01  -2.2796160e+00  -3.9497756e+00  -5.2717586e+00   2.5161441e+01   9.3321594e+00   6.4055549e+00   5.4984743e+00  -7.7400655e+00   1.7862781e+01   9.8859644e+00   1.8453997e+01   7.3540044e+00   0.0000000e+00   3.0000000e+01   0.0000000e+00   0.0000000e+00
  -1.0748014e+02   1.7563159e+00  -5.1876434e+00   2.1675531e+01  -2.9509913e+00   2.3058318e+01   8.9301656e+00  -1.3268023e-01  -3.4103581e+00  -4.3787039e+00  -5.7052981e+00   2.3097360e+01   7.3895184e+00   5.0397269e+00   3.9025898e+00  -8.8914103e+00   1.6505060e+01   8.6294303e+00   1.7187112e+01   6.2090288e+00   0.0000000e+00   3.0000000e+01   0.0000000e+00   0.0000000e+00
  -1.0668552e+02   1.5390970e+00  -4.4943379e+00   2.0560645e+01  -4.3967725e+00   2.2623249e+01   8.0694530e+00   1.1661156e+00  -4.8457847e+00  -4.8385801e+00  -5.6927232e+00   2.1837296e+01   5.0129360e+00   3.5521155e+00   2.4700955e+00  -9.4761809e+00   1.4941887e+01   7.4081783e+00   1.5699611e+01   5.4514707e+00   0.0000000e+00   3.0000000e+01   0.0000000e+00   0.0000000e+00
  -1.0572705e+02   1.0794968e+00  -4.2941177e+00   1.9598959e+01  -5.4446506e+00   2.1442160e+01   7.2965986e+00   2.0622482e+00  -6.1062033e+00  -5.7381002e+00  -5.1586695e+00   2.0664488e+01   2.2472265e+00   2.1319697e+00   1.6193215e+00  -9.2845828e+00   1.3330999e+01   5.9475991e+00   1.4264360e+01   4.9715188e+00   0.0000000e+00   3.0000000e+01   0.0000000e+00   0.0000000e+00
  -1.0482787e+02   5.9758381e-01  -4.4526236e+00   1.7489638e+01  -6.4463573e+00   2.0032987e+01   6.9407345e+00   2.3352938e+00  -6.6965411e+00  -6.8394012e+00  -4.2901032e+00   1.8900890e+01  -5.4447563e-01   5.2658802e-01   1.2370202e+00  -8.4212769e+00   1.1642847e+01   4.3186035e+00   1.3225245e+01   4.9376968e+00   0.0000000e+00   3.0000000e+01   0.0000000e+00   0.0000000e+00
  -1.0415861e+02   2.5990487e-01  -4.3821919e+00   1.4936540e+01  -7.7929966e+00   1.8510862e+01   7.2858467e+00   2.9959359e+00  -7.0393481e+00  -7.8601979e+00  -3.2253391e+00   1.6202929e+01  -3.0800513e+00  -1.1401897e+00   1.3067703e+00  -7.0681191e+00   9.7633883e+00   2.8104109e+00   1.2826791e+01   5.7126052e+00   0.0000000e+00   3.0000000e+01   0.0000000e+00   0.0000000e+00
  -1.0380253e+02  -4.6572445e-01  -3.8057424e+00   1.2946752e+01  -9.4275348e+00   1.6826044e+01   8.0173648e+00   4.4061650e+00  -7.6741006e+00  -8.9088202e+00  -2.3012980e+00   1.2778405e+01  -5.4224517e+00  -2.7260151e+00   1.6887851e+00  -5.7359074e+00   7.5546946e+00   1.2385190e+00   1.2853153e+01   7.0376492e+00   0.0000000e+00   3.0000000e+01   0.0000000e+00   0.0000000e+00
  -1.0352948e+02  -1.5435187e+00  -2.7004651e+00   1.1333845e+01  -1.0794079e+01   1.5004526e+01   8.5517368e+00   5.9383202e+00  -8.5564147e+00  -1.0106204e+01  -1.8140898e+00   9.5246424e+00  -7.3150342e+00  -4.4663586e+00   2.0817066e+00  -4.6139578e+00   4.9456774e+00  -5.9377868e-01   1.3035182e+01   8.4876790e+00   0.0000000e+00   3.0000000e+01   0.0000000e+00   0.0000000e+00
  -1.0304841e+02  -2.3446707e+00  -1.5512796e+00   9.8835635e+00  -1.2246568e+01   1.2998403e+01   8.5106721e+00   6.7587340e+00  -9.8683515e+00  -1.1559950e+01  -1.8196566e+00   7.9410540e+00  -8.9393875e+00  -6.5896929e+00   2.1785618e+00  -3.8027908e+00   2.0618934e+00  -2.7645570e+00   1.3039292e+01   9.6055062e+00   0.0000000e+00   3.0000000e+01   0.0000000e+00   0.0000000e+00
  -1.0220640e+02  -2.6155939e+00  -7.1007313e-01   9.3692504e+00  -1.4205167e+01   1.0956918e+01   7.9544847e+00   6.9715895e+00  -1.1241986e+01  -1.2888737e+01  -2.0520322e+00   8.3872593e+00  -1.0799249e+01  -8.9563807e+00   1.8126518e+00  -3.7282816e+00  -6.9745350e-01  -5.1856098e+00   1.2663148e+01   1.0127727e+01   0.0000000e+00   3.0000000e+01   0.0000000e+00   0.0000000e+00
  -1.0104919e+02  -2.3255756e+00  -3.3693642e-01   9.8683257e+00  -1.6167920e+01   9.0459304e+00   7.0451959e+00   7.4353943e+00  -1.1916004e+01  -1.3733694e+01  -2.1931629e+00   9.8898388e+00  -1.2834477e+01  -1.1139546e+01   1.0035710e+00  -4.4729987e+00  -2.9048239e+00  -7.6605236e+00   1.1964207e+01   1.0163502e+01   0.0000000e+00   3.0000000e+01   0.0000000e+00   0.0000000e+00
  -9.9851564e+01  -1.7325648e+00  -6.4063683e-01   1.0609658e+01  -1.7299741e+01   7.1734545e+00   5.6691935e+00   8.0698034e+00  -1.1868770e+01  -1.4401983e+01  -2.3427745e+00   1.0896999e+01  -1.4675454e+01  -1.2967625e+01  -2.9299124e-01  -5.7632047e+00  -4.3880885e+00  -1.0170387e+01   1.0886420e+01   9.6928322e+00   0.0000000e+00   3.0000000e+01   0.0000000e+00   0.0000000e+00
  -9.8681796e+01  -1.4625042e+00  -1.3836089e+00   1.1068589e+01  -1.7485211e+01   5.4634386e+00   3.8851580e+00   8.0297254e+00  -1.1459812e+01  -1.4957719e+01  -2.5275652e+00   1.0554351e+01  -1.5583752e+01  -1.4427470e+01  -1.8531806e+00  -7.0132674e+00  -5.1735822e+00  -1.2429814e+01   9.6006404e+00   8.6887774e+00   0.0000000e+00   3.0000000e+01   0.0000000e+00   0.0000000e+00
  -9.7752001e+01  -2.2922107e+00  -2.0265147e+00   1.1066705e+01  -1.7633862e+01   4.2240013e+00   2.0126477e+00   7.6133254e+00  -1.1078708e+01  -1.4995999e+01  -2.5304925e+00   1.0900290e+01  -1.5411846e+01  -1.5227704e+01  -3.1136210e+00  -7.6797613e+00  -5.4164745e+00  -1.4035784e+01   8.4201253e+00   7.2782508e+00   0.0000000e+00   3.0000000e+01   0.0000000e+00   0.0000000e+00
  -9.7506960e+01  -4.2445322e+00  -2.6902189e+00   1.0706710e+01  -1.8926469e+01   3.4740873e+00   3.1931288e-01   7.3164950e+00  -1.0700616e+01  -1.4347472e+01  -2.3026938e+00   1.2684402e+01  -1.5089605e+01  -1.5195007e+01  -3.6180510e+00  -7.7573392e+00  -5.3823210e+00  -1.5113183e+01   7.5479251e+00   5.4560471e+00   0.0000000e+00   3.0000000e+01   0.0000000e+00   0.0000000e+00
  -9.7955953e+01  -6.1984759e+00  -3.5028322e+00   9.8517760e+00  -2.0983113e+01   2.7334500e+00  -1.1502551e+00   6.5650511e+00  -1.0245951e+01  -1.3353115e+01  -2.0271963e+00   1.3651799e+01  -1.4827441e+01  -1.4562469e+01  -3.4093438e+00  -7.3791360e+00  -5.3101387e+00  -1.5841301e+01   7.0854197e+00   3.4038651e+00   0.0000000e+00   3.0000000e+01   0.0000000e+00   0.0000000e+00
  -9.8574409e+01  -7.4419765e+00  -3.9546138e+00   8.6819256e+00  -2.2919533e+01   1.7020426e+00  -2.4688804e+00   5.1166770e+00  -9.4546879e+00  -1.2298644e+01  -1.7836307e+00   1.2622299e+01  -1.4105049e+01  -1.3668902e+01  -2.8367335e+00  -6.4624512e+00  -5.2931406e+00  -1.6100513e+01   7.0185718e+00   1.7491297e+00   0.0000000e+00   3.0000000e+01   0.0000000e+00   0.0000000e+00
  -9.8853937e+01  -8.0542948e+00  -3.8472307e+00   7.7648550e+00  -2.4121949e+01   6.3515304e-01  -3.5643692e+00   3.8736296e+00  -8.3003215e+00  -1.1403347e+01  -1.6391702e+00   1.0576795e+01  -1.3148252e+01  -1.2676213e+01  -2.2402467e+00  -5.2270269e+00  -5.3061995e+00  -1.5828113e+01   7.2797826e+00   9.9388287e-01   0.0000000e+00   3.0000000e+01   0.0000000e+00   0.0000000e+00
  -9.8569254e+01  -8.1052166e+00  -3.5937389e+00   7.8856714e+00  -2.4326835e+01  -4.7144926e-02  -4.1434169e+00   3.3005702e+00  -7.5020134e+00  -1.0991562e+01  -1.7799862e+00   9.2785640e+00  -1.2420367e+01  -1.1429551e+01  -1.7634160e+00  -4.1954245e+00  -5.1229910e+00  -1.5118694e+01   7.8603788e+00   1.1037503e+00   0.0000000e+00   3.0000000e+01   0.0000000e+00   0.0000000e+00
  -9.7783625e+01  -7.6529143e+00  -3.3664283e+00   8.7904282e+00  -2.4690194e+01  -1.4634396e-01  -4.0800170e+00   2.9976128e+00  -7.1023161e+00  -1.1004528e+01  -2.2610315e+00   9.6053516e+00  -1.2139918e+01  -9.9303840e+00  -1.3489747e+00  -3.3642443e+00  -4.6018292e+00  -1.4106885e+01   8.8144011e+00   1.7958891e+00   0.0000000e+00   3.0000000e+01   0.0000000e+00   0.0000000e+00
  -9.6904885e+01  -7.3501080e+00  -2.9796336e+00   9.0297890e+00  -2.5708586e+01   2.2027772e-01  -3.8169548e+00   2.5545158e+00  -7.0614478e+00  -1.1488619e+01  -3.0016215e+00   1.0266927e+01  -1.2161654e+01  -8.5093075e+00  -9.9045744e-01  -2.6972397e+00  -3.8017247e+00  -1.2993460e+01   9.9472485e+00   2.7424766e+00   0.0000000e+00   3.0000000e+01   0.0000000e+00   0.0000000e+00
  -9.6090293e+01  -7.6563886e+00  -2.6922400e+00   7.6594323e+00  -2.6597781e+01   6.8544890e-01  -3.7646689e+00   1.4510518e+00  -7.8605989e+00  -1.2481031e+01  -3.8804433e+00   8.8013556e+00  -1.2483659e+01  -7.4585447e+00  -8.5821581e-01  -2.5064211e+00  -2.9499329e+00  -1.2225239e+01   1.0740819e+01   3.3998181e+00   0.0000000e+00   3.0000000e+01   0.0000000e+00   0.0000000e+00
  -9.5222265e+01  -7.7826011e+00  -2.6045848e+00   6.3726347e+00  -2.6525954e+01   8.9520595e-01  -3.7137827e+00   1.8695572e-01  -9.3544478e+00  -1.3311246e+01  -4.5413728e+00   5.8201631e+00  -1.2623720e+01  -6.8285678e+00  -9.8552884e-01  -2.7052866e+00  -2.0056475e+00  -1.1759142e+01   1.1144552e+01   3.8089000e+00   0.0000000e+00   3.0000000e+01   0.0000000e+00   0.0000000e+00
  -9.4119397e+01  -7.2712791e+00  -2.3664492e+00   7.0475746e+00  -2.5675044e+01   1.0705115e+00  -3.2496764e+00  -5.7014535e-02  -1.0757446e+01  -1.3586902e+01  -4.6999619e+00   4.4056045e+00  -1.2201932e+01  -6.5602241e+00  -1.2248724e+00  -2.7113392e+00  -7.9560360e-01  -1.1138732e+01   1.1508669e+01   4.5950397e+00   0.0000000e+00   3.0000000e+01   0.0000000e+00   0.0000000e+00
  -9.2680463e+01  -6.5170929e+00  -1.8936198e+00   7.9955026e+00  -2.4722721e+01   1.5889588e+00  -2.3062855e+00   8.8294243e-01  -1.1430683e+01  -1.3609730e+01  -4.4686417e+00   4.6265630e+00  -1.1995186e+01  -6.6828876e+00  -1.5711521e+00  -2.1856885e+00   5.2726815e-01  -1.0387923e+01   1.1849286e+01   5.8340069e+00   0.0000000e+00   3.0000000e+01   0.0000000e+00   0.0000000e+00
  -9.0993639e+01  -5.7211226e+00  -1.4371358e+00   7.9198486e+00  -2.3835235e+01   2.2175408e+00  -1.2349457e+00   2.3529399e+00  -1.1453983e+01  -1.3471049e+01  -4.2154630e+00   5.2231420e+00  -1.2426576e+01  -6.9065382e+00  -2.0067192e+00  -1.4799160e+00   1.8733460e+00  -9.7163564e+00   1.1901052e+01   7.0297158e+00   0.0000000e+00   3.0000000e+01   0.0000000e+00   0.0000000e+00
  -8.9273208e+01  -4.8895652e+00  -1.1202361e+00   8.2820496e+00  -2.2892201e+01   2.9804374e+00  -2.9743552e-01   3.6551837e+00  -1.0857647e+01  -1.2941461e+01  -4.2677302e+00   5.5455945e+00  -1.2934846e+01  -6.9300315e+00  -2.4332204e+00  -1.2487362e+00   3.4356587e+00  -9.0991844e+00   1.1610684e+01   7.6731909e+00   0.0000000e+00   3.0000000e+01   0.0000000e+00   0.0000000e+00
  -8.7776742e+01  -3.8521665e+00  -8.1399810e-01   9.2130686e+00  -2.1821592e+01   4.2698848e+00   5.9561751e-01   4.5918767e+00  -9.8101548e+00  -1.2009020e+01  -4.8396306e+00   5.8103672e+00  -1.2579785e+01  -6.6472978e+00  -2.7954043e+00  -1.6479010e+00   5.4292735e+00  -8.3341084e+00   1.1313140e+01   7.7120217e+00   0.0000000e+00   3.0000000e+01   0.0000000e+00   0.0000000e+00
  -8.5950901e+01  -2.3209693e+00  -5.0031382e-01   1.0729116e+01  -2.0831709e+01   5.8904881e+00   1.4013522e+00   4.6372912e+00  -8.6394059e+00  -1.0829414e+01  -5.7584071e+00   7.1898698e+00  -1.0699463e+01  -6.0268177e+00  -2.9990240e+00  -2.3299100e+00   7.8170517e+00  -7.1465407e+00   1.1393563e+01   7.1574728e+00   0.0000000e+00   3.0000000e+01   0.0000000e+00   0.0000000e+00
  -8.3504529e+01  -1.0147807e+00  -4.1240181e-01   1.2642500e+01  -1.8991284e+01   7.3028555e+00   1.7813811e+00   3.8662382e+00  -7.5692442e+00  -9.7553712e+00  -6.6549961e+00   9.0133504e+00  -8.1349008e+00  -5.1627890e+00  -2.9723130e+00  -3.1672793e+00   1.0106919e+01  -5.6995657e+00   1.1819704e+01   5.9516330e+00   0.0000000e+00   3.0000000e+01   0.0000000e+00   0.0000000e+00
  -8.1033726e+01  -9.4156176e-01  -8.7398134e-01   1.4683469e+01  -1.6328277e+01   8.3795430e+00   1.7045445e+00   3.3011351e+00  -6.7803940e+00  -9.0910774e+00  -7.4995544e+00   1.0852555e+01  -6.3159768e+00  -4.2934161e+00  -2.8848469e+00  -4.2424903e+00   1.1946705e+01  -4.5331652e+00   1.2385045e+01   4.1799815e+00   0.0000000e+00   3.0000000e+01   0.0000000e+00   0.0000000e+00
  -7.8984342e+01  -1.6711643e+00  -1.8184026e+00   1.7139779e+01  -1.4379414e+01   9.1369519e+00   1.4955642e+00   3.5356705e+00  -6.0218372e+00  -9.0546984e+00  -8.2807594e+00   1.3305901e+01  -5.5976454e+00  -3.7240922e+00  -2.9782339e+00  -5.2935473e+00   1.3148731e+01  -3.8952762e+00   1.2790249e+01   2.2238930e+00   0.0000000e+00   3.0000000e+01   0.0000000e+00   0.0000000e+00
  -7.7522262e+01  -2.0129620e+00  -2.6243985e+00   1.8479629e+01  -1.3805263e+01   9.4141796e+00   1.1232830e+00   4.0086733e+00  -5.3638448e+00  -9.8643425e+00  -8.9305136e+00   1.5169358e+01  -5.5247876e+00  -3.7507185e+00  -3.5202418e+00  -6.0321389e+00   1.3440030e+01  -3.9155452e+00   1.2498316e+01   4.8232241e-01   0.0000000e+00   3.0000000e+01   0.0000000e+00   0.0000000e+00
  -7.6669338e+01  -1.5733717e+00  -2.8379131e+00   1.7946436e+01  -1.4578823e+01   8.7687196e+00   8.1603327e-02   3.6969806e+00  -5.3792262e+00  -1.1397528e+01  -9.5428322e+00   1.4604363e+01  -5.8470562e+00  -4.8713508e+00  -4.7994795e+00  -6.4524699e+00   1.2476369e+01  -4.8020241e+00   1.0990947e+01  -1.0340400e+00   0.0000000e+00   3.0000000e+01   0.0000000e+00   0.0000000e+00
  -7.6001691e+01  -1.0763003e+00  -2.8070118e+00   1.6820266e+01  -1.5624400e+01   7.1469900e+00  -1.4917726e+00   2.8666277e+00  -6.2689540e+00  -1.3133450e+01  -1.0180801e+01   1.2239781e+01  -6.6559483e+00  -7.1057324e+00  -6.5457420e+00  -6.6225564e+00   1.0267846e+01  -6.5629032e+00   8.4829105e+00  -2.1246274e+00   0.0000000e+00   3.0000000e+01   0.0000000e+00   0.0000000e+00
  -7.5120906e+01  -1.2858544e+00  -2.7761148e+00   1.5563998e+01  -1.6475873e+01   5.3495116e+00  -2.9107151e+00   2.1373512e+00  -7.6138122e+00  -1.4682088e+01  -1.0957992e+01   1.0279464e+01  -8.0442226e+00  -9.9538665e+00  -8.3026449e+00  -6.9955774e+00   7.3558809e+00  -8.8277045e+00   5.8504262e+00  -2.5284578e+00   0.0000000e+00   3.0000000e+01   0.0000000e+00   0.0000000e+00
  -7.4380507e+01  -1.6601011e+00  -2.4921783e+00   1.3352412e+01  -1.7356735e+01   4.0359391e+00  -3.9198763e+00   1.6204534e+00  -9.1992540e+00  -1.6071499e+01  -1.1891316e+01   9.2861782e+00  -1.0057909e+01  -1.2911227e+01  -9.8734040e+00  -7.5343196e+00   4.2773000e+00  -1.1107020e+01   3.7955502e+00  -2.3563588e+00   0.0000000e+00   3.0000000e+01   0.0000000e+00   0.0000000e+00
  -7.4074266e+01  -1.4215267e+00  -2.0370995e+00   1.0252017e+01  -1.8142354e+01   2.9634713e+00  -4.6394336e+00   1.4600833e+00  -1.0835856e+01  -1.7228131e+01  -1.2840076e+01   8.4442547e+00  -1.2500555e+01  -1.5520785e+01  -1.1108863e+01  -7.8524505e+00   1.4109836e+00  -1.3102700e+01   2.5054172e+00  -1.7333412e+00   0.0000000e+00   3.0000000e+01   0.0000000e+00   0.0000000e+00
  -7.3755938e+01  -5.0548493e-01  -1.7747156e+00   8.1877780e+00  -1.8942753e+01   1.8990792e+00  -5.2502635e+00   1.5313383e+00  -1.2060016e+01  -1.7843736e+01  -1.3604451e+01   7.4538938e+00  -1.4577318e+01  -1.7308641e+01  -1.1767219e+01  -7.7514599e+00  -8.3633444e-01  -1.4605049e+01   1.9544275e+00  -7.9580546e-01   0.0000000e+00   3.0000000e+01   0.0000000e+00   0.0000000e+00
  -7.3058470e+01   8.9356500e-01  -1.8730660e+00   8.7838555e+00  -1.9578721e+01   6.7074773e-01  -6.1587163e+00   1.1599508e+00  -1.2958502e+01  -1.7985240e+01  -1.4091712e+01   6.9329615e+00  -1.5630523e+01  -1.8217963e+01  -1.1870651e+01  -7.3294289e+00  -2.3152991e+00  -1.5512345e+01   1.7806551e+00  -2.9621454e-02   0.0000000e+00   3.0000000e+01   0.0000000e+00   0.0000000e+00
  -7.2363425e+01   1.7561432e+00  -2.2042930e+00   1.0415735e+01  -1.9984683e+01  -8.7701100e-01  -7.8841166e+00   1.2633529e-01  -1.3587327e+01  -1.8113454e+01  -1.4369404e+01   6.9351365e+00  -1.5927582e+01  -1.8675907e+01  -1.1759773e+01  -6.9449093e+00  -3.3200178e+00  -1.6052141e+01   1.3548050e+00   1.2224293e-01   0.0000000e+00   3.0000000e+01   0.0000000e+00   0.0000000e+00
  -7.2050139e+01   1.2232374e+00  -2.8152541e+00   1.1041346e+01  -2.0616921e+01  -2.4915600e+00  -1.0438157e+01  -1.4611985e+00  -1.3740590e+01  -1.8410030e+01  -1.4477450e+01   7.1397704e+00  -1.6276187e+01  -1.9193004e+01  -1.1786710e+01  -6.9059097e+00  -4.3098640e+00  -1.6647569e+01   1.8586556e-01  -4.2360197e-01   0.0000000e+00   3.0000000e+01   0.0000000e+00   0.0000000e+00
  -7.2064947e+01  -2.6399240e-01  -3.7932502e+00   9.9853064e+00  -2.1514585e+01  -3.8552211e+00  -1.3191663e+01  -3.1122055e+00  -1.3898725e+01  -1.8812140e+01  -1.4258080e+01   7.9614728e+00  -1.7268351e+01  -1.9947442e+01  -1.2040542e+01  -7.0599003e+00  -5.5162864e+00  -1.7679078e+01  -1.7461447e+00  -1.4143982e+00   0.0000000e+00   3.0000000e+01   0.0000000e+00   0.0000000e+00
  -7.2405165e+01  -1.9774507e+00  -4.7158348e+00   7.7907320e+00  -2.2255334e+01  -4.9738019e+00  -1.5514047e+01  -3.8870568e+00  -1.4629921e+01  -1.9195435e+01  -1.3599686e+01   8.6255480e+00  -1.8600070e+01  -2.0790872e+01  -1.2327605e+01  -7.0285690e+00  -6.9667059e+00  -1.9167042e+01  -4.0050917e+00  -2.2414198e+00   0.0000000e+00   3.0000000e+01   0.0000000e+00   0.0000000e+00
  -7.2968212e+01  -3.5954881e+00  -5.3207060e+00   6.6891650e+00  -2.2980502e+01  -5.9768670e+00  -1.7129955e+01  -3.6893399e+00  -1.5534964e+01  -1.9431661e+01  -1.2654110e+01   8.5677481e+00  -1.9522299e+01  -2.1652657e+01  -1.2479363e+01  -6.8396703e+00  -8.5488664e+00  -2.0794628e+01  -6.1016506e+00  -2.4225202e+00   0.0000000e+00   3.0000000e+01   0.0000000e+00   0.0000000e+00
  -7.3580609e+01  -5.1349688e+00  -5.7570008e+00   6.8285184e+00  -2.4241523e+01  -7.0103899e+00  -1.8187646e+01  -3.1590590e+00  -1.6082191e+01  -1.9453327e+01  -1.1572080e+01   8.2158292e+00  -1.9783754e+01  -2.2498338e+01  -1.2394434e+01  -6.8037555e+00  -1.0126506e+01  -2.2382940e+01  -7.8318924e+00  -2.0602667e+00   0.0000000e+00   3.0000000e+01   0.0000000e+00   0.0000000e+00
  -7.4420999e+01  -6.6817564e+00  -6.1850706e+00   6.0355822e+00  -2.5886906e+01  -8.2255219e+00  -1.8924385e+01  -2.7554359e+00  -1.6015236e+01  -1.9040972e+01  -1.0434006e+01   7.7832934e+00  -2.0067043e+01  -2.3274809e+01  -1.1934952e+01  -6.8045002e+00  -1.1696005e+01  -2.3988137e+01  -9.1826409e+00  -1.5107209e+00   0.0000000e+00   3.0000000e+01   0.0000000e+00   0.0000000e+00
  -7.5617454e+01  -7.8583118e+00  -6.2837591e+00   4.1244461e+00  -2.7671185e+01  -9.5545542e+00  -1.9271853e+01  -2.1276928e+00  -1.5650711e+01  -1.8086008e+01  -9.0905084e+00   7.5810170e+00  -2.0889085e+01  -2.3635623e+01  -1.0858822e+01  -6.1855693e+00  -1.3063719e+01  -2.5410156e+01  -9.8930153e+00  -6.2596820e-01   0.0000000e+00   3.0000000e+01   0.0000000e+00   0.0000000e+00
  -7.6472032e+01  -7.9176654e+00  -5.5255308e+00   3.2861226e+00  -2.9233808e+01  -1.0523991e+01  -1.8863806e+01  -6.4224177e-01  -1.5184564e+01  -1.6637681e+01  -7.3281406e+00   7.7950827e+00  -2.1401274e+01  -2.3077484e+01  -8.9676036e+00  -4.5883095e+00  -1.3682013e+01  -2.6031269e+01  -9.3585946e+00   1.0445251e+00   0.0000000e+00   3.0000000e+01   0.0000000e+00   0.0000000e+00
  -7.6473614e+01  -7.0881394e+00  -4.2107337e+00   4.2308216e+00  -2.9918354e+01  -1.0697554e+01  -1.7547849e+01   1.3554080e+00  -1.4687008e+01  -1.5108214e+01  -5.4082096e+00   8.3272378e+00  -2.0579874e+01  -2.1407666e+01  -6.3805666e+00  -2.3554304e+00  -1.3275585e+01  -2.5663560e+01  -7.4500122e+00   3.2977640e+00   0.0000000e+00   3.0000000e+01   0.0000000e+00   0.0000000e+00
  -7.6044900e+01  -6.2188220e+00  -3.2933949e+00   5.9646767e+00  -2.9800923e+01  -1.0171828e+01  -1.5782718e+01   3.0463185e+00  -1.4561882e+01  -1.4025160e+01  -3.8232255e+00   8.9210386e+00  -1.8903366e+01  -1.9142651e+01  -3.6367426e+00  -1.8352772e-01  -1.2029328e+01  -2.4906594e+01  -4.9229601e+00   5.2690603e+00   0.0000000e+00   3.0000000e+01   0.0000000e+00   0.0000000e+00
  -7.5520475e+01  -5.5847604e+00  -3.0657389e+00   7.2184148e+00  -2.9262759e+01  -9.1092404e+00  -1.4046867e+01   4.5167260e+00  -1.4840929e+01  -1.3206427e+01  -2.7385497e+00   9.5834230e+00  -1.7058812e+01  -1.6801839e+01  -1.2075907e+00   1.5078902e+00  -1.0065999e+01  -2.4068629e+01  -2.4870939e+00   6.5859062e+00   0.0000000e+00   3.0000000e+01   0.0000000e+00   0.0000000e+00
  -7.4691385e+01  -5.2978042e+00  -3.1783270e+00   7.2567131e+00  -2.8473583e+01  -7.7727391e+00  -1.2687224e+01   6.0570371e+00  -1.5007100e+01  -1.2386906e+01  -2.0643064e+00   1.0639623e+01  -1.5155988e+01  -1.4658409e+01   6.7967046e-01   2.8126674e+00  -7.6300303e+00  -2.3067174e+01  -5.1566106e-01   7.4295595e+00   0.0000000e+00   3.0000000e+01   0.0000000e+00   0.0000000e+00
  -7.3581298e+01  -5.3499123e+00  -3.4111887e+00   7.3291083e+00  -2.7267776e+01  -6.6971906e+00  -1.2082417e+01   7.0354887e+00  -1.4680617e+01  -1.1423754e+01  -1.7172807e+00   1.2707926e+01  -1.3461416e+01  -1.2925115e+01   1.8093774e+00   3.8890306e+00  -5.2964840e+00  -2.2030492e+01   6.2952933e-01   7.8520807e+00   0.0000000e+00   3.0000000e+01   0.0000000e+00   0.0000000e+00
  -7.2552055e+01  -5.1386223e+00  -3.6056807e+00   8.9968365e+00  -2.5597207e+01  -6.0427965e+00  -1.2159565e+01   6.7894840e+00  -1.4121255e+01  -1.0227392e+01  -1.5476502e+00   1.5309126e+01  -1.2083978e+01  -1.1356428e+01   2.3177471e+00   4.7206704e+00  -3.3420116e+00  -2.1272303e+01   9.2613403e-01   7.5877142e+00   0.0000000e+00   3.0000000e+01   0.0000000e+00   0.0000000e+00
  -7.1543416e+01  -4.1521542e+00  -3.3729800e+00   1.1319299e+01  -2.3861279e+01  -5.3769725e+00  -1.2396950e+01   5.7451885e+00  -1.3758293e+01  -9.2084553e+00  -1.6224102e+00   1.6619488e+01  -1.0575153e+01  -9.8323344e+00   2.5017972e+00   5.2771001e+00  -1.5857491e+00  -2.0824730e+01   8.5060026e-01   6.7235998e+00   0.0000000e+00   3.0000000e+01   0.0000000e+00   0.0000000e+00
  -7.0424814e+01  -2.7337444e+00  -2.6032588e+00   1.2654292e+01  -2.2779014e+01  -4.5953888e+00  -1.2530553e+01   4.6076529e+00  -1.3810330e+01  -8.8823395e+00  -2.1505627e+00   1.6896905e+01  -8.7251932e+00  -8.5039915e+00   2.4802097e+00   5.4484850e+00   3.4529911e-02  -2.0529253e+01   8.1860550e-01   5.8634764e+00   0.0000000e+00   3.0000000e+01   0.0000000e+00   0.0000000e+00
  -6.9099891e+01  -1.6466215e+00  -1.7801551e+00   1.3599236e+01  -2.2527073e+01  -4.1002743e+00  -1.2558204e+01   4.1030371e+00  -1.3997779e+01  -9.1260713e+00  -2.8508839e+00   1.7547852e+01  -6.8951162e+00  -7.4449654e+00   2.4304602e+00   5.2255457e+00   1.4865487e+00  -2.0224267e+01   9.3593664e-01   5.6967822e+00   0.0000000e+00   3.0000000e+01   0.0000000e+00   0.0000000e+00
  -6.7390073e+01  -1.5997829e+00  -1.4331298e+00   1.4213736e+01  -2.2276346e+01  -3.6960024e+00  -1.2523836e+01   4.7232852e+00  -1.3978941e+01  -9.3343356e+00  -3.2451519e+00   1.8474452e+01  -5.4457450e+00  -6.5648471e+00   2.5683448e+00   4.7141622e+00   2.8887214e+00  -1.9917149e+01   1.2106595e+00   6.2546339e+00   0.0000000e+00   3.0000000e+01   0.0000000e+00   0.0000000e+00
  -6.5395542e+01  -2.0519434e+00  -1.7777972e+00   1.4271240e+01  -2.1616881e+01  -3.0059589e+00  -1.2481748e+01   6.1205069e+00  -1.3497793e+01  -9.2661426e+00  -3.1691976e+00   1.9654238e+01  -4.4558990e+00  -5.9297825e+00   2.9550386e+00   4.2544087e+00   4.1366200e+00  -1.9607753e+01   1.7097491e+00   7.0557399e+00   0.0000000e+00   3.0000000e+01   0.0000000e+00   0.0000000e+00
  -6.3409431e+01  -2.0081950e+00  -2.6234063e+00   1.4838628e+01  -2.1134174e+01  -2.4717472e+00  -1.2548803e+01   7.0234915e+00  -1.2875242e+01  -9.0717943e+00  -2.8796002e+00   2.0875976e+01  -4.2056634e+00  -5.8150385e+00   3.2959804e+00   4.0460988e+00   4.7726455e+00  -1.9304233e+01   2.3661276e+00   7.6327997e+00   0.0000000e+00   3.0000000e+01   0.0000000e+00   0.0000000e+00
  -6.1893132e+01  -1.4034445e+00  -3.4269452e+00   1.5145427e+01  -2.0862012e+01  -2.7326862e+00  -1.2936251e+01   6.4280409e+00  -1.3028206e+01  -9.2008497e+00  -2.7190486e+00   2.0264602e+01  -4.9474796e+00  -6.4076791e+00   3.1484154e+00   3.8993396e+00   4.3922523e+00  -1.9268589e+01   2.7252993e+00   7.5253679e+00   0.0000000e+00   3.0000000e+01   0.0000000e+00   0.0000000e+00
  -6.0899775e+01  -9.9555542e-01  -3.9597035e+00   1.4637943e+01  -2.0524863e+01  -3.8707631e+00  -1.3849618e+01   5.0114410e+00  -1.4265404e+01  -1.0272255e+01  -2.8863521e+00   1.7686781e+01  -6.4311899e+00  -7.7312680e+00   2.3120841e+00   3.7064919e+00   3.0248995e+00  -1.9866568e+01   2.2218093e+00   6.6304093e+00   0.0000000e+00   3.0000000e+01   0.0000000e+00   0.0000000e+00
  -6.0052398e+01  -1.3072992e+00  -4.4090507e+00   1.4022345e+01  -2.0452693e+01  -5.5439521e+00  -1.5183291e+01   3.7603346e+00  -1.6082432e+01  -1.2165049e+01  -3.2781354e+00   1.5458008e+01  -8.2295882e+00  -9.6581356e+00   8.5493479e-01   3.5835816e+00   1.1359361e+00  -2.1141573e+01   7.3527586e-01   5.3106893e+00   0.0000000e+00   3.0000000e+01   0.0000000e+00   0.0000000e+00
  -5.9181734e+01  -1.7906697e+00  -4.8098544e+00   1.3119194e+01  -2.1267371e+01  -7.1162852e+00  -1.6301319e+01   3.2756378e+00  -1.8004006e+01  -1.4166422e+01  -3.7313573e+00   1.4914092e+01  -9.8527224e+00  -1.1919502e+01  -1.0025448e+00   3.5302865e+00  -6.0551625e-01  -2.2738567e+01  -1.2439288e+00   4.2923506e+00   0.0000000e+00   3.0000000e+01   0.0000000e+00   0.0000000e+00
  -5.8213229e+01  -1.9317806e+00  -4.9493660e+00   1.2502418e+01  -2.3110077e+01  -8.2085667e+00  -1.6940757e+01   4.1401525e+00  -2.0105587e+01  -1.6295760e+01  -4.4957546e+00   1.4889583e+01  -1.1286778e+01  -1.4353280e+01  -3.1581969e+00   3.0229207e+00  -2.0216281e+00  -2.4492317e+01  -3.2906742e+00   3.8275025e+00   0.0000000e+00   3.0000000e+01   0.0000000e+00   0.0000000e+00
  -5.7121244e+01  -1.5702641e+00  -4.7806799e+00   1.1921338e+01  -2.4842953e+01  -8.8909510e+00  -1.7163756e+01   6.2606823e+00  -2.1797471e+01  -1.8625859e+01  -5.6652828e+00   1.4097394e+01  -1.2922002e+01  -1.6913684e+01  -5.4411759e+00   1.6863720e+00  -3.3212952e+00  -2.6424822e+01  -5.0738605e+00   3.6414301e+00   0.0000000e+00   3.0000000e+01   5.0000000e+01   0.0000000e+00
  -5.6067170e+01  -8.9728865e-01  -4.3947351e+00   1.1025164e+01  -2.5927106e+01  -9.5859243e+00  -1.7308717e+01   8.2764367e+00  -2.2625419e+01  -2.0808451e+01  -6.9377095e+00   1.3152585e+01  -1.4602661e+01  -1.9513477e+01  -7.6393992e+00  -3.7755443e-02  -4.5372236e+00  -2.8437836e+01  -6.4315727e+00   3.4083037e+00   0.0000000e+00   3.0000000e+01   5.0000000e+01   0.0000000e+00
  -5.5136245e+01  -5.0134335e-01  -3.9651180e+00   1.0104944e+01  -2.6338871e+01  -1.0524644e+01  -1.7737703e+01   9.3128793e+00  -2.3248485e+01  -2.2751718e+01  -8.1961997e+00   1.2795500e+01  -1.5978574e+01  -2.2034783e+01  -9.7645566e+00  -1.4073998e+00  -5.8489348e+00  -3.0468827e+01  -7.5692282e+00   2.9834594e+00   0.0000000e+00   3.0000000e+01   5.0000000e+01   0.0000000e+00
  -5.4301287e+01  -2.6056120e-01  -3.6973067e+00   8.5381090e+00  -2.5909107e+01  -1.1421958e+01  -1.8218429e+01   1.0703749e+01  -2.3791831e+01  -2.4389142e+01  -9.4863298e+00   1.2082893e+01  -1.7165479e+01  -2.4223051e+01  -1.1719493e+01  -2.3726196e+00  -7.2222502e+00  -3.2383299e+01  -8.5285265e+00   2.6167407e+00   0.0000000e+00   3.0000000e+01   5.0000000e+01   0.0000000e+00
  -5.3223801e+01   1.2482693e-01  -3.5464713e+00   7.2562595e+00  -2.4874011e+01  -1.2007927e+01  -1.8282636e+01   1.3565201e+01  -2.3827988e+01  -2.5494121e+01  -1.0665141e+01   1.0956579e+01  -1.8272242e+01  -2.5759859e+01  -1.3173262e+01  -3.0975184e+00  -8.3162720e+00  -3.3884901e+01  -9.1511586e+00   2.3073280e+00   0.0000000e+00   3.0000000e+01   5.0000000e+01   0.0000000e+00
  -5.1685461e+01   5.8069396e-01  -3.3821907e+00   6.5180974e+00  -2.3787999e+01  -1.2301234e+01  -1.8427249e+01   1.4629385e+01  -2.3830449e+01  -2.6302268e+01  -1.1807641e+01   1.0609194e+01  -1.9406186e+01  -2.6955941e+01  -1.4373272e+01  -4.2845236e+00  -9.2429269e+00  -3.5149086e+01  -9.9574773e+00   6.0123972e-01   0.0000000e+00   3.0000000e+01   5.0000000e+01   0.0000000e+00
  -5.0114196e+01   1.1124730e+00  -2.9480181e+00   5.3960438e+00  -2.3037523e+01  -1.2367823e+01  -1.9193720e+01   1.1589005e+01  -2.4431783e+01  -2.7234781e+01  -1.2879195e+01   1.0111906e+01  -2.0716928e+01  -2.8341772e+01  -1.5877399e+01  -6.3195493e+00  -1.0304248e+01  -3.6508335e+01  -1.1602543e+01  -3.3115323e+00   0.0000000e+00   3.0000000e+01   5.0000000e+01   0.0000000e+00
  -4.8964584e+01   1.6519716e+00  -2.3331110e+00   4.9933401e+00  -2.3029519e+01  -1.2394725e+01  -2.0366438e+01   6.5765375e+00  -2.5281932e+01  -2.8341636e+01  -1.3833689e+01   8.8429174e+00  -2.2265984e+01  -3.0066029e+01  -1.7932559e+01  -8.7810674e+00  -1.1667823e+01  -3.8047289e+01  -1.4174283e+01  -8.3305075e+00   0.0000000e+00   3.0000000e+01   5.0000000e+01   0.0000000e+00
  -4.8092487e+01   2.1066192e+00  -2.0894332e+00   5.7454139e+00  -2.3109140e+01  -1.2275337e+01  -2.1317944e+01   1.8071463e+00  -2.5944196e+01  -2.9550265e+01  -1.4861347e+01   7.5640830e+00  -2.3856696e+01  -3.1770102e+01  -2.0323149e+01  -1.1461791e+01  -1.3132423e+01  -3.9777320e+01  -1.7141429e+01  -1.3045129e+01   0.0000000e+00   3.0000000e+01   5.0000000e+01   0.0000000e+00
  -4.7163603e+01   2.7659696e+00  -2.1843006e+00   6.0123701e+00  -2.2171233e+01  -1.1728624e+01  -2.1626758e+01  -1.5815060e+00  -2.6268259e+01  -3.0837148e+01  -1.5951960e+01   6.7830914e+00  -2.5003086e+01  -3.2935772e+01  -2.2480066e+01  -1.3923711e+01  -1.4146862e+01  -4.1389924e+01  -1.9599602e+01  -1.6257536e+01   0.0000000e+00   3.0000000e+01   5.0000000e+01   0.0000000e+00
  -4.5747036e+01   4.0306611e+00  -2.2242197e+00   5.2454401e+00  -2.0651406e+01  -1.0835756e+01  -2.1448021e+01  -3.3742812e+00  -2.5900181e+01  -3.1959407e+01  -1.6957352e+01   6.8026017e+00  -2.5133052e+01  -3.3428635e+01  -2.4014042e+01  -1.5582529e+01  -1.4235929e+01  -4.2453310e+01  -2.0897070e+01  -1.7396452e+01   0.0000000e+00   3.0000000e+01   5.0000000e+01   0.0000000e+00
  -4.3576551e+01   5.5156203e+00  -2.0524086e+00   4.4625996e+00  -1.9065883e+01  -9.7581981e+00  -2.0987919e+01  -4.0684878e+00  -2.4749452e+01  -3.2525352e+01  -1.7612689e+01   7.5618295e+00  -2.4300032e+01  -3.3344097e+01  -2.4670847e+01  -1.6122517e+01  -1.3405280e+01  -4.2673819e+01  -2.0764591e+01  -1.6708715e+01   0.0000000e+00   3.0000000e+01   5.0000000e+01   0.0000000e+00
  -4.1281629e+01   6.3661564e+00  -2.0171866e+00   4.7786660e+00  -1.7890354e+01  -8.7693248e+00  -2.0480860e+01  -4.3537640e+00  -2.3138695e+01  -3.2575838e+01  -1.7812551e+01   8.6361047e+00  -2.3539635e+01  -3.2866373e+01  -2.4441581e+01  -1.5899370e+01  -1.2200067e+01  -4.2351405e+01  -1.9509392e+01  -1.5170380e+01   0.0000000e+00   3.0000000e+01   5.0000000e+01   0.0000000e+00
  -3.9546828e+01   6.6774393e+00  -2.5018164e+00   6.7227192e+00  -1.7344525e+01  -8.3116476e+00  -2.0310246e+01  -4.3404486e+00  -2.1731229e+01  -3.2319834e+01  -1.7620461e+01   9.5084486e+00  -2.3085641e+01  -3.2130174e+01  -2.3613561e+01  -1.5371394e+01  -1.0952327e+01  -4.1913615e+01  -1.7705757e+01  -1.3560019e+01   0.0000000e+00   3.0000000e+01   5.0000000e+01   0.0000000e+00
  -3.8448439e+01   6.9866968e+00  -3.2727448e+00   8.8790572e+00  -1.6987605e+01  -8.7305881e+00  -2.0702307e+01  -3.7315257e+00  -2.0881818e+01  -3.1612732e+01  -1.7114932e+01   1.0277960e+01  -2.2293164e+01  -3.1226161e+01  -2.2593111e+01  -1.4719169e+01  -9.7138657e+00  -4.1443120e+01  -1.5843241e+01  -1.2095486e+01   0.0000000e+00   3.0000000e+01   5.0000000e+01   0.0000000e+00
  -3.7865326e+01   7.0083800e+00  -3.8721274e+00   8.9434913e+00  -1.6792738e+01  -9.6972977e+00  -2.1428838e+01  -2.3949745e+00  -2.0309391e+01  -3.0404867e+01  -1.6320759e+01   1.0908036e+01  -2.1029474e+01  -3.0180140e+01  -2.1591437e+01  -1.3895687e+01  -8.5914064e+00  -4.0927774e+01  -1.4267250e+01  -1.0903512e+01   0.0000000e+00   3.0000000e+01   5.0000000e+01   0.0000000e+00
  -3.7428332e+01   6.1747590e+00  -4.3412015e+00   7.0736120e+00  -1.6772956e+01  -1.0651171e+01  -2.2211069e+01  -1.4871998e+00  -1.9938999e+01  -2.9257396e+01  -1.5523143e+01   1.0509020e+01  -1.9911696e+01  -2.8948498e+01  -2.0742485e+01  -1.2995647e+01  -7.7452075e+00  -4.0644137e+01  -1.3300786e+01  -1.0668328e+01   0.0000000e+00   3.0000000e+01   5.0000000e+01   0.0000000e+00
  -3.6692768e+01   4.8812456e+00  -4.8618591e+00   6.2232019e+00  -1.6951262e+01  -1.1124628e+01  -2.2706104e+01  -1.9134804e+00  -1.9545963e+01  -2.8561441e+01  -1.5026984e+01   9.8512267e+00  -1.8778800e+01  -2.7612065e+01  -2.0081584e+01  -1.2159958e+01  -7.0404671e+00  -4.0358119e+01  -1.2822037e+01  -1.1781239e+01   0.0000000e+00   3.0000000e+01   5.0000000e+01   0.0000000e+00
  -3.5526719e+01   3.6233384e+00  -5.2866988e+00   7.8817585e+00  -1.7019006e+01  -1.0591122e+01  -2.2439513e+01  -2.7887989e+00  -1.8409503e+01  -2.8023655e+01  -1.4597324e+01   1.0489836e+01  -1.7039174e+01  -2.6229705e+01  -1.9361317e+01  -1.1166088e+01  -5.9955755e+00  -3.9379446e+01  -1.2217244e+01  -1.3601281e+01   0.0000000e+00   3.0000000e+01   5.0000000e+01   0.0000000e+00
  -3.3978727e+01   3.1689356e+00  -5.4108897e+00   1.0608642e+01  -1.6162015e+01  -9.2943717e+00  -2.1292415e+01  -2.6932811e+00  -1.6594395e+01  -2.7198740e+01  -1.4101630e+01   1.1763799e+01  -1.5183678e+01  -2.4849753e+01  -1.8521136e+01  -1.0120275e+01  -4.4136754e+00  -3.7641783e+01  -1.1230052e+01  -1.5195831e+01   0.0000000e+00   3.0000000e+01   5.0000000e+01   0.0000000e+00
  -3.2307347e+01   3.7518253e+00  -5.3213574e+00   1.2242801e+01  -1.4714515e+01  -7.7361433e+00  -1.9742867e+01  -1.4306847e+00  -1.5305183e+01  -2.6170011e+01  -1.3832999e+01   1.2420710e+01  -1.3863539e+01  -2.3548395e+01  -1.7674934e+01  -9.8007014e+00  -2.5711412e+00  -3.5748938e+01  -1.0192719e+01  -1.6184727e+01   0.0000000e+00   3.0000000e+01   5.0000000e+01   0.0000000e+00
  -3.0983887e+01   4.7158021e+00  -4.9794978e+00   1.1813569e+01  -1.3694882e+01  -6.1773559e+00  -1.8378902e+01  -4.2653665e-01  -1.5171775e+01  -2.5077302e+01  -1.3838235e+01   1.2299113e+01  -1.2974343e+01  -2.2379762e+01  -1.6747507e+01  -1.0171574e+01  -7.8013934e-01  -3.4072038e+01  -9.2797554e+00  -1.6662661e+01   0.0000000e+00   3.0000000e+01   5.0000000e+01   0.0000000e+00
  -3.0483327e+01   5.8438719e+00  -4.1584183e+00   1.0534431e+01  -1.3106427e+01  -4.8837117e+00  -1.7421792e+01  -2.0506976e-01  -1.5486744e+01  -2.4091760e+01  -1.3944958e+01   1.2197041e+01  -1.2216568e+01  -2.1318577e+01  -1.5636859e+01  -1.0484473e+01   8.1469673e-01  -3.2352289e+01  -8.1558334e+00  -1.6425434e+01   0.0000000e+00   3.0000000e+01   5.0000000e+01   0.0000000e+00
  -3.0411046e+01   6.9516725e+00  -3.1608823e+00   1.0388627e+01  -1.2597255e+01  -3.9676072e+00  -1.6907545e+01   6.6860424e-02  -1.5527051e+01  -2.3412166e+01  -1.3845262e+01   1.2435208e+01  -1.1457667e+01  -2.0175584e+01  -1.4222723e+01  -1.0368147e+01   2.1344477e+00  -3.0247702e+01  -6.4943451e+00  -1.5396943e+01   0.0000000e+00   3.0000000e+01   5.0000000e+01   0.0000000e+00
  -2.9799634e+01   7.3678011e+00  -2.5015961e+00   1.2090719e+01  -1.2152619e+01  -3.0612667e+00  -1.6744873e+01   7.3640774e-01  -1.5166998e+01  -2.2932725e+01  -1.3089269e+01   1.2389012e+01  -1.0876394e+01  -1.8706337e+01  -1.2326388e+01  -9.7034957e+00   3.2990160e+00  -2.7874826e+01  -4.4797155e+00  -1.4144093e+01   0.0000000e+00   3.0000000e+01   5.0000000e+01   0.0000000e+00
  -2.8418222e+01   7.1723275e+00  -2.2648052e+00   1.4138943e+01  -1.2125900e+01  -1.7948073e+00  -1.6569108e+01   1.6295659e+00  -1.4505970e+01  -2.2383791e+01  -1.1482105e+01   1.1784403e+01  -1.0283438e+01  -1.7002038e+01  -1.0059032e+01  -8.4190091e+00   4.6435190e+00  -2.5393828e+01  -2.5234378e+00  -1.3093052e+01   0.0000000e+00   3.0000000e+01   5.0000000e+01   0.0000000e+00
  -2.7013543e+01   6.9532434e+00  -2.4275848e+00   1.4694125e+01  -1.2162091e+01  -6.7585279e-01  -1.6419110e+01   2.4900632e+00  -1.4201384e+01  -2.1612182e+01  -9.5338759e+00   1.1631699e+01  -9.4996259e+00  -1.5466679e+01  -8.0226057e+00  -6.9033656e+00   6.0480978e+00  -2.3035189e+01  -1.1545130e+00  -1.2524659e+01   0.0000000e+00   3.0000000e+01   5.0000000e+01   0.0000000e+00
  -2.6434443e+01   6.7208322e+00  -3.0372608e+00   1.3702338e+01  -1.1744627e+01  -3.0679286e-01  -1.6655671e+01   2.8949588e+00  -1.4410174e+01  -2.0601938e+01  -7.7759387e+00   1.2674563e+01  -9.0745471e+00  -1.4358762e+01  -6.6676925e+00  -5.7343793e+00   7.0634930e+00  -2.1240023e+01  -7.2311966e-01  -1.2680567e+01   0.0000000e+00   3.0000000e+01   5.0000000e+01   0.0000000e+00
  -2.6682791e+01   6.4499921e+00  -4.0702229e+00   1.2764950e+01  -1.1123673e+01  -8.8160223e-01  -1.7443050e+01   2.2880832e+00  -1.4496705e+01  -1.9454137e+01  -6.4483806e+00   1.4255444e+01  -9.4954170e+00  -1.3805848e+01  -6.0819693e+00  -5.1763472e+00   7.6181570e+00  -2.0272747e+01  -1.1614783e+00  -1.3628601e+01   0.0000000e+00   3.0000000e+01   5.0000000e+01   0.0000000e+00
  -2.7218919e+01   5.8322636e+00  -5.1714628e+00   1.1849476e+01  -1.1520901e+01  -2.0144291e+00  -1.8712480e+01   1.2215640e+00  -1.4326815e+01  -1.8668003e+01  -5.9118582e+00   1.4990222e+01  -1.0433467e+01  -1.3847928e+01  -6.3298033e+00  -5.3464931e+00   7.8467881e+00  -2.0205340e+01  -2.3370954e+00  -1.4991984e+01   0.0000000e+00   3.0000000e+01   5.0000000e+01   0.0000000e+00
  -2.7573920e+01   4.2952602e+00  -6.1191907e+00   1.0862435e+01  -1.3315427e+01  -2.6573774e+00  -1.9852428e+01   4.6051862e-01  -1.3937322e+01  -1.8557508e+01  -6.1969028e+00   1.4350467e+01  -1.1057631e+01  -1.4087148e+01  -7.0359624e+00  -5.9571305e+00   8.1466981e+00  -2.0718841e+01  -3.7916340e+00  -1.5928504e+01   0.0000000e+00   3.0000000e+01   5.0000000e+01   0.0000000e+00
  -2.7133296e+01   2.9341179e+00  -6.8688554e+00   1.1387306e+01  -1.4662940e+01  -2.7144388e+00  -2.0298636e+01  -2.6951487e-01  -1.3094015e+01  -1.8742341e+01  -7.0455029e+00   1.3856089e+01  -1.0577270e+01  -1.3988983e+01  -7.6629167e+00  -6.6343450e+00   9.0572111e+00  -2.1058428e+01  -4.8642755e+00  -1.5797716e+01   0.0000000e+00   3.0000000e+01   5.0000000e+01   0.0000000e+00
  -2.5689626e+01   2.7873606e+00  -7.3891291e+00   1.3069139e+01  -1.3987421e+01  -2.6773733e+00  -2.0042871e+01  -1.1124878e+00  -1.1783953e+01  -1.8852838e+01  -8.3710134e+00   1.4848521e+01  -9.0621853e+00  -1.3355331e+01  -8.0993381e+00  -7.4835145e+00   1.0679140e+01  -2.0946348e+01  -5.2937283e+00  -1.4725775e+01   0.0000000e+00   3.0000000e+01   5.0000000e+01   0.0000000e+00
  -2.3709137e+01   3.7399814e+00  -7.3119036e+00   1.5670735e+01  -1.1483624e+01  -2.1893419e+00  -1.8999042e+01  -1.2733277e+00  -1.0168794e+01  -1.8708571e+01  -9.8149344e+00   1.7538891e+01  -7.1273965e+00  -1.2177827e+01  -8.2418079e+00  -8.3192242e+00   1.2932660e+01  -2.0191416e+01  -4.7581418e+00  -1.2883413e+01   0.0000000e+00   3.0000000e+01   5.0000000e+01   0.0000000e+00
  -2.1715894e+01   5.4981277e+00  -6.2813010e+00   1.8720557e+01  -8.3547522e+00  -6.6876280e-01  -1.7127094e+01  -3.9017264e-01  -8.4893188e+00  -1.8187879e+01  -1.0922157e+01   2.1019763e+01  -5.1613185e+00  -1.0512080e+01  -7.9534544e+00  -8.8618837e+00   1.5809124e+01  -1.8603379e+01  -3.1731951e+00  -1.0488221e+01   0.0000000e+00   3.0000000e+01   5.0000000e+01   0.0000000e+00
  -1.9811719e+01   7.4846224e+00  -4.5458562e+00   2.0781812e+01  -6.4945768e+00   1.8042980e+00  -1.4948868e+01   7.3021561e-01  -7.2700384e+00  -1.7337594e+01  -1.1578064e+01   2.3066102e+01  -3.2544991e+00  -8.5344571e+00  -7.2852066e+00  -9.5739149e+00   1.8931667e+01  -1.6456028e+01  -1.0944699e+00  -8.1610084e+00   0.0000000e+00   3.0000000e+01   5.0000000e+01   0.0000000e+00
  -1.7857628e+01   9.3410145e+00  -2.7203350e+00   2.1558869e+01  -5.6873756e+00   4.5093446e+00  -1.3188858e+01   9.9144995e-01  -6.4668202e+00  -1.6046827e+01  -1.1789886e+01   2.2741179e+01  -1.1976632e+00  -6.3583822e+00  -6.2226447e+00  -1.0684888e+01   2.1804898e+01  -1.4029351e+01   9.7298709e-01  -6.3385616e+00   0.0000000e+00   3.0000000e+01   5.0000000e+01   0.0000000e+00
  -1.5851920e+01   1.0802733e+01  -1.5128261e+00   2.1505368e+01  -4.5748100e+00   6.5373756e+00  -1.2188060e+01   3.0675534e-01  -5.3948515e+00  -1.4373292e+01  -1.1640428e+01   2.1678127e+01   8.8787641e-01  -4.3783826e+00  -4.9368329e+00  -1.1483949e+01   2.3990061e+01  -1.1489209e+01   2.7254256e+00  -5.0364249e+00   0.0000000e+00   3.0000000e+01   5.0000000e+01   0.0000000e+00
  -1.4000642e+01   1.1459342e+01  -1.1784947e+00   2.1326160e+01  -3.5488968e+00   7.3429678e+00  -1.1929259e+01  -1.6441185e-01  -4.2805551e+00  -1.3166624e+01  -1.1408841e+01   2.1561099e+01   2.1493878e+00  -3.3352072e+00  -3.9571961e+00  -1.1416974e+01   2.4984240e+01  -9.2855289e+00   3.8116657e+00  -4.0901648e+00   0.0000000e+00   3.0000000e+01   5.0000000e+01   0.0000000e+00
  -1.3036696e+01   1.1610712e+01  -1.3522425e+00   2.0646950e+01  -2.8937259e+00   6.9422691e+00  -1.2181209e+01   5.8260680e-01  -4.1722149e+00  -1.3115663e+01  -1.1424924e+01   2.1984960e+01   2.1830470e+00  -3.4632784e+00  -3.7330683e+00  -1.0746560e+01   2.4731387e+01  -7.8627301e+00   4.0278067e+00  -3.3596812e+00   0.0000000e+00   0.0000000e+00   5.0000000e+01   0.0000000e+00
  -1.3452952e+01   1.1642939e+01  -1.8740329e+00   1.9608369e+01  -2.9755768e+00   5.7868127e+00  -1.2601212e+01   2.0998926e+00  -5.3590995e+00  -1.4009970e+01  -1.1664685e+01   2.1825470e+01   1.2970198e+00  -4.1709114e+00  -4.2564658e+00  -9.9445646e+00   2.3621832e+01  -7.4894891e+00   3.4214227e+00  -2.9303819e+00   0.0000000e+00   0.0000000e+00   5.0000000e+01   0.0000000e+00
  -1.4479653e+01   1.1798983e+01  -2.6233838e+00   1.8892344e+01  -4.1921088e+00   4.6806066e+00  -1.2799995e+01   3.2799673e+00  -7.0917073e+00  -1.5384187e+01  -1.1819345e+01   2.0399906e+01   2.2376932e-02  -4.9432967e+00  -5.1028539e+00  -9.3412045e+00   2.2219872e+01  -7.9786838e+00   2.4732360e+00  -2.7645366e+00   0.0000000e+00   0.0000000e+00   5.0000000e+01   0.0000000e+00
  -1.5020725e+01   1.2151086e+01  -3.3296068e+00   1.8669860e+01  -6.0751493e+00   4.1898434e+00  -1.2460413e+01   4.0476064e+00  -8.5078729e+00  -1.6978424e+01  -1.1690754e+01   1.8787036e+01  -1.3203874e+00  -5.5709106e+00  -5.6925672e+00  -8.9104329e+00   2.0951924e+01  -8.6876698e+00   1.8247375e+00  -2.4119000e+00   0.0000000e+00   0.0000000e+00   5.0000000e+01   0.0000000e+00
  -1.4715107e+01   1.2229014e+01  -3.7687517e+00   1.7945337e+01  -7.0113376e+00   4.1861680e+00  -1.1716649e+01   4.9191910e+00  -9.3135549e+00  -1.8555338e+01  -1.1377416e+01   1.7874717e+01  -2.5505408e+00  -5.8505909e+00  -5.7358196e+00  -8.4947132e+00   1.9922512e+01  -9.1659466e+00   1.7978804e+00  -1.6121505e+00   0.0000000e+00   0.0000000e+00   5.0000000e+01   0.0000000e+00
  -1.3714398e+01   1.1458247e+01  -3.8506826e+00   1.5923886e+01  -6.5131791e+00   4.4643847e+00  -1.1087995e+01   5.7540720e+00  -9.7650459e+00  -1.9770312e+01  -1.1232953e+01   1.6638317e+01  -3.3723233e+00  -5.7317030e+00  -5.4607978e+00  -8.2286533e+00   1.9185707e+01  -9.4477012e+00   2.2108255e+00  -7.8301835e-01   0.0000000e+00   0.0000000e+00   5.0000000e+01   0.0000000e+00
  -1.2687479e+01   1.0500339e+01  -3.7910172e+00   1.4436489e+01  -6.0042380e+00   5.0753090e+00  -1.0673894e+01   5.9477477e+00  -1.0025811e+01  -2.0392403e+01  -1.1268143e+01   1.5078405e+01  -3.3484642e+00  -5.2471688e+00  -5.0041906e+00  -7.9791956e+00   1.9019395e+01  -9.4125637e+00   2.8290750e+00  -2.1664758e-01   0.0000000e+00   0.0000000e+00   5.0000000e+01   0.0000000e+00
  -1.2325716e+01   1.0664538e+01  -3.7723445e+00   1.4721430e+01  -5.9871728e+00   5.7729384e+00  -1.0253099e+01   5.4017302e+00  -1.0031253e+01  -2.0323914e+01  -1.1312629e+01   1.4218472e+01  -2.7108528e+00  -4.4179475e+00  -4.3470072e+00  -7.8105495e+00   1.9402872e+01  -8.8800859e+00   3.4568704e+00   6.2031964e-02   0.0000000e+00   0.0000000e+00   5.0000000e+01   0.0000000e+00
  -1.2687917e+01   1.1643794e+01  -3.8570579e+00   1.4811215e+01  -6.0780753e+00   6.2366640e+00  -9.9069352e+00   4.3498980e+00  -9.7365109e+00  -1.9570779e+01  -1.1374703e+01   1.4238926e+01  -2.3035951e+00  -3.3983109e+00  -3.6083682e+00  -8.1938313e+00   1.9833683e+01  -8.0359116e+00   3.8473096e+00  -1.0400612e-01   0.0000000e+00   0.0000000e+00   5.0000000e+01   0.0000000e+00
  -1.3505005e+01   1.2392688e+01  -4.1720714e+00   1.3383180e+01  -5.5926942e+00   6.4769883e+00  -9.7723851e+00   3.4610705e+00  -9.3099819e+00  -1.8607274e+01  -1.1464327e+01   1.4555886e+01  -2.3845445e+00  -2.3423296e+00  -2.8714108e+00  -9.2026354e+00   1.9959648e+01  -7.1475589e+00   3.9470177e+00  -6.8067782e-01   0.0000000e+00   0.0000000e+00   5.0000000e+01   0.0000000e+00
  -1.4131063e+01   1.2204863e+01  -4.7851869e+00   1.2328953e+01  -4.7763093e+00   6.5609901e+00  -9.7670449e+00   3.3110540e+00  -9.1113675e+00  -1.7816283e+01  -1.1511645e+01   1.4419476e+01  -2.2282705e+00  -1.3589656e+00  -2.0809492e+00  -1.0387661e+01   1.9757763e+01  -6.2405100e+00   3.8942579e+00  -1.3257428e+00   0.0000000e+00   0.0000000e+00   5.0000000e+01   0.0000000e+00
  -1.4090116e+01   1.1016520e+01  -5.6356555e+00   1.1943989e+01  -4.9386867e+00   6.5307890e+00  -9.7016999e+00   3.9206787e+00  -9.4052266e+00  -1.7127418e+01  -1.1467146e+01   1.4042896e+01  -1.2612551e+00  -6.2002977e-01  -1.2346170e+00  -1.1114121e+01   1.9316536e+01  -5.3432232e+00   3.7357931e+00  -1.7617405e+00   0.0000000e+00   0.0000000e+00   5.0000000e+01   0.0000000e+00
  -1.3811953e+01   9.8496698e+00  -6.4111317e+00   1.0954629e+01  -6.0004431e+00   6.0746848e+00  -9.7130238e+00   5.1284608e+00  -1.0246555e+01  -1.6543394e+01  -1.1293736e+01   1.3207836e+01  -1.3633573e-01  -3.3596353e-01  -4.8073706e-01  -1.1006633e+01   1.8472841e+01  -4.6159381e+00   3.3293186e+00  -1.8882808e+00   0.0000000e+00   0.0000000e+00   5.0000000e+01   0.0000000e+00
  -1.3962806e+01   9.0334274e+00  -7.0640653e+00   9.7602070e+00  -6.7116737e+00   4.9038682e+00  -1.0092817e+01   6.2842308e+00  -1.1850651e+01  -1.5997547e+01  -1.1011337e+01   1.0731530e+01   2.0548600e-01  -2.6371347e-01   1.2086512e-01  -1.0372541e+01   1.7166186e+01  -4.4023241e+00   2.5221645e+00  -2.0322389e+00   0.0000000e+00   0.0000000e+00   5.0000000e+01   0.0000000e+00
  -1.4512420e+01   8.3988415e+00  -7.7483241e+00   9.2038395e+00  -6.8833733e+00   3.4530860e+00  -1.0668722e+01   6.3764701e+00  -1.3597718e+01  -1.5354989e+01  -1.0667857e+01   8.5636258e+00  -6.4972124e-02  -2.7330456e-01   4.9584525e-01  -9.5987296e+00   1.5756184e+01  -4.5964258e+00   1.4257575e+00  -2.6899854e+00   0.0000000e+00   0.0000000e+00   5.0000000e+01   0.0000000e+00
  -1.5061038e+01   8.2457479e+00  -8.3750545e+00   9.8692675e+00  -7.2005405e+00   2.3059672e+00  -1.0943718e+01   5.8482863e+00  -1.4544897e+01  -1.4908176e+01  -1.0281517e+01   9.3409569e+00  -8.7182817e-01  -5.4172086e-01   5.5306986e-01  -8.8440964e+00   1.4534938e+01  -4.7537147e+00   3.1970399e-01  -3.6949373e+00   0.0000000e+00   0.0000000e+00   5.0000000e+01   0.0000000e+00
  -1.5293112e+01   8.5037403e+00  -8.6149965e+00   1.1158041e+01  -7.8734133e+00   1.3592203e+00  -1.0732880e+01   5.8444534e+00  -1.4614795e+01  -1.4885639e+01  -9.7927913e+00   1.2256289e+01  -2.2274284e+00  -1.0594203e+00   3.4436422e-01  -8.3153024e+00   1.3658751e+01  -4.7531051e+00  -5.7371587e-01  -4.4605731e+00   0.0000000e+00   0.0000000e+00   5.0000000e+01   0.0000000e+00
  -1.4979092e+01   8.1099751e+00  -8.5444035e+00   1.2110966e+01  -8.1059427e+00   4.4415151e-01  -1.0350161e+01   6.1845697e+00  -1.3893999e+01  -1.5145750e+01  -9.3112287e+00   1.5086296e+01  -3.5277080e+00  -1.7533676e+00  -6.7866914e-02  -8.0570396e+00   1.3032986e+01  -4.8062912e+00  -1.3291474e+00  -5.0078144e+00   0.0000000e+00   0.0000000e+00   5.0000000e+01   0.0000000e+00
  -1.4113642e+01   6.9415911e+00  -8.4284900e+00   1.1573409e+01  -7.3437969e+00  -1.6075555e-01  -9.9484931e+00   6.9011412e+00  -1.2589737e+01  -1.5430240e+01  -8.8727361e+00   1.6122779e+01  -3.9143509e+00  -2.3164485e+00  -3.0737948e-01  -7.5390993e+00   1.2579419e+01  -4.8629335e+00  -1.7296584e+00  -5.2441426e+00   0.0000000e+00   0.0000000e+00   5.0000000e+01   0.0000000e+00
  -1.2866244e+01   6.2502561e+00  -8.3249858e+00   1.0419588e+01  -6.3406832e+00  -3.6253254e-01  -9.5883332e+00   8.2170529e+00  -1.1235368e+01  -1.5678176e+01  -8.3120793e+00   1.5636116e+01  -3.1338198e+00  -2.4583858e+00  -6.7004417e-03  -6.1622347e+00   1.2461531e+01  -4.5586698e+00  -1.3290294e+00  -4.7706838e+00   0.0000000e+00   0.0000000e+00   5.0000000e+01   0.0000000e+00
  -1.1660662e+01   6.3731086e+00  -8.4891858e+00   1.0735437e+01  -6.0843350e+00  -4.5064868e-01  -9.6414125e+00   8.9065736e+00  -1.0384529e+01  -1.5727222e+01  -7.6994998e+00   1.5731014e+01  -1.9016548e+00  -2.1867221e+00   6.4911990e-01  -4.2665778e+00   1.2652075e+01  -3.9439265e+00  -4.1456743e-01  -4.0149725e+00   0.0000000e+00   0.0000000e+00   5.0000000e+01   0.0000000e+00
  -1.0824973e+01   6.4935571e+00  -9.0627463e+00   1.1791318e+01  -6.5905440e+00  -6.8262718e-01  -1.0109870e+01   8.1870927e+00  -9.9622096e+00  -1.5385892e+01  -7.2720134e+00   1.6650237e+01  -7.4417608e-01  -1.4971984e+00   1.4084442e+00  -2.8043164e+00   1.3021580e+01  -3.5325331e+00   4.0009730e-01  -3.7071786e+00   0.0000000e+00   0.0000000e+00   5.0000000e+01   0.0000000e+00
  -1.0313838e+01   6.5220524e+00  -9.4446520e+00   1.1868862e+01  -7.0472056e+00  -7.8792509e-01  -1.0523962e+01   6.6774092e+00  -9.2444852e+00  -1.4716281e+01  -7.1034633e+00   1.6475327e+01   8.6496298e-01  -6.2955283e-01   2.1153351e+00  -2.3820959e+00   1.3552335e+01  -3.4481577e+00   9.0415840e-01  -3.8683862e+00   0.0000000e+00   0.0000000e+00   5.0000000e+01   0.0000000e+00
  -1.0252609e+01   6.6309475e+00  -9.3383341e+00   1.1165903e+01  -7.3004479e+00  -6.2977262e-01  -1.0717411e+01   5.4733348e+00  -7.9177338e+00  -1.4233120e+01  -7.2137077e+00   1.5659224e+01   3.0727739e+00   1.3403840e-01   2.5019365e+00  -2.8514516e+00   1.4121502e+01  -3.4923438e+00   9.5687661e-01  -4.2226224e+00   0.0000000e+00   0.0000000e+00   5.0000000e+01   0.0000000e+00
  -1.0653024e+01   6.2475857e+00  -9.3247379e+00   1.0957969e+01  -7.3368810e+00  -3.9902247e-01  -1.0809442e+01   5.2335445e+00  -6.3144830e+00  -1.4146210e+01  -7.5893380e+00   1.6351488e+01   4.9206311e+00   5.4056981e-01   2.2747118e+00  -4.1006380e+00   1.4334110e+01  -3.6775649e+00   3.3221173e-01  -4.8089208e+00   0.0000000e+00   0.0000000e+00   5.0000000e+01   0.0000000e+00
  -1.1115573e+01   5.0690689e+00  -9.9693937e+00   1.1419735e+01  -7.2244980e+00  -2.1615961e-01  -1.0973191e+01   5.8326445e+00  -5.2236921e+00  -1.4150615e+01  -8.1319666e+00   1.8290270e+01   5.2504946e+00   2.5087097e-01   1.3530180e+00  -6.0490547e+00   1.3794247e+01  -4.4187864e+00  -1.1752536e+00  -5.9412663e+00   0.0000000e+00   0.0000000e+00   5.0000000e+01   0.0000000e+00
  -1.1580690e+01   3.5405646e+00  -1.1188387e+01   1.0959240e+01  -7.2799017e+00  -6.2368695e-01  -1.1504240e+01   5.9897373e+00  -5.2514555e+00  -1.4244235e+01  -8.7149341e+00   2.0034995e+01   4.0745051e+00  -1.0049192e+00  -1.3587365e-01  -7.9975214e+00   1.2258596e+01  -6.0174732e+00  -3.5918330e+00  -7.9053785e+00   0.0000000e+00   0.0000000e+00   5.0000000e+01   0.0000000e+00
  -1.2436505e+01   2.0495221e+00  -1.2532799e+01   9.3996855e+00  -8.2968700e+00  -1.8067413e+00  -1.2367593e+01   5.0249546e+00  -6.2991623e+00  -1.4526162e+01  -9.1285163e+00   2.0621315e+01   2.1910474e+00  -3.0415153e+00  -1.8967846e+00  -9.3377240e+00   9.6748145e+00  -8.2987490e+00  -6.5365952e+00  -1.0298861e+01   0.0000000e+00   0.0000000e+00   5.0000000e+01   0.0000000e+00
  -1.3515042e+01   9.3501507e-01  -1.3546434e+01   8.3996349e+00  -1.0538333e+01  -3.3457959e+00  -1.3106110e+01   3.9621678e+00  -7.6632763e+00  -1.5054159e+01  -9.1466645e+00   1.8902982e+01   1.3212333e-01  -5.3619355e+00  -3.6348143e+00  -9.9862865e+00   6.4499457e+00  -1.0740816e+01  -9.3537174e+00  -1.2004072e+01   0.0000000e+00   0.0000000e+00   5.0000000e+01   0.0000000e+00
  -1.4207859e+01   1.9870048e-01  -1.4153724e+01   7.8763225e+00  -1.2786651e+01  -5.0873443e+00  -1.3560587e+01   3.3111369e+00  -8.8668825e+00  -1.5738589e+01  -8.8070719e+00   1.5704455e+01  -2.0058175e+00  -7.4078043e+00  -5.1906480e+00  -1.0169503e+01   3.1157406e+00  -1.3008492e+01  -1.1653507e+01  -1.2537203e+01   0.0000000e+00   0.0000000e+00   5.0000000e+01   0.0000000e+00
  -1.4393786e+01  -6.0003010e-01  -1.4550792e+01   6.7444474e+00  -1.4207574e+01  -6.8199122e+00  -1.3987215e+01   2.5326307e+00  -1.0022540e+01  -1.6305732e+01  -8.5474870e+00   1.3178428e+01  -3.9643404e+00  -8.9797008e+00  -6.5803394e+00  -1.0176222e+01   1.2027752e-01  -1.4959107e+01  -1.3354637e+01  -1.2447822e+01   0.0000000e+00   0.0000000e+00   5.0000000e+01   0.0000000e+00
  -1.4284141e+01  -1.4137035e+00  -1.4885859e+01   4.5487624e+00  -1.4483166e+01  -8.1983372e+00  -1.4513768e+01   1.8736215e+00  -1.1343900e+01  -1.6754842e+01  -8.7917054e+00   1.1712439e+01  -5.4000326e+00  -1.0096818e+01  -7.8647598e+00  -1.0388094e+01  -2.0538703e+00  -1.6513677e+01  -1.4412848e+01  -1.2310534e+01   0.0000000e+00   0.0000000e+00   5.0000000e+01   0.0000000e+00
  -1.3894459e+01  -1.5145827e+00  -1.5144313e+01   1.2515194e+00  -1.4772773e+01  -9.0321757e+00  -1.4770032e+01   2.6542484e+00  -1.2516264e+01  -1.7042158e+01  -9.3920264e+00   1.0786346e+01  -6.3162348e+00  -1.0644552e+01  -8.8058222e+00  -1.0779023e+01  -3.2224865e+00  -1.7502296e+01  -1.4567381e+01  -1.2013652e+01   0.0000000e+00   0.0000000e+00   5.0000000e+01   0.0000000e+00
  -1.3111581e+01  -1.3853144e+00  -1.5569142e+01  -1.0416984e+00  -1.5673815e+01  -9.4657115e+00  -1.4626100e+01   4.2683812e+00  -1.3057283e+01  -1.7048392e+01  -9.9805101e+00   1.0438013e+01  -7.2365649e+00  -1.0606058e+01  -9.2129732e+00  -1.1181210e+01  -3.7031575e+00  -1.8007522e+01  -1.4081054e+01  -1.1712435e+01   0.0000000e+00   0.0000000e+00   5.0000000e+01   0.0000000e+00
  -1.1822899e+01  -1.3546089e+00  -1.6202735e+01  -2.4440356e-01  -1.6016813e+01  -9.5903926e+00  -1.4228927e+01   5.3452149e+00  -1.2834652e+01  -1.6745793e+01  -1.0000155e+01   1.0272465e+01  -7.8274406e+00  -9.9775840e+00  -8.9349378e+00  -1.1305139e+01  -3.6565218e+00  -1.7964097e+01  -1.3236341e+01  -1.1451081e+01   0.0000000e+00   0.0000000e+00   5.0000000e+01   0.0000000e+00
  -1.0265190e+01  -9.4314922e-01  -1.6738701e+01   2.2775426e+00  -1.5058912e+01  -9.2813820e+00  -1.3810642e+01   5.4643863e+00  -1.2170687e+01  -1.6320487e+01  -9.4242788e+00   1.0019691e+01  -7.3483262e+00  -8.9354208e+00  -8.2025847e+00  -1.1111112e+01  -3.0768699e+00  -1.7377608e+01  -1.2313824e+01  -1.1257209e+01   0.0000000e+00   0.0000000e+00   5.0000000e+01   0.0000000e+00
  -8.7960827e+00  -5.8928909e-01  -1.7014054e+01   4.4554804e+00  -1.3159485e+01  -8.6079361e+00  -1.3656055e+01   4.2870212e+00  -1.1220336e+01  -1.5999989e+01  -8.9042357e+00   1.0269207e+01  -6.2288945e+00  -8.1396009e+00  -7.6809649e+00  -1.1012388e+01  -2.2642617e+00  -1.6690594e+01  -1.1956410e+01  -1.1520477e+01   0.0000000e+00   0.0000000e+00   5.0000000e+01   0.0000000e+00
  -7.6900904e+00  -7.4370940e-01  -1.6940316e+01   4.9174792e+00  -1.1619356e+01  -7.9229859e+00  -1.3610501e+01   2.8520759e+00  -1.0275696e+01  -1.5921364e+01  -8.7675114e+00   1.1439451e+01  -5.6611085e+00  -7.9032984e+00  -7.6081145e+00  -1.0881866e+01  -1.7442775e+00  -1.6360462e+01  -1.2425605e+01  -1.2011872e+01   0.0000000e+00   0.0000000e+00   5.0000000e+01   0.0000000e+00
  -6.8708342e+00  -7.7756515e-01  -1.6536336e+01   4.0761125e+00  -1.1274732e+01  -7.5123001e+00  -1.3377895e+01   2.4425070e+00  -9.8839302e+00  -1.5887660e+01  -8.8505890e+00   1.2753766e+01  -5.9183317e+00  -7.9662806e+00  -7.7056946e+00  -1.0324714e+01  -1.6455702e+00  -1.6377510e+01  -1.3242653e+01  -1.2059926e+01   0.0000000e+00   0.0000000e+00   5.0000000e+01   0.0000000e+00
  -5.9899342e+00  -6.7147878e-01  -1.6093896e+01   3.1450868e+00  -1.1807953e+01  -7.3614263e+00  -1.3091068e+01   2.6592636e+00  -1.0484323e+01  -1.5777896e+01  -8.9427703e+00   1.2594972e+01  -6.4168420e+00  -8.1070648e+00  -7.7448773e+00  -9.5388101e+00  -1.9595668e+00  -1.6544791e+01  -1.4017451e+01  -1.1600480e+01   0.0000000e+00   0.0000000e+00   5.0000000e+01   0.0000000e+00
  -5.3478394e+00  -6.3434282e-01  -1.5757979e+01   1.7641375e+00  -1.2277832e+01  -7.4133691e+00  -1.3009904e+01   2.5363715e+00  -1.1877591e+01  -1.5668250e+01  -8.7598589e+00   1.1021480e+01  -6.8257279e+00  -8.3085511e+00  -7.7025638e+00  -8.7688796e+00  -2.7980015e+00  -1.6773620e+01  -1.4780625e+01  -1.1201318e+01   0.0000000e+00   0.0000000e+00   5.0000000e+01   0.0000000e+00
  -5.5844381e+00  -8.1499608e-01  -1.5630673e+01  -3.1462838e-01  -1.2623934e+01  -7.9665252e+00  -1.3222971e+01   1.9669095e+00  -1.3062108e+01  -1.5457306e+01  -8.1307810e+00   9.4841191e+00  -7.2320552e+00  -8.4611999e+00  -7.5989240e+00  -7.9407482e+00  -4.0850267e+00  -1.7150951e+01  -1.5553224e+01  -1.1260268e+01   0.0000000e+00   0.0000000e+00   5.0000000e+01   0.0000000e+00
  -6.7284244e+00  -1.6455069e+00  -1.5882076e+01  -2.0119028e+00  -1.3137658e+01  -9.1564984e+00  -1.3529282e+01   1.5327373e+00  -1.3345446e+01  -1.5141184e+01  -7.1457020e+00   9.2277020e+00  -7.4394983e+00  -8.3086847e+00  -7.3342729e+00  -6.8074039e+00  -5.4420794e+00  -1.7624575e+01  -1.6094492e+01  -1.1462601e+01   0.0000000e+00   0.0000000e+00   5.0000000e+01   0.0000000e+00
  -8.0133078e+00  -2.7802452e+00  -1.6450790e+01  -2.5649881e+00  -1.3749181e+01  -1.0554730e+01  -1.3650325e+01   1.4027549e+00  -1.2950987e+01  -1.5028919e+01  -6.1083308e+00   9.8467395e+00  -7.4427672e+00  -7.9349063e+00  -6.9159672e+00  -5.5681085e+00  -6.6582151e+00  -1.8050891e+01  -1.6228225e+01  -1.1486024e+01   0.0000000e+00   0.0000000e+00   5.0000000e+01   0.0000000e+00
  -8.9390681e+00  -3.6908480e+00  -1.7231890e+01  -2.8897420e+00  -1.4949575e+01  -1.1793046e+01  -1.3651556e+01   1.4134867e+00  -1.2516485e+01  -1.5670082e+01  -5.4771860e+00   9.5647677e+00  -7.8917018e+00  -7.8077470e+00  -6.5817087e+00  -4.7277192e+00  -8.0147786e+00  -1.8622386e+01  -1.6168348e+01  -1.1565533e+01   0.0000000e+00   0.0000000e+00   5.0000000e+01   0.0000000e+00
  -9.8198593e+00  -4.7068786e+00  -1.8319532e+01  -4.9557892e+00  -1.6541694e+01  -1.2957291e+01  -1.3816295e+01   1.2705432e+00  -1.2546183e+01  -1.7020593e+01  -5.5425057e+00   7.9930650e+00  -9.4752331e+00  -8.1898478e+00  -6.5414576e+00  -4.6526419e+00  -9.8230024e+00  -1.9830254e+01  -1.6310463e+01  -1.2160464e+01   0.0000000e+00   0.0000000e+00   5.0000000e+01   0.0000000e+00
  -1.0644376e+01  -5.8049198e+00  -1.9439358e+01  -8.8715982e+00  -1.7731777e+01  -1.3984779e+01  -1.4141753e+01   8.0546537e-01  -1.2989871e+01  -1.8277459e+01  -5.9874350e+00   5.7083948e+00  -1.1425426e+01  -8.8480823e+00  -6.6339036e+00  -5.0797568e+00  -1.1810414e+01  -2.1539136e+01  -1.6489448e+01  -1.3073071e+01   0.0000000e+00   0.0000000e+00   5.0000000e+01   0.0000000e+00
  -1.1187999e+01  -6.3414361e+00  -2.0036828e+01  -1.2280712e+01  -1.8500563e+01  -1.4645984e+01  -1.4362643e+01   6.7022478e-01  -1.3310741e+01  -1.8924182e+01  -6.2964147e+00   3.0654227e+00  -1.2546646e+01  -9.4079423e+00  -6.5486477e+00  -5.3276084e+00  -1.3587213e+01  -2.3076664e+01  -1.6328271e+01  -1.3647564e+01   0.0000000e+00   0.0000000e+00   5.0000000e+01   0.0000000e+00
  -1.1572489e+01  -6.5380663e+00  -1.9953327e+01  -1.5207612e+01  -1.9445100e+01  -1.4853186e+01  -1.4260210e+01   1.7091075e+00  -1.3697062e+01  -1.9197904e+01  -6.2922650e+00  -4.4022591e-01  -1.3017812e+01  -9.6961305e+00  -6.1316113e+00  -5.0799020e+00  -1.5355257e+01  -2.4233884e+01  -1.5765288e+01  -1.3508100e+01   0.0000000e+00   0.0000000e+00   5.0000000e+01   0.0000000e+00
  -1.1910211e+01  -7.0516014e+00  -1.9677140e+01  -1.9169554e+01  -2.0888963e+01  -1.4715560e+01  -1.3796686e+01   3.6515611e+00  -1.4809237e+01  -1.9570039e+01  -6.2210638e+00  -5.1623556e+00  -1.3883836e+01  -9.7568697e+00  -5.5368522e+00  -4.5852621e+00  -1.7446304e+01  -2.5450362e+01  -1.5079436e+01  -1.2870159e+01   0.0000000e+00   0.0000000e+00   5.0000000e+01   0.0000000e+00
  -1.1827296e+01  -7.5532636e+00  -1.9641164e+01  -2.3763019e+01  -2.2690361e+01  -1.4553300e+01  -1.3309488e+01   4.6451799e+00  -1.6150827e+01  -2.0129351e+01  -6.6112167e+00  -1.0150643e+01  -1.5474981e+01  -1.0105078e+01  -5.4274498e+00  -4.7214269e+00  -1.9728603e+01  -2.6953327e+01  -1.4728530e+01  -1.2666002e+01   0.0000000e+00   0.0000000e+00   5.0000000e+01   0.0000000e+00
  -1.1169863e+01  -7.5173312e+00  -1.9752754e+01  -2.7597996e+01  -2.4162254e+01  -1.4359467e+01  -1.3021609e+01   4.0775713e+00  -1.7155420e+01  -2.0684049e+01  -7.6221779e+00  -1.4603067e+01  -1.7217396e+01  -1.0655447e+01  -5.9348665e+00  -5.9131710e+00  -2.1700183e+01  -2.8312760e+01  -1.4683127e+01  -1.3301814e+01   0.0000000e+00   0.0000000e+00   5.0000000e+01   0.0000000e+00
  -1.0376122e+01  -6.9494662e+00  -1.9717395e+01  -3.0770422e+01  -2.4518050e+01  -1.3922876e+01  -1.2827293e+01   3.5250370e+00  -1.7674867e+01  -2.1218336e+01  -8.8228422e+00  -1.8312096e+01  -1.8561078e+01  -1.0986224e+01  -6.5129077e+00  -7.5749913e+00  -2.2967629e+01  -2.9068288e+01  -1.4507020e+01  -1.4024842e+01   0.0000000e+00   0.0000000e+00   5.0000000e+01   0.0000000e+00
  -9.9247887e+00  -6.4719154e+00  -1.9401659e+01  -3.3547760e+01  -2.4659145e+01  -1.3439511e+01  -1.2702278e+01   3.5116315e+00  -1.7783594e+01  -2.1827694e+01  -9.8350602e+00  -2.1104690e+01  -1.9276800e+01  -1.0937108e+01  -6.7254802e+00  -9.0997377e+00  -2.3465924e+01  -2.9274877e+01  -1.3980483e+01  -1.4053929e+01   0.0000000e+00   0.0000000e+00   5.0000000e+01   0.0000000e+00
  -9.5165806e+00  -6.3494418e+00  -1.8851699e+01  -3.5201225e+01  -2.5572202e+01  -1.3125846e+01  -1.2640849e+01   3.1301276e+00  -1.7858325e+01  -2.2356925e+01  -1.0444345e+01  -2.3329332e+01  -1.9292003e+01  -1.0478384e+01  -6.4055543e+00  -9.9689889e+00  -2.3309558e+01  -2.8956070e+01  -1.2967843e+01  -1.3165960e+01   0.0000000e+00   0.0000000e+00   5.0000000e+01   0.0000000e+00
  -8.7990088e+00  -6.6076627e+00  -1.8241242e+01  -3.5718497e+01  -2.6262132e+01  -1.2849885e+01  -1.2709970e+01   2.3048675e+00  -1.8190115e+01  -2.2595838e+01  -1.0659352e+01  -2.4532426e+01  -1.9016172e+01  -9.6866396e+00  -5.7289299e+00  -9.9824863e+00  -2.2848207e+01  -2.8084281e+01  -1.1600879e+01  -1.1629219e+01   0.0000000e+00   0.0000000e+00   5.0000000e+01   0.0000000e+00
  -8.1208675e+00  -6.8115868e+00  -1.7570761e+01  -3.5774974e+01  -2.5933087e+01  -1.2551157e+01  -1.3010555e+01   1.3283998e+00  -1.8442124e+01  -2.2471841e+01  -1.0700022e+01  -2.3729611e+01  -1.9013746e+01  -8.7583224e+00  -5.0853849e+00  -9.5025855e+00  -2.2474404e+01  -2.6822983e+01  -1.0238107e+01  -9.9602329e+00   0.0000000e+00   0.0000000e+00   5.0000000e+01   0.0000000e+00
  -7.6868571e+00  -6.5315992e+00  -1.6953794e+01  -3.5686625e+01  -2.5107342e+01  -1.1938256e+01  -1.3235088e+01   4.5730046e-01  -1.7963035e+01  -2.1940444e+01  -1.0750749e+01  -2.1987526e+01  -1.9267254e+01  -7.5808006e+00  -4.6063039e+00  -8.8462103e+00  -2.2114438e+01  -2.5443413e+01  -9.0695014e+00  -8.5839463e+00   0.0000000e+00   0.0000000e+00   5.0000000e+01   0.0000000e+00
  -7.2424016e+00  -5.4696952e+00  -1.6322714e+01  -3.5351609e+01  -2.4329171e+01  -1.0246407e+01  -1.2717886e+01   3.9866794e-01  -1.6766156e+01  -2.0758820e+01  -1.0675195e+01  -2.1350335e+01  -1.8507458e+01  -5.6853034e+00  -3.9685001e+00  -8.0014426e+00  -2.0980484e+01  -2.3721011e+01  -7.6646463e+00  -7.3157473e+00   0.0000000e+00   0.0000000e+00   5.0000000e+01   0.0000000e+00
  -6.3625893e+00  -3.7726260e+00  -1.5563987e+01  -3.3909856e+01  -2.3335997e+01  -7.5579263e+00  -1.1492894e+01   1.0183233e+00  -1.5521368e+01  -1.9268878e+01  -1.0615536e+01  -2.1004963e+01  -1.6251130e+01  -3.1313111e+00  -3.2394979e+00  -7.0904662e+00  -1.8752786e+01  -2.1300741e+01  -5.8600388e+00  -6.2190668e+00   0.0000000e+00   0.0000000e+00   5.0000000e+01   0.0000000e+00
  -4.9348426e+00  -2.4355482e+00  -1.4945439e+01  -3.1480042e+01  -2.1454455e+01  -4.7548385e+00  -1.0300267e+01   1.1895358e+00  -1.4666628e+01  -1.8220408e+01  -1.0912978e+01  -1.8961237e+01  -1.3422156e+01  -4.8764374e-01  -2.8156881e+00  -6.5134183e+00  -1.6042101e+01  -1.8406285e+01  -4.1804613e+00  -5.8448799e+00   0.0000000e+00   0.0000000e+00   5.0000000e+01   0.0000000e+00
  -3.2570854e+00  -2.0963229e+00  -1.4873125e+01  -2.9545254e+01  -1.8700248e+01  -2.0594586e+00  -9.3963267e+00   7.4104958e-01  -1.4193445e+01  -1.7914196e+01  -1.1560200e+01  -1.6011724e+01  -1.0836824e+01   1.6538274e+00  -2.7320520e+00  -6.5053367e+00  -1.3556820e+01  -1.5646609e+01  -3.0281269e+00  -6.1698255e+00   0.0000000e+00   0.0000000e+00   5.0000000e+01   0.0000000e+00
  -1.5502693e+00  -1.8505329e+00  -1.5105680e+01  -2.8555693e+01  -1.6505710e+01   5.0630277e-01  -8.6760936e+00   3.4727031e-01  -1.3687332e+01  -1.8322191e+01  -1.2249641e+01  -1.4450121e+01  -8.6305232e+00   2.9556994e+00  -2.8054794e+00  -6.8547893e+00  -1.1557812e+01  -1.3336573e+01  -2.2567192e+00  -6.5360302e+00   0.0000000e+00   0.0000000e+00   5.0000000e+01   0.0000000e+00
   4.5884442e-02  -1.0486122e+00  -1.5137038e+01  -2.8061603e+01  -1.5838370e+01   2.2624036e+00  -8.3618348e+00  -1.6466105e-01  -1.2790579e+01  -1.8913054e+01  -1.2722549e+01  -1.4022929e+01  -6.8715172e+00   3.3716847e+00  -2.9424483e+00  -7.2847612e+00  -1.0014869e+01  -1.1453305e+01  -1.6329650e+00  -6.5771705e+00   0.0000000e+00   0.0000000e+00   5.0000000e+01   0.0000000e+00
   1.2189344e+00  -3.6174439e-02  -1.4843181e+01  -2.6784694e+01  -1.5940533e+01   2.9250530e+00  -8.6369323e+00  -7.6415383e-01  -1.1853221e+01  -1.9317206e+01  -1.2829751e+01  -1.2378234e+01  -5.8089570e+00   3.2132026e+00  -3.0169551e+00  -7.5646849e+00  -8.8271759e+00  -9.8595977e+00  -9.9035248e-01  -6.1889587e+00   0.0000000e+00   0.0000000e+00   5.0000000e+01   0.0000000e+00
   1.5469329e+00   3.9842739e-01  -1.4390287e+01  -2.4448324e+01  -1.5825605e+01   2.8923208e+00  -9.1679460e+00  -4.2120202e-01  -1.1262024e+01  -1.9689631e+01  -1.2529350e+01  -9.7183466e+00  -5.5003100e+00   2.9996977e+00  -2.8194526e+00  -7.5740563e+00  -7.6794068e+00  -8.6311541e+00  -1.8599083e-01  -5.1846542e+00   0.0000000e+00   0.0000000e+00   5.0000000e+01   0.0000000e+00
   1.1669113e+00  -4.9240986e-02  -1.3901763e+01  -2.2324565e+01  -1.5228802e+01   2.9148861e+00  -9.1871567e+00   1.3869774e+00  -1.1057058e+01  -1.9787811e+01  -1.1749837e+01  -7.9273774e+00  -5.2550997e+00   3.2218708e+00  -2.0595919e+00  -7.1269664e+00  -6.1759800e+00  -7.6741271e+00   1.0855431e+00  -3.3429868e+00   0.0000000e+00   0.0000000e+00   5.0000000e+01   0.0000000e+00
   8.7779710e-01  -3.5638009e-01  -1.3458662e+01  -2.1572296e+01  -1.4529026e+01   3.2398965e+00  -8.5331855e+00   3.7879296e+00  -1.1398026e+01  -1.9438475e+01  -1.0582976e+01  -8.1584766e+00  -4.8125755e+00   3.9394924e+00  -7.9149708e-01  -6.2715761e+00  -4.4860287e+00  -6.8524360e+00   2.7388555e+00  -1.0654368e+00   0.0000000e+00   0.0000000e+00   5.0000000e+01   0.0000000e+00
   9.5881114e-01  -2.0868853e-01  -1.3190019e+01  -2.1768130e+01  -1.4177946e+01   3.3888531e+00  -7.8455603e+00   5.7288131e+00  -1.1864358e+01  -1.8998390e+01  -9.3315638e+00  -9.1517603e+00  -4.8625501e+00   4.5906208e+00   3.3990846e-01  -5.5914324e+00  -3.1637936e+00  -6.2076973e+00   4.1089033e+00   7.6889216e-01   0.0000000e+00   0.0000000e+00   5.0000000e+01   0.0000000e+00
   6.4441586e-01  -5.8964591e-01  -1.3264865e+01  -2.1975176e+01  -1.4381191e+01   2.8912021e+00  -7.9827460e+00   6.4458195e+00  -1.2287900e+01  -1.8842594e+01  -8.2459895e+00  -9.1343350e+00  -6.3173278e+00   4.6579951e+00   7.2717392e-01  -5.3428775e+00  -2.6675991e+00  -6.1232416e+00   4.3732178e+00   1.2441594e+00   0.0000000e+00   0.0000000e+00   5.0000000e+01   0.0000000e+00
  -2.3861627e-01  -1.3469359e+00  -1.3788084e+01  -2.1937706e+01  -1.4823652e+01   1.9048874e+00  -9.0581901e+00   5.7044888e+00  -1.2944433e+01  -1.9156214e+01  -7.2903431e+00  -9.4601359e+00  -8.6203750e+00   4.0503730e+00   3.8372934e-01  -5.1825689e+00  -2.9167363e+00  -6.7225236e+00   3.4713347e+00   2.5794143e-01   0.0000000e+00   0.0000000e+00   5.0000000e+01   0.0000000e+00
  -6.1659456e-01  -2.0287006e+00  -1.4637917e+01  -2.1974657e+01  -1.4774798e+01   1.0404014e+00  -1.0349684e+01   4.4109473e+00  -1.3798599e+01  -1.9817526e+01  -6.4194608e+00  -1.1270778e+01  -1.0308356e+01   3.1056385e+00  -2.5062074e-01  -4.7325936e+00  -3.4302971e+00  -7.5777947e+00   2.1050536e+00  -1.2274052e+00   0.0000000e+00   0.0000000e+00   5.0000000e+01   0.0000000e+00
  -8.9101770e-03  -2.4746426e+00  -1.5281151e+01  -2.2712881e+01  -1.4509391e+01   8.0611524e-01  -1.1314150e+01   3.4389873e+00  -1.4509766e+01  -2.0323803e+01  -5.6663193e+00  -1.2740106e+01  -1.0910115e+01   2.1559005e+00  -7.5057597e-01  -3.8706284e+00  -3.8929747e+00  -8.1702976e+00   8.8926389e-01  -2.2901921e+00   0.0000000e+00   0.0000000e+00   5.0000000e+01   0.0000000e+00
   1.1387549e+00  -2.4224973e+00  -1.5630512e+01  -2.3198644e+01  -1.4580776e+01   1.2410913e+00  -1.1870475e+01   3.0537598e+00  -1.4993005e+01  -2.0598177e+01  -4.9461272e+00  -1.2926954e+01  -1.0728145e+01   1.7065937e+00  -7.8424446e-01  -2.9846273e+00  -4.1974925e+00  -8.2697044e+00   9.4407880e-02  -2.7070887e+00   0.0000000e+00   0.0000000e+00   5.0000000e+01   0.0000000e+00
