nt = 720
nc = 24
channels = F7 T3 T5 Fp1 F3 C3 P3 O1 F8 T4 T6 Fp2 F4 C4 P4 O2 Fz Cz Pz Oz TR SOn Occ RAp
ne = 20
type = N
fsmp = 120.0000000000
band = 0.1 0.2 44 58 0
orig.file = s2_bl1
orig.nt = 295148
orig.sample_range = 245772 249367
orig.fsmp = 600
orig.subject = 2
orig.run = 43
  -8.3976698e-01  -3.2110005e+00   1.9627138e+00   4.7881244e+00  -1.1660091e+00  -1.6719910e+00  -9.9582656e-01  -3.5146013e-01   2.1740758e+00   6.7466104e-01   3.8567217e+00   2.6572429e+00   2.7687103e+00   1.7141681e+00  -2.5092488e+00  -1.8282348e+00   1.7023713e-01  -1.7436302e-01  -3.3246372e+00  -9.1834166e-01   0.0000000e+00   0.0000000e+00   0.0000000e+00   0.0000000e+00
   1.1762861e+00  -3.6921951e+00   1.7604352e+00   1.1050842e+01  -2.5160484e-01  -2.4943601e+00  -9.7487606e-01   4.7544950e-01   4.9719829e+00   1.7134271e+00   4.1429902e+00   8.4947398e+00   4.2869759e+00   1.4418922e+00  -2.1016202e+00  -4.2882613e-01   1.4574282e+00  -3.2905903e-01  -4.0842220e+00   4.8436986e-02   0.0000000e+00   0.0000000e+00   0.0000000e+00   0.0000000e+00
   2.9681673e+00  -3.6774661e+00   1.5227961e+00   1.6326340e+01   1.3227732e+00  -2.3100164e+00  -6.3736811e-01   1.2465554e+00   7.3050486e+00   2.7311853e+00   4.0368486e+00   1.3535937e+01   6.0216743e+00   1.6533515e+00  -1.7475738e+00   5.9129732e-01   3.2798759e+00   3.0116770e-01  -4.2240366e+00   8.4976481e-01   0.0000000e+00   0.0000000e+00   0.0000000e+00   0.0000000e+00
   4.6290015e+00  -3.2810922e+00   1.3183371e+00   2.0591215e+01   3.3793750e+00  -1.3241576e+00   4.7748425e-02   1.9175042e+00   9.3051557e+00   3.5399915e+00   3.8870804e+00   1.7827956e+01   7.8559524e+00   2.3590640e+00  -1.1351067e+00   1.3990890e+00   5.3532637e+00   1.5114067e+00  -3.7955121e+00   1.6141214e+00   0.0000000e+00   0.0000000e+00   0.0000000e+00   0.0000000e+00
   6.3048108e+00  -2.5413694e+00   1.2127549e+00   2.4842828e+01   5.9028443e+00   4.0802315e-01   1.1250075e+00   2.1961633e+00   1.1163036e+01   4.3513732e+00   3.9808756e+00   2.1918453e+01   9.8593918e+00   3.5182935e+00  -2.0531467e-01   1.9511306e+00   7.7373590e+00   3.2011877e+00  -2.9018208e+00   2.1948663e+00   0.0000000e+00   0.0000000e+00   0.0000000e+00   0.0000000e+00
   7.8789094e+00  -1.6363830e+00   1.1364470e+00   2.9415216e+01   8.5948216e+00   2.5473477e+00   2.3454837e+00   1.8486504e+00   1.2910760e+01   5.1702334e+00   4.3005034e+00   2.5807597e+01   1.1782772e+01   4.8144934e+00   8.0619160e-01   2.0938644e+00   1.0315955e+01   5.1408591e+00  -1.8946148e+00   2.3571843e+00   0.0000000e+00   0.0000000e+00   0.0000000e+00   0.0000000e+00
   9.1882151e+00  -7.6874374e-01   9.8118054e-01   3.3176775e+01   1.0923101e+01   4.4983377e+00   3.3287616e+00   1.0964028e+00   1.4501353e+01   5.9842404e+00   4.7508730e+00   2.9218699e+01   1.3348476e+01   5.9545758e+00   1.7957376e+00   1.9904990e+00   1.2666278e+01   7.0327794e+00  -1.0189170e+00   2.2096805e+00   0.0000000e+00   0.0000000e+00   0.0000000e+00   0.0000000e+00
   1.0203830e+01  -1.0624773e-01   6.8038925e-01   3.5656243e+01   1.2537532e+01   5.7626072e+00   3.8389597e+00   2.8852627e-01   1.5895937e+01   6.9028291e+00   4.9987251e+00   3.2434274e+01   1.4656716e+01   6.8704566e+00   2.7829314e+00   1.7573865e+00   1.4468802e+01   8.5542900e+00  -3.3572172e-01   2.0169978e+00   0.0000000e+00   0.0000000e+00   0.0000000e+00   0.0000000e+00
   1.1037833e+01   2.3740817e-01   2.2533639e-01   3.7949467e+01   1.3507649e+01   6.1511057e+00   3.8475893e+00  -4.8650024e-01   1.7108503e+01   7.7526915e+00   4.7926095e+00   3.5902667e+01   1.5964653e+01   7.6604908e+00   3.6729556e+00   1.3200672e+00   1.5610994e+01   9.4456025e+00   1.3824966e-01   1.8162331e+00   0.0000000e+00   0.0000000e+00   0.0000000e+00   0.0000000e+00
   1.1839750e+01   3.7369499e-01  -2.1089479e-01   4.0426332e+01   1.4129773e+01   5.9856182e+00   3.6592615e+00  -1.1497950e+00   1.8102110e+01   8.4041901e+00   4.3783412e+00   3.9128821e+01   1.7229585e+01   8.4916450e+00   4.4601221e+00   7.8590613e-01   1.6152297e+01   9.8472193e+00   5.2677137e-01   1.7002393e+00   0.0000000e+00   0.0000000e+00   0.0000000e+00   0.0000000e+00
   1.2622485e+01   4.3240705e-01  -4.5467623e-01   4.2384577e+01   1.4501275e+01   5.6283555e+00   3.5630371e+00  -1.4855032e+00   1.8851083e+01   8.8824438e+00   4.0656105e+00   4.1499719e+01   1.8199139e+01   9.3279980e+00   5.2067566e+00   4.5464435e-01   1.6263030e+01   1.0085734e+01   1.0006867e+00   1.8940958e+00   0.0000000e+00   0.0000000e+00   0.0000000e+00   0.0000000e+00
   1.3276997e+01   4.3787527e-01  -4.4450367e-01   4.3648691e+01   1.4527423e+01   5.1708223e+00   3.6438476e+00  -1.3499183e+00   1.9377733e+01   9.1050681e+00   4.0074843e+00   4.3303875e+01   1.8681729e+01   9.9300020e+00   5.9369440e+00   4.8210945e-01   1.6122791e+01   1.0287193e+01   1.6505100e+00   2.5288802e+00   0.0000000e+00   0.0000000e+00   0.0000000e+00   0.0000000e+00
   1.3653136e+01   2.8988358e-01  -2.1558691e-01   4.4514184e+01   1.4173128e+01   4.5593897e+00   3.8222361e+00  -7.8656689e-01   1.9658847e+01   9.0431878e+00   4.2669193e+00   4.4346807e+01   1.8481087e+01   1.0033341e+01   6.5514963e+00   8.0501622e-01   1.5682313e+01   1.0342421e+01   2.3436817e+00   3.5081169e+00   0.0000000e+00   0.0000000e+00   0.0000000e+00   0.0000000e+00
   1.3734914e+01  -1.1707243e-02   1.4689140e-01   4.4991324e+01   1.3651069e+01   3.8560728e+00   4.0521985e+00   8.6425627e-02   1.9650574e+01   8.7569203e+00   4.7355567e+00   4.4695213e+01   1.7632235e+01   9.5068832e+00   6.8936343e+00   1.3007581e+00   1.4862029e+01   1.0110087e+01   2.8714274e+00   4.6357849e+00   0.0000000e+00   0.0000000e+00   0.0000000e+00   0.0000000e+00
   1.3750254e+01  -2.1562273e-01   5.3683883e-01   4.5219231e+01   1.3415050e+01   3.4026473e+00   4.3944610e+00   1.1239667e+00   1.9340226e+01   8.2222464e+00   5.2840835e+00   4.5094396e+01   1.6575996e+01   8.4638261e+00   6.8748938e+00   1.8782505e+00   1.3908932e+01   9.6320531e+00   3.1873477e+00   5.6872391e+00   0.0000000e+00   0.0000000e+00   0.0000000e+00   0.0000000e+00
   1.3843831e+01  -2.0205480e-01   8.4048173e-01   4.5255827e+01   1.3544221e+01   3.3114933e+00   4.7781110e+00   2.0550745e+00   1.8759772e+01   7.4517707e+00   5.7351325e+00   4.5535868e+01   1.5626006e+01   7.1150126e+00   6.3356372e+00   2.3137843e+00   1.3025796e+01   8.9935383e+00   3.1774631e+00   6.3400289e+00   0.0000000e+00   0.0000000e+00   0.0000000e+00   0.0000000e+00
   1.4133657e+01   3.1857274e-02   1.0556661e+00   4.5446911e+01   1.3919314e+01   3.4766857e+00   5.0654757e+00   2.6044818e+00   1.8053107e+01   6.5237694e+00   5.9115797e+00   4.5688938e+01   1.4902004e+01   5.7899387e+00   5.2361985e+00   2.3122933e+00   1.2421381e+01   8.3780207e+00   2.7469710e+00   6.3319019e+00   0.0000000e+00   0.0000000e+00   0.0000000e+00   0.0000000e+00
   1.4671864e+01   4.5063115e-01   1.2693997e+00   4.6199344e+01   1.4521814e+01   3.8167189e+00   5.2130145e+00   2.7578516e+00   1.7465818e+01   5.7607988e+00   5.7941659e+00   4.5502481e+01   1.4456283e+01   4.9442306e+00   3.9902730e+00   1.8368955e+00   1.2378842e+01   8.1369387e+00   2.0705136e+00   5.8313302e+00   0.0000000e+00   0.0000000e+00   0.0000000e+00   0.0000000e+00
   1.5167450e+01   8.3486385e-01   1.4432678e+00   4.6985693e+01   1.5152034e+01   4.0844150e+00   5.1922042e+00   2.6722185e+00   1.7169711e+01   5.4290141e+00   5.6502546e+00   4.5251756e+01   1.4270250e+01   4.7675067e+00   3.0971086e+00   1.2221907e+00   1.2844623e+01   8.4472860e+00   1.4336532e+00   5.2942773e+00   0.0000000e+00   0.0000000e+00   0.0000000e+00   0.0000000e+00
   1.5406493e+01   1.1359559e+00   1.6080831e+00   4.7127690e+01   1.5725760e+01   4.2053687e+00   5.1271581e+00   2.5932615e+00   1.7115601e+01   5.4708635e+00   5.6400860e+00   4.5197210e+01   1.4241857e+01   5.0592380e+00   2.7969610e+00   8.8277969e-01   1.3650800e+01   9.1517025e+00   1.0208907e+00   5.0793366e+00   0.0000000e+00   0.0000000e+00   0.0000000e+00   0.0000000e+00
   1.5471181e+01   1.4526761e+00   1.8852881e+00   4.6920516e+01   1.6292207e+01   4.2752026e+00   5.1345728e+00   2.7298965e+00   1.7050572e+01   5.6515801e+00   5.7952384e+00   4.5395370e+01   1.4128142e+01   5.3702282e+00   2.9737525e+00   9.9603385e-01   1.4591815e+01   9.9089581e+00   7.9382492e-01   5.2678627e+00   0.0000000e+00   0.0000000e+00   0.0000000e+00   0.0000000e+00
   1.5464266e+01   1.7466407e+00   2.3678145e+00   4.7083079e+01   1.6757639e+01   4.2603552e+00   5.2309935e+00   3.0827167e+00   1.6787336e+01   5.8342502e+00   6.1616912e+00   4.5895430e+01   1.3771393e+01   5.4484491e+00   3.4017581e+00   1.5036818e+00   1.5424858e+01   1.0503306e+01   7.6766987e-01   5.7753123e+00   0.0000000e+00   0.0000000e+00   0.0000000e+00   0.0000000e+00
   1.5338135e+01   1.9180599e+00   3.0698947e+00   4.7624337e+01   1.6998618e+01   4.1953687e+00   5.5005189e+00   3.5622543e+00   1.6432177e+01   5.9498951e+00   6.7303024e+00   4.6404421e+01   1.3311881e+01   5.4705063e+00   3.9604955e+00   2.2922940e+00   1.6035041e+01   1.1062271e+01   1.0971735e+00   6.4274900e+00   0.0000000e+00   0.0000000e+00   0.0000000e+00   0.0000000e+00
   1.4975678e+01   1.9588078e+00   3.9493155e+00   4.7792999e+01   1.6963270e+01   4.1755205e+00   6.0636335e+00   4.0750169e+00   1.6103245e+01   5.8711264e+00   7.3295368e+00   4.6606615e+01   1.2859825e+01   5.5401757e+00   4.4996888e+00   3.1033772e+00   1.6364326e+01   1.1563447e+01   1.6876413e+00   7.0081632e+00   0.0000000e+00   0.0000000e+00   0.0000000e+00   0.0000000e+00
   1.4364683e+01   1.9875152e+00   4.9950170e+00   4.7297942e+01   1.6661958e+01   4.2294657e+00   6.9981099e+00   4.6240715e+00   1.5750112e+01   5.5401912e+00   7.7065937e+00   4.6707193e+01   1.2402365e+01   5.4640979e+00   4.8872591e+00   3.7068702e+00   1.6333966e+01   1.1684299e+01   2.3477912e+00   7.4524836e+00   0.0000000e+00   0.0000000e+00   0.0000000e+00   0.0000000e+00
   1.3689308e+01   2.1928572e+00   6.1353725e+00   4.6696526e+01   1.6281286e+01   4.5010071e+00   8.3392311e+00   5.2676775e+00   1.5284145e+01   5.1531460e+00   7.7369514e+00   4.6960884e+01   1.1985353e+01   5.2003249e+00   5.1557572e+00   4.1573422e+00   1.6126891e+01   1.1525959e+01   3.1506770e+00   7.8511183e+00   0.0000000e+00   0.0000000e+00   0.0000000e+00   0.0000000e+00
   1.3161155e+01   2.6296895e+00   7.1063561e+00   4.6282446e+01   1.5981880e+01   5.0489803e+00   9.8506197e+00   5.9095870e+00   1.4725495e+01   4.9453873e+00   7.6123823e+00   4.7199271e+01   1.1659456e+01   4.9265630e+00   5.3658176e+00   4.6394894e+00   1.6106049e+01   1.1507908e+01   4.0209899e+00   8.2004648e+00   0.0000000e+00   0.0000000e+00   0.0000000e+00   0.0000000e+00
   1.2882628e+01   3.1110024e+00   7.6056638e+00   4.5972242e+01   1.5771186e+01   5.6728616e+00   1.0996637e+01   6.3139148e+00   1.4267384e+01   5.0015314e+00   7.5695720e+00   4.7024004e+01   1.1416467e+01   4.8008955e+00   5.5123111e+00   5.1890762e+00   1.6392995e+01   1.1654215e+01   4.5508651e+00   8.3752214e+00   0.0000000e+00   0.0000000e+00   0.0000000e+00   0.0000000e+00
   1.2842812e+01   3.4172339e+00   7.6167627e+00   4.5762669e+01   1.5756156e+01   6.1713349e+00   1.1333667e+01   6.4409262e+00   1.3979220e+01   5.2845668e+00   7.6078887e+00   4.6693753e+01   1.1308819e+01   4.9245768e+00   5.5829430e+00   5.6979307e+00   1.6931233e+01   1.1764806e+01   4.4728906e+00   8.3091933e+00   0.0000000e+00   0.0000000e+00   0.0000000e+00   0.0000000e+00
   1.2866681e+01   3.4372876e+00   7.3702411e+00   4.5716788e+01   1.6012877e+01   6.3431643e+00   1.0773711e+01   6.4690941e+00   1.3692855e+01   5.5739729e+00   7.5207592e+00   4.6915407e+01   1.1398141e+01   5.2802495e+00   5.4861132e+00   6.0334731e+00   1.7659589e+01   1.1746055e+01   3.7426785e+00   8.0539909e+00   0.0000000e+00   0.0000000e+00   0.0000000e+00   0.0000000e+00
   1.2857002e+01   3.2577492e+00   7.0013281e+00   4.5671661e+01   1.6325120e+01   6.0132559e+00   9.6056697e+00   6.5157932e+00   1.3382271e+01   5.5535133e+00   7.1891359e+00   4.7603944e+01   1.1577487e+01   5.6676488e+00   5.1493787e+00   6.2205561e+00   1.8429689e+01   1.1559014e+01   2.5254928e+00   7.7403796e+00   0.0000000e+00   0.0000000e+00   0.0000000e+00   0.0000000e+00
   1.2820799e+01   3.0744265e+00   6.5442815e+00   4.5141461e+01   1.6336323e+01   5.2251766e+00   8.2648494e+00   6.6383734e+00   1.3058969e+01   5.3444508e+00   6.7823765e+00   4.8061835e+01   1.1620839e+01   5.9249676e+00   4.7804873e+00   6.4121419e+00   1.8999283e+01   1.1170002e+01   1.2521859e+00   7.5686302e+00   0.0000000e+00   0.0000000e+00   0.0000000e+00   0.0000000e+00
   1.2655978e+01   2.8424396e+00   6.0256339e+00   4.4320365e+01   1.5910138e+01   4.1691610e+00   6.9379861e+00   6.7442018e+00   1.2691511e+01   5.2218678e+00   6.4295961e+00   4.7942952e+01   1.1465442e+01   5.8753812e+00   4.4751937e+00   6.6436830e+00   1.9134857e+01   1.0554148e+01   1.6508861e-01   7.5098100e+00   0.0000000e+00   0.0000000e+00   0.0000000e+00   0.0000000e+00
   1.2374735e+01   2.3811057e+00   5.4962906e+00   4.4088745e+01   1.5222774e+01   2.9522049e+00   5.5682232e+00   6.6100462e+00   1.2404749e+01   5.2802843e+00   6.0027586e+00   4.7720571e+01   1.1177306e+01   5.4032036e+00   4.0799736e+00   6.7031362e+00   1.8731149e+01   9.6746999e+00  -8.4337578e-01   7.3041011e+00   0.0000000e+00   0.0000000e+00   0.0000000e+00   0.0000000e+00
   1.2071204e+01   1.6631467e+00   5.0430290e+00   4.4099732e+01   1.4431849e+01   1.6284892e+00   4.1839711e+00   6.1052601e+00   1.2299687e+01   5.5212626e+00   5.5077774e+00   4.7860521e+01   1.0814610e+01   4.6734666e+00   3.4727745e+00   6.4433583e+00   1.7889447e+01   8.5497272e+00  -1.8010634e+00   6.7474486e+00   0.0000000e+00   0.0000000e+00   0.0000000e+00   0.0000000e+00
   1.1738251e+01   9.5535078e-01   4.8346636e+00   4.3431754e+01   1.3661349e+01   4.7061672e-01   3.1860451e+00   5.2143487e+00   1.2224912e+01   5.7777545e+00   4.9926646e+00   4.8166508e+01   1.0405512e+01   3.8980374e+00   2.5906123e+00   5.8107298e+00   1.6942591e+01   7.4658302e+00  -2.5480840e+00   5.7777802e+00   0.0000000e+00   0.0000000e+00   0.0000000e+00   0.0000000e+00
   1.1527604e+01   7.3969559e-01   5.0997159e+00   4.2770337e+01   1.3263620e+01  -2.1178965e-02   3.1071820e+00   4.1993838e+00   1.1923433e+01   5.8255726e+00   4.3184204e+00   4.8207162e+01   9.8901368e+00   3.2162743e+00   1.5924861e+00   4.8614625e+00   1.6221434e+01   6.8120766e+00  -2.8090405e+00   4.6117036e+00   0.0000000e+00   0.0000000e+00   0.0000000e+00   0.0000000e+00
   1.1639551e+01   1.2720577e+00   5.8631783e+00   4.2993092e+01   1.3444122e+01   4.2662565e-01   4.0016059e+00   3.4005986e+00   1.1378764e+01   5.6686573e+00   3.5341883e+00   4.7578301e+01   9.2254754e+00   2.8233330e+00   8.8757048e-01   3.7964671e+00   1.5886858e+01   6.8132852e+00  -2.4426196e+00   3.6492146e+00   0.0000000e+00   0.0000000e+00   0.0000000e+00   0.0000000e+00
   1.2061602e+01   2.2990042e+00   6.8303281e+00   4.3501742e+01   1.3948686e+01   1.5407660e+00   5.3345938e+00   2.9129578e+00   1.0892230e+01   5.4852768e+00   2.9604429e+00   4.6485480e+01   8.6488710e+00   2.8813158e+00   7.3487983e-01   2.8819309e+00   1.5927106e+01   7.5136329e+00  -1.6194481e+00   3.1163098e+00   0.0000000e+00   0.0000000e+00   0.0000000e+00   0.0000000e+00
   1.2714630e+01   3.3432157e+00   7.5940811e+00   4.3948844e+01   1.4659907e+01   2.7685485e+00   6.4444516e+00   2.6722834e+00   1.0866064e+01   5.4785355e+00   2.8221826e+00   4.5808256e+01   8.5306606e+00   3.3719427e+00   1.0688535e+00   2.3241579e+00   1.6364729e+01   8.7277663e+00  -6.5964550e-01   2.9981678e+00   0.0000000e+00   0.0000000e+00   0.0000000e+00   0.0000000e+00
   1.3519193e+01   4.1524487e+00   7.9023526e+00   4.4769965e+01   1.5701211e+01   3.8370987e+00   7.0399718e+00   2.5946937e+00   1.1482896e+01   5.9095546e+00   3.0854103e+00   4.6102952e+01   9.0892932e+00   4.2729603e+00   1.7768561e+00   2.1964272e+00   1.7258991e+01   1.0149178e+01   2.5132979e-01   3.2336453e+00   0.0000000e+00   0.0000000e+00   0.0000000e+00   0.0000000e+00
   1.4239406e+01   4.6295219e+00   7.7696816e+00   4.5807053e+01   1.6863016e+01   4.7316654e+00   7.2616517e+00   2.5794544e+00   1.2561225e+01   6.8949248e+00   3.5840932e+00   4.7201290e+01   1.0157016e+01   5.5881172e+00   2.8101899e+00   2.5212651e+00   1.8345456e+01   1.1573693e+01   1.1787382e+00   3.8049306e+00   0.0000000e+00   0.0000000e+00   0.0000000e+00   0.0000000e+00
   1.4530021e+01   4.6157535e+00   7.2775168e+00   4.6385281e+01   1.7638314e+01   5.2937153e+00   7.2245094e+00   2.4073079e+00   1.3673313e+01   8.0293571e+00   4.1545053e+00   4.8623713e+01   1.1253603e+01   7.0440375e+00   4.0046940e+00   3.1380994e+00   1.9166276e+01   1.2799075e+01   2.0832029e+00   4.4551565e+00   0.0000000e+00   0.0000000e+00   0.0000000e+00   0.0000000e+00
   1.4373835e+01   4.1437580e+00   6.5468967e+00   4.6377349e+01   1.7802945e+01   5.3937311e+00   6.9251928e+00   1.9867126e+00   1.4597111e+01   8.8655016e+00   4.5942941e+00   4.9712579e+01   1.2079353e+01   8.2420605e+00   5.0446081e+00   3.8596172e+00   1.9555612e+01   1.3615855e+01   2.7067855e+00   4.8104793e+00   0.0000000e+00   0.0000000e+00   0.0000000e+00   0.0000000e+00
   1.4126043e+01   3.5156323e+00   5.8364655e+00   4.6412264e+01   1.7561189e+01   5.1897616e+00   6.4696026e+00   1.5073443e+00   1.5279750e+01   9.2788077e+00   4.8036013e+00   5.0116312e+01   1.2666230e+01   8.9927432e+00   5.6782314e+00   4.6080811e+00   1.9660201e+01   1.3995418e+01   2.9045027e+00   4.7691046e+00   0.0000000e+00   0.0000000e+00   0.0000000e+00   0.0000000e+00
   1.3878081e+01   2.9174345e+00   5.4563826e+00   4.6557223e+01   1.6997576e+01   4.8215462e+00   6.0785689e+00   1.2040310e+00   1.5506752e+01   9.2925086e+00   4.9094115e+00   5.0164583e+01   1.2940758e+01   9.2363229e+00   5.9287037e+00   5.2652920e+00   1.9522038e+01   1.4007533e+01   2.7863452e+00   4.5319281e+00   0.0000000e+00   0.0000000e+00   0.0000000e+00   0.0000000e+00
   1.3382568e+01   2.3708887e+00   5.6689618e+00   4.6075807e+01   1.5950020e+01   4.3358347e+00   6.0375644e+00   1.2153408e+00   1.5127445e+01   8.9152143e+00   5.1215878e+00   4.9875326e+01   1.2709491e+01   8.9046337e+00   5.9636973e+00   5.8288753e+00   1.8962254e+01   1.3700592e+01   2.6571006e+00   4.4412052e+00   0.0000000e+00   0.0000000e+00   0.0000000e+00   0.0000000e+00
   1.2563796e+01   1.9334673e+00   6.5439155e+00   4.4814598e+01   1.4497836e+01   3.8570853e+00   6.5139174e+00   1.5173952e+00   1.4341551e+01   8.3859965e+00   5.4981021e+00   4.9118724e+01   1.2180375e+01   8.1736030e+00   5.9585821e+00   6.2311107e+00   1.7993527e+01   1.3154061e+01   2.8091740e+00   4.6464139e+00   0.0000000e+00   0.0000000e+00   0.0000000e+00   0.0000000e+00
   1.1665442e+01   1.6403311e+00   7.7383304e+00   4.3442884e+01   1.2963922e+01   3.4362784e+00   7.1905250e+00   1.9098666e+00   1.3586053e+01   7.9371424e+00   5.8393604e+00   4.8277711e+01   1.1835979e+01   7.3294409e+00   5.8281713e+00   6.2619033e+00   1.6850135e+01   1.2394774e+01   3.0957646e+00   4.8718444e+00   0.0000000e+00   0.0000000e+00   0.0000000e+00   0.0000000e+00
   1.0959964e+01   1.4708198e+00   8.7786583e+00   4.2544489e+01   1.1660971e+01   3.0594408e+00   7.6310721e+00   2.2177533e+00   1.3143679e+01   7.5766069e+00   6.0309846e+00   4.7816359e+01   1.1853359e+01   6.6308248e+00   5.5038556e+00   5.9861073e+00   1.5856975e+01   1.1590343e+01   3.2180205e+00   4.8778200e+00   0.0000000e+00   0.0000000e+00   0.0000000e+00   0.0000000e+00
   1.0466973e+01   1.4121946e+00   9.4378460e+00   4.1990888e+01   1.0717929e+01   2.7878484e+00   7.7889222e+00   2.4003383e+00   1.2873518e+01   7.1214240e+00   6.1081059e+00   4.7533504e+01   1.1993145e+01   6.2365972e+00   5.2361529e+00   5.7407301e+00   1.5226329e+01   1.1099201e+01   3.2375969e+00   4.7763962e+00   0.0000000e+00   0.0000000e+00   0.0000000e+00   0.0000000e+00
   1.0128909e+01   1.4878195e+00   9.6987677e+00   4.1295977e+01   1.0081863e+01   2.6474433e+00   7.8918974e+00   2.6016654e+00   1.2577961e+01   6.6605325e+00   6.0740995e+00   4.6762683e+01   1.1876787e+01   6.0873222e+00   5.2385507e+00   5.7448734e+00   1.4900365e+01   1.1075218e+01   3.3753217e+00   4.8941993e+00   0.0000000e+00   0.0000000e+00   0.0000000e+00   0.0000000e+00
   1.0025801e+01   1.6815775e+00   9.6356587e+00   4.0511239e+01   9.7007039e+00   2.5801183e+00   8.0454435e+00   2.9618871e+00   1.2379970e+01   6.6598563e+00   6.1359483e+00   4.5801640e+01   1.1553976e+01   6.1508866e+00   5.5684522e+00   6.1092579e+00   1.4764670e+01   1.1324670e+01   3.7271588e+00   5.4196795e+00   0.0000000e+00   0.0000000e+00   0.0000000e+00   0.0000000e+00
   1.0183466e+01   1.8534377e+00   9.3232007e+00   4.0124980e+01   9.4958040e+00   2.4295025e+00   8.0687595e+00   3.4143148e+00   1.2334985e+01   7.1653841e+00   6.3908646e+00   4.5129995e+01   1.1224357e+01   6.3632104e+00   6.1478834e+00   6.7722570e+00   1.4687895e+01   1.1483115e+01   4.0984178e+00   6.1810007e+00   0.0000000e+00   0.0000000e+00   0.0000000e+00   0.0000000e+00
   1.0426507e+01   1.8789604e+00   8.7995835e+00   4.0321029e+01   9.3884393e+00   2.1021107e+00   7.7848314e+00   3.8001864e+00   1.2343052e+01   7.8101841e+00   6.6416887e+00   4.4698249e+01   1.0904678e+01   6.4946148e+00   6.7547730e+00   7.4692828e+00   1.4512193e+01   1.1347937e+01   4.2252184e+00   6.8585403e+00   0.0000000e+00   0.0000000e+00   0.0000000e+00   0.0000000e+00
   1.0601922e+01   1.8451890e+00   8.1891084e+00   4.0365596e+01   9.2487465e+00   1.6792715e+00   7.3781140e+00   4.0442410e+00   1.2250242e+01   8.3014498e+00   6.7987281e+00   4.4372597e+01   1.0429129e+01   6.3740747e+00   7.2571607e+00   8.0003708e+00   1.4078175e+01   1.0917587e+01   4.1979238e+00   7.3602493e+00   0.0000000e+00   0.0000000e+00   0.0000000e+00   0.0000000e+00
   1.0787827e+01   1.9522186e+00   7.6264115e+00   3.9709252e+01   9.0131895e+00   1.3634032e+00   7.1266060e+00   4.1240827e+00   1.1861039e+01   8.4661224e+00   6.7746961e+00   4.3972153e+01   9.6885745e+00   6.0250214e+00   7.5741802e+00   8.3436696e+00   1.3455966e+01   1.0294963e+01   4.2175512e+00   7.7251220e+00   0.0000000e+00   0.0000000e+00   0.0000000e+00   0.0000000e+00
   1.1229488e+01   2.2980583e+00   7.1243582e+00   3.9121140e+01   8.9939001e+00   1.3581212e+00   7.0917436e+00   3.9538728e+00   1.1234611e+01   8.3776559e+00   6.4412650e+00   4.3429748e+01   8.9688050e+00   5.6212240e+00   7.6264026e+00   8.4435068e+00   1.3031317e+01   9.7177673e+00   4.2917782e+00   7.9023527e+00   0.0000000e+00   0.0000000e+00   0.0000000e+00   0.0000000e+00
   1.1926624e+01   2.7175632e+00   6.6257096e+00   3.9293336e+01   9.4119517e+00   1.6420754e+00   7.1681098e+00   3.5563451e+00   1.0630648e+01   8.2894789e+00   5.8821789e+00   4.2834227e+01   8.5606883e+00   5.3477854e+00   7.4816000e+00   8.3267612e+00   1.2997627e+01   9.3651095e+00   4.3726974e+00   7.8625256e+00   0.0000000e+00   0.0000000e+00   0.0000000e+00   0.0000000e+00
   1.2596164e+01   2.9510146e+00   6.1080959e+00   3.9698190e+01   9.9770906e+00   1.9293392e+00   7.1831856e+00   3.0995344e+00   1.0231784e+01   8.3748139e+00   5.3455148e+00   4.1911961e+01   8.2689585e+00   5.2696878e+00   7.3322690e+00   8.1807837e+00   1.3185761e+01   9.2287254e+00   4.4272985e+00   7.7307364e+00   0.0000000e+00   0.0000000e+00   0.0000000e+00   0.0000000e+00
   1.2935475e+01   2.8648293e+00   5.5556496e+00   3.9615148e+01   1.0278839e+01   1.8760447e+00   6.9369004e+00   2.7233550e+00   9.8937987e+00   8.4032888e+00   5.0036021e+00   4.0773211e+01   7.7582604e+00   5.3103867e+00   7.2526945e+00   8.1210851e+00   1.3307577e+01   9.1693690e+00   4.3590691e+00   7.6086869e+00   0.0000000e+00   0.0000000e+00   0.0000000e+00   0.0000000e+00
   1.2804682e+01   2.5321274e+00   5.0609715e+00   3.9200650e+01   1.0345554e+01   1.4425490e+00   6.4377594e+00   2.5023199e+00   9.4083783e+00   8.1634610e+00   4.9442140e+00   4.0130082e+01   7.0655523e+00   5.3423833e+00   7.1503750e+00   8.1878376e+00   1.3324346e+01   9.1252208e+00   4.0299483e+00   7.5063340e+00   0.0000000e+00   0.0000000e+00   0.0000000e+00   0.0000000e+00
   1.2479891e+01   2.2490297e+00   4.7330911e+00   3.8705320e+01   1.0520161e+01   9.2484815e-01   5.9472373e+00   2.3736462e+00   8.7094705e+00   7.7108188e+00   5.1190234e+00   3.9906862e+01   6.4205621e+00   5.2503237e+00   6.9317151e+00   8.3252093e+00   1.3386390e+01   9.0919054e+00   3.4250872e+00   7.3637465e+00   0.0000000e+00   0.0000000e+00   0.0000000e+00   0.0000000e+00
   1.2468736e+01   2.3353662e+00   4.5494937e+00   3.8423226e+01   1.1018022e+01   7.1809465e-01   5.7619089e+00   2.2289718e+00   7.9011194e+00   7.1644949e+00   5.4829389e+00   3.9435112e+01   5.9884732e+00   5.1695384e+00   6.7373716e+00   8.4106199e+00   1.3701907e+01   9.2395259e+00   2.8257223e+00   7.2013212e+00   0.0000000e+00   0.0000000e+00   0.0000000e+00   0.0000000e+00
   1.2929179e+01   2.8105709e+00   4.4387781e+00   3.8642986e+01   1.1699508e+01   9.9361003e-01   5.9100029e+00   2.0165618e+00   7.2300771e+00   6.5831681e+00   5.9065812e+00   3.8696988e+01   5.8348605e+00   5.2628275e+00   6.6776478e+00   8.2355555e+00   1.4387558e+01   9.6711144e+00   2.4439173e+00   7.0207808e+00   0.0000000e+00   0.0000000e+00   0.0000000e+00   0.0000000e+00
   1.3608220e+01   3.4101364e+00   4.4298236e+00   3.9231771e+01   1.2248039e+01   1.5708812e+00   6.2314486e+00   1.7703848e+00   6.8364157e+00   6.0078142e+00   6.2301360e+00   3.8328695e+01   5.8500369e+00   5.4007928e+00   6.6525466e+00   7.6987458e+00   1.5216879e+01   1.0140132e+01   2.2697216e+00   6.8068409e+00   0.0000000e+00   0.0000000e+00   0.0000000e+00   0.0000000e+00
   1.4247679e+01   3.9314515e+00   4.5786683e+00   3.9636005e+01   1.2555555e+01   2.1910059e+00   6.6886183e+00   1.6783272e+00   6.6050620e+00   5.5242151e+00   6.2902349e+00   3.8310321e+01   5.8296366e+00   5.3688447e+00   6.6025366e+00   6.9739908e+00   1.5832295e+01   1.0405680e+01   2.3088703e+00   6.7099374e+00   0.0000000e+00   0.0000000e+00   0.0000000e+00   0.0000000e+00
   1.4855179e+01   4.4492030e+00   4.8143472e+00   3.9899230e+01   1.2914803e+01   2.8461895e+00   7.3661264e+00   1.8627984e+00   6.4786454e+00   5.1929902e+00   6.0633314e+00   3.8506759e+01   5.7663896e+00   5.2185799e+00   6.6352579e+00   6.3204671e+00   1.6222528e+01   1.0570427e+01   2.6383307e+00   6.8719116e+00   0.0000000e+00   0.0000000e+00   0.0000000e+00   0.0000000e+00
   1.5575008e+01   5.1540564e+00   5.0748030e+00   4.0661657e+01   1.3632836e+01   3.6940558e+00   8.3674342e+00   2.2506211e+00   6.5872043e+00   5.1248590e+00   5.7652621e+00   3.9207805e+01   5.9168804e+00   5.2112505e+00   6.9776263e+00   5.9929223e+00   1.6697974e+01   1.0880407e+01   3.4063089e+00   7.3356482e+00   0.0000000e+00   0.0000000e+00   0.0000000e+00   0.0000000e+00
   1.6297595e+01   5.9856553e+00   5.3294044e+00   4.1488054e+01   1.4472634e+01   4.6528082e+00   9.6264019e+00   2.7384661e+00   6.9348862e+00   5.3368587e+00   5.8313246e+00   4.0073473e+01   6.3067452e+00   5.4407723e+00   7.6936614e+00   6.1709277e+00   1.7295838e+01   1.1389648e+01   4.5819843e+00   8.0864321e+00   0.0000000e+00   0.0000000e+00   0.0000000e+00   0.0000000e+00
   1.6674694e+01   6.5616232e+00   5.3885835e+00   4.1577659e+01   1.4912080e+01   5.2480154e+00   1.0648887e+01   3.1599160e+00   7.1550541e+00   5.6512079e+00   6.3657017e+00   4.0273244e+01   6.5149048e+00   5.6765242e+00   8.4093814e+00   6.6501977e+00   1.7607995e+01   1.1809914e+01   5.6805475e+00   8.8508672e+00   0.0000000e+00   0.0000000e+00   0.0000000e+00   0.0000000e+00
   1.6523954e+01   6.6484305e+00   5.1830637e+00   4.0930733e+01   1.4699608e+01   5.0170248e+00   1.0920414e+01   3.3154601e+00   6.7824996e+00   5.8375591e+00   7.0873755e+00   3.9492695e+01   6.1151751e+00   5.6329634e+00   8.6534790e+00   7.0501341e+00   1.7198818e+01   1.1776188e+01   6.0950445e+00   9.2441038e+00   0.0000000e+00   0.0000000e+00   0.0000000e+00   0.0000000e+00
   1.6005896e+01   6.4321674e+00   5.0256976e+00   3.9783784e+01   1.3967487e+01   4.0201912e+00   1.0565617e+01   3.3430640e+00   5.8086520e+00   5.8815158e+00   7.6956288e+00   3.8075293e+01   5.1436635e+00   5.2903012e+00   8.4310431e+00   7.2520393e+00   1.6051717e+01   1.1235183e+01   5.8059526e+00   9.2991045e+00   0.0000000e+00   0.0000000e+00   0.0000000e+00   0.0000000e+00
   1.5393789e+01   6.1356047e+00   5.0744501e+00   3.8364893e+01   1.2956379e+01   2.5977604e+00   9.9678960e+00   3.5304063e+00   4.6735982e+00   5.7685812e+00   8.0313371e+00   3.6593023e+01   3.9365040e+00   4.7495591e+00   8.0043696e+00   7.4301452e+00   1.4484403e+01   1.0382342e+01   5.1424195e+00   9.2753437e+00   0.0000000e+00   0.0000000e+00   0.0000000e+00   0.0000000e+00
   1.4880679e+01   5.8770668e+00   5.2078229e+00   3.7004961e+01   1.1971126e+01   1.1214766e+00   9.3428179e+00   3.9464185e+00   3.7298912e+00   5.4612927e+00   8.0234743e+00   3.5507186e+01   2.8396271e+00   4.1455405e+00   7.5628027e+00   7.7828007e+00   1.2930392e+01   9.4795065e+00   4.3259980e+00   9.2896412e+00   0.0000000e+00   0.0000000e+00   0.0000000e+00   0.0000000e+00
   1.4466873e+01   5.6665259e+00   5.2914529e+00   3.5815729e+01   1.1161849e+01  -2.4831260e-01   8.7204833e+00   4.3634847e+00   2.9797030e+00   5.0616696e+00   7.5206757e+00   3.4986959e+01   1.9409805e+00   3.4828386e+00   7.0795334e+00   8.2409908e+00   1.1568812e+01   8.5570797e+00   3.4428118e+00   9.2312636e+00   0.0000000e+00   0.0000000e+00   0.0000000e+00   0.0000000e+00
   1.4077886e+01   5.4362355e+00   5.2281581e+00   3.4710107e+01   1.0440093e+01  -1.5571215e+00   8.0498599e+00   4.5638356e+00   2.2738308e+00   4.5380886e+00   6.4962603e+00   3.4616701e+01   1.0295094e+00   2.5551495e+00   6.4208848e+00   8.5421727e+00   1.0247272e+01   7.4466031e+00   2.5206626e+00   8.9457470e+00   0.0000000e+00   0.0000000e+00   0.0000000e+00   0.0000000e+00
   1.3795428e+01   5.3055246e+00   5.1287704e+00   3.4035187e+01   9.8750115e+00  -2.6585436e+00   7.5564319e+00   4.6448662e+00   1.6192540e+00   3.8371377e+00   5.3279189e+00   3.4086140e+01  -2.2500768e-02   1.4188009e+00   5.7273091e+00   8.5894175e+00   9.0078350e+00   6.3137981e+00   1.7366330e+00   8.5723541e+00   0.0000000e+00   0.0000000e+00   0.0000000e+00   0.0000000e+00
   1.3692499e+01   5.4380112e+00   5.2563332e+00   3.3969721e+01   9.5304549e+00  -3.3187326e+00   7.5935527e+00   4.8496089e+00   1.0453723e+00   3.1167058e+00   4.4010707e+00   3.3304877e+01  -1.1820315e+00   3.8333018e-01   5.3003976e+00   8.5697618e+00   7.9650426e+00   5.4441553e+00   1.4170977e+00   8.4277070e+00   0.0000000e+00   0.0000000e+00   0.0000000e+00   0.0000000e+00
   1.3657123e+01   5.7585461e+00   5.7482827e+00   3.3722031e+01   9.1773679e+00  -3.5189668e+00   8.3085074e+00   5.3456747e+00   5.9537950e-01   2.7059797e+00   3.8206041e+00   3.2788215e+01  -2.1464148e+00  -3.0359470e-01   5.3371872e+00   8.6145635e+00   7.0887918e+00   4.9073269e+00   1.8220793e+00   8.7409607e+00   0.0000000e+00   0.0000000e+00   0.0000000e+00   0.0000000e+00
   1.3588351e+01   6.0927032e+00   6.3742680e+00   3.3023552e+01   8.7669453e+00  -3.3678956e+00   9.5084277e+00   6.0251208e+00   3.0747360e-01   2.6403001e+00   3.3982695e+00   3.3043052e+01  -2.5179629e+00  -5.3148805e-01   5.8101856e+00   8.7051763e+00   6.4829387e+00   4.6722460e+00   2.9492119e+00   9.4346518e+00   0.0000000e+00   0.0000000e+00   0.0000000e+00   0.0000000e+00
   1.3628379e+01   6.3548341e+00   6.7948802e+00   3.2815823e+01   8.6357792e+00  -3.0082659e+00   1.0754679e+01   6.6232379e+00   1.7637278e-01   2.8106331e+00   3.0184186e+00   3.3399317e+01  -2.2614840e+00  -3.4367143e-01   6.4974980e+00   8.7605677e+00   6.3910915e+00   4.7556953e+00   4.4006748e+00   1.0180184e+01   0.0000000e+00   0.0000000e+00   0.0000000e+00   0.0000000e+00
   1.3934947e+01   6.5326028e+00   7.0127823e+00   3.3460220e+01   8.9812362e+00  -2.5098231e+00   1.1751653e+01   7.1117267e+00   3.0143937e-01   3.2010468e+00   2.8183228e+00   3.3629184e+01  -1.4848556e+00   2.9239100e-01   7.2972161e+00   8.8788111e+00   6.9642818e+00   5.2471859e+00   5.8170574e+00   1.0818450e+01   0.0000000e+00   0.0000000e+00   0.0000000e+00   0.0000000e+00
   1.4360939e+01   6.5916170e+00   7.1724327e+00   3.4005062e+01   9.5888051e+00  -1.9097217e+00   1.2398369e+01   7.5532889e+00   8.9659227e-01   3.6429985e+00   2.9292141e+00   3.4216415e+01  -2.5397899e-01   1.4123471e+00   8.2641981e+00   9.2037006e+00   8.1646153e+00   6.2236768e+00   7.0841444e+00   1.1379443e+01   0.0000000e+00   0.0000000e+00   0.0000000e+00   0.0000000e+00
   1.4741008e+01   6.5061580e+00   7.2070137e+00   3.4424266e+01   1.0278516e+01  -1.2442331e+00   1.2581283e+01   7.7738703e+00   1.9396420e+00   3.9634165e+00   3.2006364e+00   3.5035486e+01   1.2340249e+00   2.8077165e+00   9.2422674e+00   9.5958288e+00   9.7768116e+00   7.5577943e+00   7.9815917e+00   1.1681423e+01   0.0000000e+00   0.0000000e+00   0.0000000e+00   0.0000000e+00
   1.5157378e+01   6.2669397e+00   6.9305301e+00   3.5805653e+01   1.1130441e+01  -6.2558346e-01   1.2177084e+01   7.4685373e+00   3.0144528e+00   4.2035283e+00   3.4259527e+00   3.5568506e+01   2.6333058e+00   4.0810110e+00   9.8153178e+00   9.7381060e+00   1.1524880e+01   8.9514904e+00   8.1332828e+00   1.1419919e+01   0.0000000e+00   0.0000000e+00   0.0000000e+00   0.0000000e+00
   1.5564428e+01   5.8807302e+00   6.4307283e+00   3.7499850e+01   1.1919552e+01  -3.2715167e-01   1.1281117e+01   6.6109831e+00   3.7277488e+00   4.4212536e+00   3.3844163e+00   3.6082929e+01   3.6963738e+00   4.8800518e+00   9.7177613e+00   9.3685009e+00   1.2987859e+01   9.9672963e+00   7.3893258e+00   1.0547768e+01   0.0000000e+00   0.0000000e+00   0.0000000e+00   0.0000000e+00
   1.5679321e+01   5.4493389e+00   5.9874342e+00   3.7965134e+01   1.2286506e+01  -4.1662452e-01   1.0213276e+01   5.4695024e+00   4.0659642e+00   4.6201217e+00   3.0294607e+00   3.7113863e+01   4.4089634e+00   5.1531169e+00   9.0777978e+00   8.5227163e+00   1.3818291e+01   1.0352304e+01   6.0455710e+00   9.2729515e+00   0.0000000e+00   0.0000000e+00   0.0000000e+00   0.0000000e+00
   1.5513585e+01   5.1758737e+00   5.7167375e+00   3.7614364e+01   1.2416854e+01  -5.7186094e-01   9.2691967e+00   4.3079751e+00   4.2083189e+00   4.7664402e+00   2.4064481e+00   3.8123515e+01   4.9227089e+00   5.0922634e+00   8.1590977e+00   7.4300191e+00   1.4189812e+01   1.0235280e+01   4.5434185e+00   7.8811713e+00   0.0000000e+00   0.0000000e+00   0.0000000e+00   0.0000000e+00
   1.5356072e+01   5.2014651e+00   5.5809637e+00   3.7723588e+01   1.2725335e+01  -4.0877578e-01   8.7126280e+00   3.3560487e+00   4.4148227e+00   4.8657072e+00   1.6727152e+00   3.8520856e+01   5.4614425e+00   4.9871458e+00   7.1667155e+00   6.3836516e+00   1.4593119e+01   1.0017978e+01   3.2940974e+00   6.7082052e+00   0.0000000e+00   0.0000000e+00   0.0000000e+00   0.0000000e+00
   1.5368954e+01   5.5395692e+00   5.5787249e+00   3.8197497e+01   1.3295896e+01   1.5587079e-01   8.7690934e+00   2.8956107e+00   4.7772740e+00   4.9457329e+00   1.0106102e+00   3.8675381e+01   6.2163573e+00   5.0440947e+00   6.3018902e+00   5.6226518e+00   1.5310218e+01   1.0025067e+01   2.6449196e+00   6.0221711e+00   0.0000000e+00   0.0000000e+00   0.0000000e+00   0.0000000e+00
   1.5464038e+01   5.9909067e+00   5.7356155e+00   3.8435056e+01   1.3888495e+01   9.0393877e-01   9.3310483e+00   3.0069449e+00   5.0772319e+00   4.8659982e+00   6.1721101e-01   3.8800533e+01   7.0023847e+00   5.2493666e+00   5.7598177e+00   5.2892513e+00   1.6154522e+01   1.0242134e+01   2.6250709e+00   5.8329251e+00   0.0000000e+00   0.0000000e+00   0.0000000e+00   0.0000000e+00
   1.5469141e+01   6.3024980e+00   5.9983866e+00   3.8578436e+01   1.4323020e+01   1.6821725e+00   1.0035775e+01   3.4616390e+00   5.0868338e+00   4.7604522e+00   6.5875447e-01   3.8940724e+01   7.4321218e+00   5.4836266e+00   5.6852854e+00   5.4535140e+00   1.6823221e+01   1.0458792e+01   3.0423108e+00   5.9599746e+00   1.0000000e+03   0.0000000e+00   0.0000000e+00   0.0000000e+00
   1.5396315e+01   6.4326962e+00   6.2341032e+00   3.8699542e+01   1.4601504e+01   2.4067739e+00   1.0653750e+01   3.9087680e+00   4.9195797e+00   4.9595210e+00   1.2688656e+00   3.8984301e+01   7.4416807e+00   5.7737023e+00   6.1117657e+00   5.8641892e+00   1.7263092e+01   1.0623297e+01   3.7688552e+00   6.1994065e+00   1.0000000e+03   0.0000000e+00   0.0000000e+00   0.0000000e+00
   1.5198753e+01   6.3267455e+00   6.2472935e+00   3.8385864e+01   1.4595192e+01   2.8489063e+00   1.0998688e+01   4.0914337e+00   4.6636323e+00   5.3286728e+00   2.3105488e+00   3.8618989e+01   7.1907560e+00   6.1739863e+00   6.8122820e+00   6.2248906e+00   1.7450754e+01   1.0721629e+01   4.5558849e+00   6.4035964e+00   1.0000000e+03   0.0000000e+00   0.0000000e+00   0.0000000e+00
   1.4761549e+01   5.8576005e+00   5.8529574e+00   3.7536768e+01   1.4215382e+01   2.7996337e+00   1.0849207e+01   3.9353470e+00   4.4130831e+00   5.8118866e+00   3.5211574e+00   3.8221991e+01   6.9656954e+00   6.6594949e+00   7.5332143e+00   6.5210326e+00   1.7452558e+01   1.0757899e+01   5.0096558e+00   6.5366874e+00   1.0000000e+03   3.0000000e+01   0.0000000e+00   0.0000000e+00
   1.4189131e+01   5.0897459e+00   5.0354101e+00   3.6526163e+01   1.3620717e+01   2.3141028e+00   1.0195347e+01   3.4459197e+00   4.3309273e+00   6.5353266e+00   4.5443977e+00   3.7981084e+01   6.9734336e+00   7.1417249e+00   8.1126563e+00   6.7049782e+00   1.7405471e+01   1.0717310e+01   4.9665282e+00   6.5173621e+00   1.0000000e+03   3.0000000e+01   0.0000000e+00   0.0000000e+00
   1.3713097e+01   4.3263293e+00   4.1400073e+00   3.5901671e+01   1.2998873e+01   1.6139304e+00   9.3483145e+00   2.7871486e+00   4.3802516e+00   7.2623848e+00   5.0475264e+00   3.7544797e+01   7.0904316e+00   7.3873235e+00   8.3958232e+00   6.6985176e+00   1.7285678e+01   1.0545329e+01   4.5871279e+00   6.3050428e+00   0.0000000e+00   3.0000000e+01   0.0000000e+00   0.0000000e+00
   1.3446201e+01   3.8515367e+00   3.5662371e+00   3.5567144e+01   1.2403256e+01   9.2869509e-01   8.6801697e+00   2.2170032e+00   4.5342417e+00   7.7307683e+00   5.0951537e+00   3.6864173e+01   7.1212078e+00   7.3037788e+00   8.3855316e+00   6.5766197e+00   1.6993998e+01   1.0254270e+01   4.1677363e+00   5.9698034e+00   0.0000000e+00   3.0000000e+01   0.0000000e+00   0.0000000e+00
   1.3357480e+01   3.6656068e+00   3.3121203e+00   3.4967117e+01   1.1775112e+01   3.1737690e-01   8.2487197e+00   1.7080923e+00   4.7907973e+00   7.9656037e+00   5.0111758e+00   3.6387234e+01   6.9254730e+00   6.9191583e+00   8.0816823e+00   6.3566386e+00   1.6439582e+01   9.8681439e+00   3.6906046e+00   5.4217600e+00   0.0000000e+00   3.0000000e+01   0.0000000e+00   0.0000000e+00
   1.3379831e+01   3.6647076e+00   3.2135652e+00   3.4211308e+01   1.1143389e+01  -2.0978205e-01   7.9151740e+00   1.2018832e+00   5.0026000e+00   8.0652638e+00   4.8288337e+00   3.5898815e+01   6.4986569e+00   6.3309803e+00   7.4787943e+00   6.0258121e+00   1.5653529e+01   9.2893324e+00   2.9086613e+00   4.6731666e+00   0.0000000e+00   3.0000000e+01   0.0000000e+00   0.0000000e+00
   1.3421286e+01   3.6821621e+00   3.1214251e+00   3.3493123e+01   1.0509629e+01  -6.9364369e-01   7.5415121e+00   7.7216783e-01   5.1000001e+00   8.1590997e+00   4.4986456e+00   3.4848312e+01   6.0144503e+00   5.6923664e+00   6.7356890e+00   5.6666956e+00   1.4754753e+01   8.4960861e+00   1.8006495e+00   3.9637760e+00   0.0000000e+00   3.0000000e+01   0.0000000e+00   0.0000000e+00
   1.3480323e+01   3.5744060e+00   2.8340791e+00   3.2880265e+01   9.9227020e+00  -1.1608483e+00   7.0138432e+00   4.1960297e-01   5.2207776e+00   8.4193699e+00   4.0656706e+00   3.3857362e+01   5.8269424e+00   5.2571002e+00   6.1878151e+00   5.4290816e+00   1.3985920e+01   7.7723883e+00   7.1502488e-01   3.4500887e+00   0.0000000e+00   3.0000000e+01   0.0000000e+00   0.0000000e+00
   1.3622896e+01   3.3782183e+00   2.1905543e+00   3.2796098e+01   9.5922942e+00  -1.5292202e+00   6.2739118e+00  -1.1548665e-02   5.6742007e+00   9.0266025e+00   3.8242355e+00   3.4073466e+01   6.2711589e+00   5.3630377e+00   6.0557722e+00   5.3650166e+00   1.3731737e+01   7.5002430e+00  -8.5214645e-02   3.0214912e+00   0.0000000e+00   3.0000000e+01   0.0000000e+00   0.0000000e+00
   1.3854740e+01   3.2544738e+00   1.3102154e+00   3.3379064e+01   9.6249057e+00  -1.7270342e+00   5.4520681e+00  -6.2949899e-01   6.4570167e+00   9.9490489e+00   3.9635499e+00   3.5359162e+01   7.1363148e+00   5.9795125e+00   6.2019495e+00   5.3325774e+00   1.4017928e+01   7.6757786e+00  -6.0340403e-01   2.5229805e+00   0.0000000e+00   3.0000000e+01   0.0000000e+00   0.0000000e+00
   1.4071835e+01   3.2649138e+00   4.6899927e-01   3.4144938e+01   9.8708098e+00  -1.7604813e+00   4.7625672e+00  -1.3085158e+00   7.1158326e+00   1.0863172e+01   4.2316079e+00   3.6322635e+01   7.7403258e+00   6.6296872e+00   6.2941232e+00   5.2412156e+00   1.4439212e+01   8.1001312e+00  -7.8043812e-01   1.9419788e+00   0.0000000e+00   3.0000000e+01   0.0000000e+00   0.0000000e+00
   1.4149343e+01   3.2569261e+00  -1.6871156e-01   3.4836284e+01   1.0102876e+01  -1.7547501e+00   4.1177369e+00  -1.8898195e+00   7.2852085e+00   1.1210551e+01   4.1182471e+00   3.6416243e+01   7.8305165e+00   6.9617420e+00   5.9621582e+00   5.0415369e+00   1.4745506e+01   8.7143553e+00  -6.8849426e-01   1.2232081e+00   0.0000000e+00   3.0000000e+01   0.0000000e+00   0.0000000e+00
   1.3881656e+01   3.0025125e+00  -5.2113738e-01   3.5271559e+01   1.0062426e+01  -1.9143289e+00   3.3393627e+00  -2.3269285e+00   7.0163386e+00   1.0809426e+01   3.4330128e+00   3.5956422e+01   7.6646319e+00   7.0264941e+00   5.1275738e+00   4.6740724e+00   1.4910782e+01   9.4722735e+00  -6.0558102e-01   3.8030918e-01   0.0000000e+00   3.0000000e+01   0.0000000e+00   0.0000000e+00
   1.3089253e+01   2.4386746e+00  -7.1363682e-01   3.4673521e+01   9.5589265e+00  -2.2756653e+00   2.5191656e+00  -2.6780118e+00   6.5497998e+00   9.9837536e+00   2.2893791e+00   3.5325838e+01   7.5020638e+00   6.9210040e+00   4.0789584e+00   4.1086167e+00   1.4900225e+01   1.0165667e+01  -7.0854186e-01  -4.6535557e-01   0.0000000e+00   3.0000000e+01   0.0000000e+00   0.0000000e+00
   1.2085349e+01   1.9025959e+00  -9.0551695e-01   3.3282563e+01   8.9429020e+00  -2.4462828e+00   2.0673062e+00  -2.9319790e+00   6.1598064e+00   9.1673552e+00   1.0748675e+00   3.4825263e+01   7.5221794e+00   6.7906867e+00   3.3725385e+00   3.5361687e+00   1.4829402e+01   1.0804942e+01  -7.8485411e-01  -1.1199892e+00   0.0000000e+00   3.0000000e+01   0.0000000e+00   0.0000000e+00
   1.1345840e+01   1.7931303e+00  -9.9255194e-01   3.2258613e+01   8.6421680e+00  -2.0060223e+00   2.3772295e+00  -2.9271504e+00   5.9074170e+00   8.8430330e+00   3.0625417e-01   3.4411575e+01   7.6315333e+00   6.8530261e+00   3.5616630e+00   3.2923873e+00   1.4776198e+01   1.1570632e+01  -4.6621577e-01  -1.3107894e+00   0.0000000e+00   3.0000000e+01   0.0000000e+00   0.0000000e+00
   1.0820435e+01   1.9467683e+00  -8.4095571e-01   3.1508387e+01   8.3289313e+00  -1.2982495e+00   3.2128854e+00  -2.5939755e+00   5.4983682e+00   9.0168110e+00   3.8475361e-01   3.3385184e+01   7.2869182e+00   6.9393616e+00   4.5487084e+00   3.4371146e+00   1.4346495e+01   1.2205287e+01   7.8689979e-02  -9.6255310e-01   0.0000000e+00   3.0000000e+01   0.0000000e+00   0.0000000e+00
   1.0174991e+01   1.9103925e+00  -4.8332414e-01   3.0457896e+01   7.5566695e+00  -9.9892892e-01   3.8790385e+00  -2.1197574e+00   4.6721159e+00   9.1544973e+00   1.0227451e+00   3.1377861e+01   6.1936148e+00   6.6039539e+00   5.4923277e+00   3.7045150e+00   1.3275836e+01   1.2125051e+01   1.9406489e-01  -4.2762142e-01   0.0000000e+00   3.0000000e+01   0.0000000e+00   0.0000000e+00
   9.3058265e+00   1.5145736e+00  -6.1595316e-02   2.9312287e+01   6.4569305e+00  -1.2680727e+00   3.9774398e+00  -1.7629769e+00   3.5984374e+00   8.9468693e+00   1.4595373e+00   2.9237412e+01   4.8652082e+00   5.7746337e+00   5.6491148e+00   3.8430069e+00   1.1909660e+01   1.1199786e+01  -4.5369078e-01  -1.4780076e-01   0.0000000e+00   3.0000000e+01   0.0000000e+00   0.0000000e+00
   8.2120727e+00   8.2783017e-01   3.5584840e-01   2.8294090e+01   5.3441234e+00  -1.8173536e+00   3.7551212e+00  -1.5028599e+00   2.5479135e+00   8.4092494e+00   1.1530392e+00   2.7930655e+01   3.9612432e+00   4.7885081e+00   5.0657605e+00   3.9057567e+00   1.0683244e+01   9.8517576e+00  -1.4505289e+00  -8.9070654e-02   0.0000000e+00   3.0000000e+01   0.0000000e+00   0.0000000e+00
   7.0284855e+00   1.9649689e-01   1.0303157e+00   2.7390407e+01   4.5051354e+00  -2.1538430e+00   3.9681881e+00  -9.4169794e-01   1.6252262e+00   7.7835158e+00   3.9822210e-01   2.7144105e+01   3.5367373e+00   4.0822098e+00   4.4724641e+00   4.2649751e+00   9.9148475e+00   8.8250982e+00  -1.8849667e+00   2.9925456e-01   0.0000000e+00   3.0000000e+01   0.0000000e+00   0.0000000e+00
   5.9436330e+00   3.4541946e-02   2.2154488e+00   2.6395844e+01   3.9770287e+00  -2.0448867e+00   5.0274152e+00   2.0171100e-01   7.5875955e-01   7.4184147e+00  -1.4720456e-01   2.6329155e+01   3.1866284e+00   3.8324897e+00   4.4881045e+00   5.0927798e+00   9.5718173e+00   8.5231846e+00  -1.2790179e+00   1.4005470e+00   0.0000000e+00   3.0000000e+01   0.0000000e+00   0.0000000e+00
   5.0245594e+00   3.1862918e-01   3.6537825e+00   2.5441163e+01   3.3950173e+00  -1.8898371e+00   6.3930232e+00   1.6691266e+00  -4.0649723e-02   7.2888702e+00  -2.7207196e-01   2.5512402e+01   2.6027021e+00   3.6891406e+00   4.9048425e+00   6.0941970e+00   9.1732608e+00   8.5457879e+00  -2.6801920e-01   2.8542254e+00   0.0000000e+00   3.0000000e+01   0.0000000e+00   0.0000000e+00
   4.4562633e+00   7.6337468e-01   4.8267808e+00   2.4833531e+01   2.6342510e+00  -2.0361226e+00   7.3093853e+00   2.9959036e+00  -6.1419379e-01   7.1844994e+00  -2.0876407e-01   2.4851030e+01   1.9847666e+00   3.3239452e+00   5.1548902e+00   6.9454613e+00   8.5278837e+00   8.3502145e+00   2.4400630e-01   4.0424651e+00   0.0000000e+00   3.0000000e+01   0.0000000e+00   0.0000000e+00
   4.3668609e+00   1.0408628e+00   5.3381677e+00   2.4386395e+01   1.9321563e+00  -2.4673134e+00   7.4930914e+00   3.9666613e+00  -7.9708017e-01   7.1393566e+00  -3.5542930e-02   2.4132710e+01   1.6953290e+00   2.7232463e+00   4.9942967e+00   7.5963654e+00   7.8424454e+00   7.8097249e+00  -5.7927992e-02   4.7791281e+00   0.0000000e+00   3.0000000e+01   0.0000000e+00   0.0000000e+00
   4.6805116e+00   8.8191082e-01   5.1343585e+00   2.4199066e+01   1.4987670e+00  -3.1577132e+00   7.0274263e+00   4.6117709e+00  -5.2663228e-01   7.2768376e+00   2.3604267e-01   2.3732425e+01   1.8883612e+00   1.9712717e+00   4.5723880e+00   8.1424585e+00   7.3551156e+00   7.0233314e+00  -9.3002032e-01   5.2193178e+00   0.0000000e+00   3.0000000e+01   0.0000000e+00   0.0000000e+00
   5.1035641e+00   1.2396437e-01   4.4337111e+00   2.4155810e+01   1.1645991e+00  -4.2256189e+00   6.0622247e+00   4.9474907e+00   2.8011683e-02   7.5300749e+00   7.3468087e-01   2.4103834e+01   2.3839801e+00   1.1941088e+00   4.2701669e+00   8.6922739e+00   7.0279175e+00   6.1446534e+00  -1.9547117e+00   5.4934321e+00   0.0000000e+00   3.0000000e+01   0.0000000e+00   0.0000000e+00
   5.3031277e+00  -1.1324134e+00   3.5043880e+00   2.3708739e+01   6.1270784e-01  -5.6071723e+00   4.7283267e+00   5.0106296e+00   4.1645789e-01   7.6741017e+00   1.5729865e+00   2.4286054e+01   2.7213549e+00   5.4566738e-01   4.3171339e+00   9.2924044e+00   6.5940102e+00   5.3072565e+00  -2.9454209e+00   5.6275633e+00   0.0000000e+00   3.0000000e+01   0.0000000e+00   0.0000000e+00
   5.1614158e+00  -2.5290742e+00   2.5676257e+00   2.2828223e+01  -1.8704866e-01  -7.0707306e+00   3.1958796e+00   4.7928714e+00   3.6662561e-01   7.4819495e+00   2.6045453e+00   2.3625241e+01   2.5902722e+00   6.9814507e-02   4.4833553e+00   9.7229740e+00   5.8938394e+00   4.5352735e+00  -4.0625463e+00   5.5080036e+00   0.0000000e+00   3.0000000e+01   0.0000000e+00   0.0000000e+00
   4.7918443e+00  -3.7206565e+00   1.7787908e+00   2.1996078e+01  -1.0135917e+00  -8.3801077e+00   1.7685049e+00   4.3002265e+00   4.9798766e-02   6.9905706e+00   3.5640724e+00   2.2538629e+01   2.1425532e+00  -2.3360927e-01   4.5482474e+00   9.7677825e+00   5.0319615e+00   3.7039847e+00  -5.3347728e+00   5.1414873e+00   0.0000000e+00   3.0000000e+01   0.0000000e+00   0.0000000e+00
   4.4092033e+00  -4.5500080e+00   1.0755207e+00   2.1248519e+01  -1.7141377e+00  -9.3591329e+00   7.0151243e-01   3.6401818e+00  -1.8510549e-01   6.5989469e+00   4.4316594e+00   2.1739654e+01   1.7383201e+00  -3.5754527e-01   4.6125174e+00   9.5942772e+00   4.2307796e+00   2.8450271e+00  -6.4584760e+00   4.7502877e+00   0.0000000e+00   3.0000000e+01   0.0000000e+00   0.0000000e+00
   4.1684461e+00  -4.9931759e+00   3.8377992e-01   2.0066320e+01  -2.2838658e+00  -9.9287593e+00   8.1668831e-02   2.9790199e+00  -2.8539384e-01   6.5277889e+00   5.1494778e+00   2.1058212e+01   1.4262877e+00  -3.9928755e-01   4.8351311e+00   9.4141839e+00   3.5879550e+00   2.0923374e+00  -7.0901701e+00   4.4920879e+00   0.0000000e+00   3.0000000e+01   0.0000000e+00   0.0000000e+00
   4.2298389e+00  -5.0302923e+00  -1.4882251e-01   1.8839909e+01  -2.6156189e+00  -1.0025252e+01  -6.9818694e-02   2.5282162e+00  -4.2203870e-01   6.5558680e+00   5.5765594e+00   2.0180775e+01   1.0756470e+00  -4.6867494e-01   5.2045522e+00   9.3012150e+00   3.2350727e+00   1.6309838e+00  -7.0193976e+00   4.3866934e+00   0.0000000e+00   3.0000000e+01   0.0000000e+00   0.0000000e+00
   4.6270870e+00  -4.6497424e+00  -3.0336251e-01   1.8351805e+01  -2.5972221e+00  -9.6151085e+00   2.0367684e-01   2.3762557e+00  -7.7866888e-01   6.3763844e+00   5.6856844e+00   1.9114826e+01   5.5564504e-01  -6.0626597e-01   5.5013204e+00   9.2006649e+00   3.2206140e+00   1.5870025e+00  -6.2944800e+00   4.3112494e+00   0.0000000e+00   3.0000000e+01   0.0000000e+00   0.0000000e+00
   5.1854182e+00  -3.8937351e+00   1.0277820e-01   1.8545264e+01  -2.2676563e+00  -8.7511581e+00   8.6126036e-01   2.3902021e+00  -1.4104329e+00   5.8970875e+00   5.6473418e+00   1.7728533e+01  -2.8069302e-01  -8.3875798e-01   5.5255993e+00   8.9719567e+00   3.3494926e+00   1.9185996e+00  -5.2864396e+00   4.1111196e+00   0.0000000e+00   3.0000000e+01   0.0000000e+00   0.0000000e+00
   5.5199296e+00  -3.0233812e+00   9.4136055e-01   1.8303936e+01  -2.0338217e+00  -7.7792454e+00   1.7029346e+00   2.3051723e+00  -2.1888869e+00   5.1595337e+00   5.4460984e+00   1.6196663e+01  -1.4613862e+00  -1.3329745e+00   5.1149290e+00   8.4400198e+00   3.3004797e+00   2.2334668e+00  -4.6159007e+00   3.6586295e+00   0.0000000e+00   3.0000000e+01   0.0000000e+00   0.0000000e+00
   5.4242153e+00  -2.4346274e+00   1.7387030e+00   1.7361730e+01  -2.2873823e+00  -7.1486091e+00   2.3659421e+00   1.9020620e+00  -2.7446394e+00   4.3689984e+00   5.0189142e+00   1.4880706e+01  -2.6516638e+00  -2.1340239e+00   4.2493455e+00   7.5659100e+00   2.9660811e+00   2.1117114e+00  -4.6758516e+00   2.8961076e+00   0.0000000e+00   3.0000000e+01   0.0000000e+00   0.0000000e+00
   5.2297413e+00  -2.2011013e+00   2.1665201e+00   1.6958586e+01  -2.7533079e+00  -6.8795191e+00   2.6785466e+00   1.2207913e+00  -2.7279071e+00   3.8583439e+00   4.4047982e+00   1.4309136e+01  -3.2839359e+00  -2.8416529e+00   3.2615254e+00   6.4147764e+00   2.6386637e+00   1.6140331e+00  -5.2459889e+00   1.9061660e+00   0.0000000e+00   3.0000000e+01   0.0000000e+00   0.0000000e+00
   5.2621449e+00  -2.1510664e+00   2.0985143e+00   1.7082375e+01  -3.0574756e+00  -6.8046811e+00   2.5695020e+00   3.6217074e-01  -2.1014566e+00   3.9047008e+00   3.8093406e+00   1.4842470e+01  -3.1986493e+00  -3.0856663e+00   2.4659626e+00   5.0527162e+00   2.5403292e+00   1.0548375e+00  -5.9181437e+00   8.1121024e-01   0.0000000e+00   3.0000000e+01   0.0000000e+00   0.0000000e+00
   5.7410053e+00  -2.0063147e+00   1.5801558e+00   1.7103207e+01  -2.9339034e+00  -6.7648569e+00   2.1101780e+00  -5.9462281e-01  -1.0834514e+00   4.4853900e+00   3.2515427e+00   1.5801805e+01  -2.7230164e+00  -2.8945055e+00   1.9649331e+00   3.6089888e+00   2.6417242e+00   5.9067547e-01  -6.4092708e+00  -2.1856463e-01   0.0000000e+00   3.0000000e+01   0.0000000e+00   0.0000000e+00
   6.7159300e+00  -1.5514879e+00   9.1988833e-01   1.6913166e+01  -2.3912935e+00  -6.7283699e+00   1.5763310e+00  -1.4739482e+00  -3.5834370e-02   5.2468999e+00   2.7333980e+00   1.6054624e+01  -2.4222868e+00  -2.5651850e+00   1.7695803e+00   2.3711065e+00   2.7122858e+00   1.8953385e-01  -6.5705120e+00  -9.3611713e-01   0.0000000e+00   3.0000000e+01   0.0000000e+00   0.0000000e+00
   7.7774748e+00  -9.1171995e-01   4.3485331e-01   1.6469605e+01  -1.9010023e+00  -6.8224975e+00   1.2144522e+00  -2.0346826e+00   5.1338892e-01   5.8258659e+00   2.2015300e+00   1.4978797e+01  -2.7998889e+00  -2.4249499e+00   1.7970480e+00   1.5973405e+00   2.5255764e+00  -2.8530728e-01  -6.3895791e+00  -1.1295480e+00   0.0000000e+00   3.0000000e+01   0.0000000e+00   0.0000000e+00
   8.7153104e+00  -2.2434158e-01   2.8769877e-01   1.5988214e+01  -1.5926773e+00  -6.8587902e+00   1.2167419e+00  -2.1691774e+00   6.7301447e-01   6.1204116e+00   1.5572229e+00   1.3730342e+01  -3.4958407e+00  -2.4532014e+00   1.9213724e+00   1.2742636e+00   2.3638776e+00  -6.4710548e-01  -5.8843206e+00  -8.5864338e-01   0.0000000e+00   3.0000000e+01   0.0000000e+00   0.0000000e+00
   9.7663933e+00   5.9449406e-01   4.8911302e-01   1.5996011e+01  -1.0223100e+00  -6.4544443e+00   1.6702867e+00  -1.9292782e+00   1.0453812e+00   6.2407355e+00   7.6577206e-01   1.3720025e+01  -3.6155297e+00  -2.3517393e+00   2.0891352e+00   1.1595570e+00   2.7244068e+00  -5.6667885e-01  -5.0434462e+00  -3.6571856e-01   0.0000000e+00   3.0000000e+01   0.0000000e+00   0.0000000e+00
   1.1008434e+01   1.5448610e+00   8.8116340e-01   1.6784554e+01   9.8236020e-02  -5.4769288e+00   2.4670278e+00  -1.4718133e+00   1.8402486e+00   6.2803390e+00  -9.1449624e-02   1.4619699e+01  -2.9159839e+00  -2.0095460e+00   2.2654199e+00   9.9615220e-01   3.7217188e+00   6.0466030e-02  -3.9398260e+00   1.0365477e-01   0.0000000e+00   3.0000000e+01   0.0000000e+00   0.0000000e+00
   1.2163908e+01   2.5409024e+00   1.2835322e+00   1.7966761e+01   1.5527525e+00  -4.0046263e+00   3.4389758e+00  -9.6571461e-01   3.0143377e+00   6.4108935e+00  -1.0223727e+00   1.5958029e+01  -1.5739220e+00  -1.4101637e+00   2.4774518e+00   6.0136087e-01   5.2737010e+00   1.1615548e+00  -2.7119646e+00   3.9220291e-01   0.0000000e+00   3.0000000e+01   0.0000000e+00   0.0000000e+00
   1.2911024e+01   3.4275087e+00   1.5541792e+00   1.8918836e+01   2.7049122e+00  -2.5074871e+00   4.4008278e+00  -5.6686867e-01   4.4289017e+00   6.6904800e+00  -1.9602623e+00   1.7253004e+01   3.6537681e-02  -6.9947451e-01   2.6726983e+00  -7.3306011e-02   7.0458720e+00   2.5034977e+00  -1.6044493e+00   4.0008660e-01   0.0000000e+00   3.0000000e+01   0.0000000e+00   0.0000000e+00
   1.3174442e+01   4.0465950e+00   1.5796326e+00   1.9516387e+01   3.0999031e+00  -1.5291587e+00   5.1671593e+00  -4.3382791e-01   5.7689768e+00   6.9456065e+00  -3.0421005e+00   1.8193595e+01   1.4691067e+00  -1.5739597e-01   2.5915766e+00  -1.0323528e+00   8.5538898e+00   3.6748636e+00  -8.7669658e-01   3.0172679e-02   0.0000000e+00   3.0000000e+01   0.0000000e+00   0.0000000e+00
   1.3269165e+01   4.4515500e+00   1.3343738e+00   2.0130078e+01   3.0940843e+00  -1.0824177e+00   5.5423235e+00  -6.4479549e-01   6.8982444e+00   7.0945403e+00  -4.2807191e+00   1.8819169e+01   2.6809891e+00   1.3681196e-01   2.0719622e+00  -2.2172365e+00   9.6576993e+00   4.4419044e+00  -7.2223646e-01  -7.8370323e-01   0.0000000e+00   3.0000000e+01   0.0000000e+00   0.0000000e+00
   1.3603084e+01   4.8051487e+00   9.5883615e-01   2.0776078e+01   3.4615168e+00  -8.1233321e-01   5.4351107e+00  -1.1039552e+00   7.7666112e+00   7.1010611e+00  -5.6515401e+00   1.9323295e+01   3.7805795e+00   2.9245749e-01   1.1857986e+00  -3.5517499e+00   1.0524542e+01   4.8065324e+00  -1.2086982e+00  -2.0131139e+00   0.0000000e+00   3.0000000e+01   0.0000000e+00   0.0000000e+00
   1.4248077e+01   5.0592146e+00   5.3163987e-01   2.1279582e+01   4.4402914e+00  -7.0036442e-01   4.8426867e+00  -1.7214518e+00   8.3069068e+00   6.9532776e+00  -7.2351915e+00   2.0090195e+01   4.6785160e+00   2.7876824e-01   7.7819005e-03  -4.9486530e+00   1.1232579e+01   4.6903916e+00  -2.2994553e+00  -3.5451127e+00   0.0000000e+00   3.0000000e+01   0.0000000e+00   0.0000000e+00
   1.5038238e+01   5.0708331e+00  -3.5031257e-02   2.1985587e+01   5.5738217e+00  -1.0241155e+00   3.8449889e+00  -2.5112487e+00   8.4956876e+00   6.5831505e+00  -8.9719810e+00   2.1145292e+01   5.2465973e+00  -5.5771290e-02  -1.3254099e+00  -6.2901559e+00   1.1700173e+01   4.0138051e+00  -3.7797652e+00  -5.1848950e+00   0.0000000e+00   3.0000000e+01   0.0000000e+00   0.0000000e+00
   1.5718120e+01   4.8107116e+00  -7.1788640e-01   2.3168719e+01   6.2787259e+00  -1.8313508e+00   2.6986213e+00  -3.3944190e+00   8.4504340e+00   6.0557988e+00  -1.0539889e+01   2.2099868e+01   5.6329246e+00  -6.6712884e-01  -2.5106112e+00  -7.3938613e+00   1.1899713e+01   3.0144248e+00  -5.2792948e+00  -6.5971281e+00   0.0000000e+00   3.0000000e+01   0.0000000e+00   0.0000000e+00
   1.6037563e+01   4.4027546e+00  -1.1885044e+00   2.4374785e+01   6.3908938e+00  -2.8345621e+00   1.8278540e+00  -4.0445709e+00   8.3025600e+00   5.4248143e+00  -1.1762051e+01   2.2408900e+01   6.0045909e+00  -1.3166217e+00  -3.2834471e+00  -8.0553863e+00   1.1831481e+01   1.9712553e+00  -6.3665966e+00  -7.3853690e+00   0.0000000e+00   3.0000000e+01   0.0000000e+00   0.0000000e+00
   1.5931796e+01   4.0423176e+00  -1.1486299e+00   2.4930871e+01   6.3224725e+00  -3.5522917e+00   1.5713361e+00  -4.0812660e+00   8.2067171e+00   4.8082873e+00  -1.2459767e+01   2.2274580e+01   6.4031135e+00  -1.7417626e+00  -3.4849506e+00  -8.0582219e+00   1.1634710e+01   1.1998026e+00  -6.6785280e+00  -7.2911504e+00   0.0000000e+00   3.0000000e+01   0.0000000e+00   0.0000000e+00
   1.5534931e+01   3.8888945e+00  -5.9850617e-01   2.4869192e+01   6.5858303e+00  -3.6444194e+00   2.0074408e+00  -3.4117801e+00   8.1566694e+00   4.4978517e+00  -1.2522010e+01   2.2308584e+01   6.7673515e+00  -1.8592158e+00  -3.0290856e+00  -7.3196197e+00   1.1488576e+01   8.8622881e-01  -6.1497070e+00  -6.3263190e+00   0.0000000e+00   3.0000000e+01   0.0000000e+00   0.0000000e+00
   1.4950859e+01   3.9300016e+00   2.1434941e-01   2.4214194e+01   7.0138576e+00  -3.3508677e+00   2.8637269e+00  -2.3081923e+00   7.8404248e+00   4.4479945e+00  -1.1967322e+01   2.2193768e+01   6.6660816e+00  -1.9436586e+00  -2.1226555e+00  -6.0389605e+00   1.1186160e+01   8.1388827e-01  -5.1821900e+00  -4.8707405e+00   0.0000000e+00   3.0000000e+01   0.0000000e+00   0.0000000e+00
   1.4091056e+01   3.9241420e+00   9.8683489e-01   2.2936774e+01   6.8694930e+00  -3.3053907e+00   3.6306852e+00  -1.1640473e+00   6.9831384e+00   4.2106928e+00  -1.1103414e+01   2.1358494e+01   5.8027266e+00  -2.3101949e+00  -1.1849075e+00  -4.6165016e+00   1.0360310e+01   5.3392462e-01  -4.3623145e+00  -3.4341044e+00   0.0000000e+00   3.0000000e+01   0.0000000e+00   0.0000000e+00
   1.3039651e+01   3.7690415e+00   1.6052325e+00   2.1524465e+01   5.7070631e+00  -3.7278024e+00   4.1595934e+00  -1.5901294e-01   5.8579295e+00   3.7282710e+00  -1.0058864e+01   1.9613452e+01   4.6057172e+00  -2.8610538e+00  -3.2550841e-01  -3.1970347e+00   9.0321071e+00   6.4577212e-02  -3.7224684e+00  -2.1279466e+00   0.0000000e+00   3.0000000e+01   0.0000000e+00   0.0000000e+00
   1.2266791e+01   3.7835258e+00   2.1703641e+00   2.0154961e+01   3.9532077e+00  -4.1453869e+00   4.7747353e+00   8.0938570e-01   4.8185842e+00   3.3242514e+00  -8.9940295e+00   1.7354803e+01   3.5644348e+00  -3.2942560e+00   5.7341771e-01  -1.7774075e+00   7.5761836e+00  -1.4381544e-01  -2.8316629e+00  -7.8372476e-01   0.0000000e+00   3.0000000e+01   0.0000000e+00   0.0000000e+00
   1.2107257e+01   4.1791653e+00   2.6440705e+00   1.8635994e+01   2.5427275e+00  -4.0979072e+00   5.5702620e+00   1.7128767e+00   3.9097704e+00   2.9778297e+00  -8.1685377e+00   1.5340905e+01   2.7416527e+00  -3.5188133e+00   1.4539592e+00  -5.3376217e-01   6.3125503e+00   8.8424872e-02  -1.6393865e+00   4.8073211e-01   0.0000000e+00   3.0000000e+01   0.0000000e+00   0.0000000e+00
   1.2549607e+01   4.7550433e+00   2.8918369e+00   1.7687938e+01   2.1794671e+00  -3.5841358e+00   6.2816869e+00   2.3849078e+00   3.1012203e+00   2.6862483e+00  -7.6461031e+00   1.4076440e+01   2.1324105e+00  -3.6138690e+00   2.1750841e+00   3.6200618e-01   5.4237057e+00   4.8789984e-01  -5.6812411e-01   1.4067828e+00   0.0000000e+00   3.0000000e+01   0.0000000e+00   0.0000000e+00
   1.3176926e+01   5.0769134e+00   2.8896484e+00   1.7785794e+01   2.6081821e+00  -3.0680437e+00   6.6815054e+00   2.7576486e+00   2.3743456e+00   2.4574571e+00  -7.1690616e+00   1.3400361e+01   1.6422580e+00  -3.7512942e+00   2.6190863e+00   9.8476897e-01   4.8625227e+00   7.1061134e-01  -4.2748599e-02   1.9302599e+00   0.0000000e+00   3.0000000e+01   0.0000000e+00   0.0000000e+00
   1.3283446e+01   4.8192278e+00   2.6901141e+00   1.7671486e+01   2.8732585e+00  -3.0206997e+00   6.7613558e+00   2.9596834e+00   1.5365498e+00   2.1995623e+00  -6.5768928e+00   1.2443125e+01   1.0101490e+00  -4.0572124e+00   2.8477468e+00   1.5259342e+00   4.3764779e+00   6.1732461e-01  -5.1856778e-02   2.2518570e+00   0.0000000e+00   3.0000000e+01   0.0000000e+00   0.0000000e+00
   1.2655526e+01   4.1059867e+00   2.4399150e+00   1.6920153e+01   2.6667120e+00  -3.2404500e+00   6.7665343e+00   3.1813043e+00   5.0797747e-01   1.9853955e+00  -5.7702865e+00   1.0993575e+01   4.2716031e-01  -4.4282516e+00   3.0576881e+00   2.1238640e+00   3.9788993e+00   4.8589647e-01  -1.6443623e-01   2.6270644e+00   0.0000000e+00   3.0000000e+01   0.0000000e+00   0.0000000e+00
   1.1777534e+01   3.3952163e+00   2.3351061e+00   1.6435993e+01   2.5562271e+00  -3.0947702e+00   6.9165131e+00   3.4484006e+00  -5.5725693e-01   1.8120429e+00  -4.8781722e+00   9.8208716e+00   3.4977670e-01  -4.5870370e+00   3.4129653e+00   2.6710018e+00   3.9425764e+00   6.0414177e-01  -7.5634036e-02   3.0864781e+00   0.0000000e+00   3.0000000e+01   0.0000000e+00   0.0000000e+00
   1.1163919e+01   2.9710403e+00   2.3755807e+00   1.6126157e+01   2.9285852e+00  -2.5470767e+00   7.0514823e+00   3.5468807e+00  -1.4949702e+00   1.6278359e+00  -3.9777928e+00   9.1680644e+00   6.0412483e-01  -4.5494727e+00   3.8345011e+00   2.9543137e+00   4.1652813e+00   8.5184815e-01   1.6848391e-03   3.3480508e+00   0.0000000e+00   3.0000000e+01   0.0000000e+00   0.0000000e+00
   1.1075008e+01   2.8185645e+00   2.3690808e+00   1.5746322e+01   3.6798288e+00  -2.1639434e+00   6.8906970e+00   3.3139438e+00  -2.2252851e+00   1.4224899e+00  -3.3288881e+00   8.7270266e+00   6.2877446e-01  -4.7473464e+00   4.0084884e+00   2.8024899e+00   4.2369281e+00   7.8890725e-01  -3.1407589e-01   3.1637882e+00   0.0000000e+00   3.0000000e+01   0.0000000e+00   0.0000000e+00
   1.1510547e+01   2.7907168e+00   2.2189287e+00   1.5991363e+01   4.5223827e+00  -2.3609942e+00   6.4179628e+00   2.9674409e+00  -2.6504920e+00   1.2548578e+00  -3.0077274e+00   8.1821804e+00   2.0852201e-01  -5.4136418e+00   3.8504312e+00   2.3457449e+00   3.9275017e+00   1.3050553e-01  -1.0155156e+00   2.7101706e+00   0.0000000e+00   3.0000000e+01   0.0000000e+00   0.0000000e+00
   1.2098528e+01   2.7456084e+00   2.0456589e+00   1.6802200e+01   4.9858861e+00  -3.1185798e+00   5.8574632e+00   2.8359487e+00  -2.7873580e+00   1.2167705e+00  -2.8550600e+00   7.7005579e+00  -3.8266946e-01  -6.3206503e+00   3.5726235e+00   1.8635292e+00   3.3227376e+00  -1.0897185e+00  -1.7744265e+00   2.3781888e+00   0.0000000e+00   3.0000000e+01   0.0000000e+00   0.0000000e+00
   1.2224551e+01   2.5723480e+00   2.0590344e+00   1.6674918e+01   4.5435813e+00  -4.1467643e+00   5.4963030e+00   3.0650692e+00  -2.8202661e+00   1.2246883e+00  -2.7830196e+00   7.7187067e+00  -8.1935696e-01  -7.1446464e+00   3.3511439e+00   1.5295798e+00   2.5624192e+00  -2.4428880e+00  -2.2245723e+00   2.3798732e+00   0.0000000e+00   3.0000000e+01   0.0000000e+00   0.0000000e+00
   1.1664687e+01   2.3616594e+00   2.4585138e+00   1.5259542e+01   3.3856856e+00  -5.0260940e+00   5.5880662e+00   3.6633910e+00  -3.0095573e+00   1.1207327e+00  -2.9366494e+00   7.6420269e+00  -1.1424288e+00  -7.6732137e+00   3.2323314e+00   1.3957225e+00   1.8068318e+00  -3.3707358e+00  -2.1962535e+00   2.6678394e+00   0.0000000e+00   3.0000000e+01   0.0000000e+00   0.0000000e+00
   1.0778127e+01   2.2502439e+00   3.2469976e+00   1.3830981e+01   2.3071305e+00  -5.6507806e+00   6.0048586e+00   4.4342312e+00  -3.4791309e+00   7.5981833e-01  -3.2242163e+00   6.7606064e+00  -1.5937190e+00  -8.0216804e+00   3.0727632e+00   1.4023460e+00   1.2226947e+00  -3.8437351e+00  -2.0734492e+00   2.9876525e+00   0.0000000e+00   3.0000000e+01   0.0000000e+00   0.0000000e+00
   9.9479161e+00   2.1099326e+00   4.1508054e+00   1.3116257e+01   1.6046537e+00  -6.4212268e+00   6.2040605e+00   5.0423593e+00  -4.2292463e+00   1.5394676e-01  -3.5597136e+00   5.7365237e+00  -2.3792393e+00  -8.6037020e+00   2.5671469e+00   1.3530775e+00   5.8087829e-01  -4.5222588e+00  -2.5091668e+00   3.0370584e+00   0.0000000e+00   3.0000000e+01   0.0000000e+00   0.0000000e+00
   9.3125650e+00   1.7325807e+00   4.8050004e+00   1.2236844e+01   8.0890827e-01  -7.8156461e+00   5.7506977e+00   5.2792524e+00  -4.9949600e+00  -5.5943526e-01  -3.8179572e+00   5.5093775e+00  -3.4606113e+00  -9.7177520e+00   1.5177607e+00   1.0829075e+00  -6.1151792e-01  -5.9229914e+00  -3.7588768e+00   2.6651041e+00   0.0000000e+00   3.0000000e+01   0.0000000e+00   0.0000000e+00
   8.7084151e+00   1.0069386e+00   4.9921332e+00   1.0558108e+01  -5.0494365e-01  -9.8675706e+00   4.6491440e+00   5.1370887e+00  -5.4680873e+00  -1.2756586e+00  -3.9610413e+00   5.5659249e+00  -4.5758932e+00  -1.1208186e+01   3.3817527e-02   5.6720718e-01  -2.4360884e+00  -7.9390059e+00  -5.5936184e+00   1.8975345e+00   0.0000000e+00   3.0000000e+01   0.0000000e+00   0.0000000e+00
   7.8452232e+00  -1.7301599e-01   4.7327275e+00   9.1580000e+00  -2.1965079e+00  -1.2170909e+01   3.1927867e+00   4.6770482e+00  -5.4903599e+00  -1.7536961e+00  -3.9209368e+00   5.3616331e+00  -5.3218387e+00  -1.2586238e+01  -1.5304279e+00  -7.3704366e-02  -4.3680157e+00  -9.9961707e+00  -7.6030612e+00   8.6832000e-01   0.0000000e+00   3.0000000e+01   0.0000000e+00   0.0000000e+00
   6.6333106e+00  -1.7714178e+00   4.2212474e+00   8.4669687e+00  -3.8831667e+00  -1.4190117e+01   1.7602739e+00   4.1038809e+00  -5.0978163e+00  -1.7869072e+00  -3.5828189e+00   5.5137527e+00  -5.3749093e+00  -1.3402714e+01  -2.6545394e+00  -6.5132062e-01  -5.7085179e+00  -1.1556858e+01  -9.2427673e+00  -1.0185635e-01   0.0000000e+00   3.0000000e+01   0.0000000e+00   0.0000000e+00
   5.2701926e+00  -3.5105775e+00   3.6128993e+00   7.8245054e+00  -5.2229133e+00  -1.5511073e+01   6.5145023e-01   3.6919501e+00  -4.3658873e+00  -1.3363690e+00  -2.7461188e+00   5.9392145e+00  -4.9023403e+00  -1.3486614e+01  -2.9292486e+00  -9.3267073e-01  -6.0607365e+00  -1.2216366e+01  -1.0058289e+01  -6.8680846e-01   0.0000000e+00   3.0000000e+01   0.0000000e+00   0.0000000e+00
   4.0445308e+00  -5.0103117e+00   3.0007580e+00   7.4105556e+00  -5.8651131e+00  -1.5918283e+01   3.6527484e-02   3.5032769e+00  -3.4134055e+00  -5.6388292e-01  -1.5027084e+00   6.0779963e+00  -4.2535091e+00  -1.2897542e+01  -2.3349560e+00  -8.7823207e-01  -5.4308442e+00  -1.1786959e+01  -9.9478169e+00  -8.4896486e-01   0.0000000e+00   3.0000000e+01   0.0000000e+00   0.0000000e+00
   3.0556076e+00  -6.0422254e+00   2.4072503e+00   7.4668137e+00  -5.8165980e+00  -1.5564399e+01  -1.4927094e-01   3.3334661e+00  -2.2766629e+00   3.5147069e-01  -3.0927999e-01   6.2846714e+00  -3.5211819e+00  -1.1903453e+01  -1.2969599e+00  -7.4443759e-01  -4.3079516e+00  -1.0598933e+01  -9.2364499e+00  -8.5025854e-01   0.0000000e+00   3.0000000e+01   0.0000000e+00   0.0000000e+00
   2.2598625e+00  -6.6658279e+00   1.8148079e+00   7.2963944e+00  -5.5594718e+00  -1.4905244e+01  -1.8908980e-01   3.0005785e+00  -9.6392155e-01   1.3769198e+00   3.7453288e-01   6.8279600e+00  -2.6778071e+00  -1.0808388e+01  -3.1793415e-01  -8.2571776e-01  -3.4156659e+00  -9.4059545e+00  -8.4624308e+00  -9.2909944e-01   0.0000000e+00   3.0000000e+01   0.0000000e+00   0.0000000e+00
   1.6274289e+00  -7.1230037e+00   1.1574269e+00   6.6147976e+00  -5.4074398e+00  -1.4257396e+01  -3.2858553e-01   2.5561512e+00   3.6754930e-01   2.3569241e+00   6.4668357e-01   7.2303246e+00  -1.7756258e+00  -9.6852367e+00   4.7266161e-01  -1.0770037e+00  -3.0450255e+00  -8.5525456e+00  -7.8835964e+00  -1.0595589e+00   0.0000000e+00   3.0000000e+01   0.0000000e+00   0.0000000e+00
   1.2226946e+00  -7.4901959e+00   5.3865465e-01   6.0753971e+00  -5.1306767e+00  -1.3549974e+01  -5.0192390e-01   2.2644783e+00   1.4103481e+00   3.1214480e+00   6.9458921e-01   7.2436180e+00  -1.0423521e+00  -8.4769523e+00   1.2915518e+00  -1.2288777e+00  -2.8903356e+00  -7.8068426e+00  -7.3308080e+00  -1.0021632e+00   0.0000000e+00   3.0000000e+01   0.0000000e+00   0.0000000e+00
   1.0683530e+00  -7.6355189e+00   1.9975989e-01   6.1353750e+00  -4.3923261e+00  -1.2596186e+01  -5.1556226e-01   2.2605769e+00   1.9351901e+00   3.6376963e+00   7.0120316e-01   7.0751106e+00  -6.8027210e-01  -7.2343980e+00   2.2329130e+00  -1.1116327e+00  -2.4455978e+00  -6.8814710e+00  -6.7114899e+00  -6.9906973e-01   0.0000000e+00   3.0000000e+01   0.0000000e+00   0.0000000e+00
   1.0890708e+00  -7.3597410e+00   2.5819643e-01   6.4418705e+00  -3.0890425e+00  -1.1242357e+01  -1.5434077e-01   2.4168955e+00   1.9494953e+00   3.9744985e+00   6.3338372e-01   6.8028621e+00  -5.2537775e-01  -6.0258971e+00   3.1626951e+00  -7.9949816e-01  -1.3816871e+00  -5.7231941e+00  -6.0467236e+00  -2.9630532e-01   0.0000000e+00   3.0000000e+01   0.0000000e+00   0.0000000e+00
   1.1552131e+00  -6.6112903e+00   6.7170136e-01   6.5539105e+00  -1.4940276e+00  -9.5986374e+00   7.1716394e-01   2.5728030e+00   1.6842607e+00   4.0349307e+00   3.5996397e-01   6.3388803e+00  -3.0558456e-01  -4.9927684e+00   3.8440008e+00  -4.7301763e-01   1.5773533e-01  -4.4069594e+00  -5.3837460e+00   8.4408125e-02   0.0000000e+00   3.0000000e+01   0.0000000e+00   0.0000000e+00
   1.1832596e+00  -5.5797284e+00   1.2693377e+00   6.4896582e+00  -2.3554888e-01  -8.1191037e+00   1.9238011e+00   2.6621823e+00   1.2235309e+00   3.5812696e+00  -2.8776796e-01   5.5323144e+00  -6.4556174e-02  -4.4014836e+00   4.0550587e+00  -3.4852839e-01   1.5799231e+00  -3.2124739e+00  -4.8950915e+00   3.7014198e-01   0.0000000e+00   3.0000000e+01   0.0000000e+00   0.0000000e+00
   1.2855230e+00  -4.5006307e+00   1.8474519e+00   6.4435872e+00   2.4526275e-01  -7.2162816e+00   3.0820456e+00   2.6902889e+00   5.0450523e-01   2.7649850e+00  -1.1252825e+00   4.8270361e+00  -7.3472340e-02  -4.3897583e+00   3.8239325e+00  -3.5360295e-01   2.2759434e+00  -2.4390693e+00  -4.6411197e+00   5.9821254e-01   0.0000000e+00   3.0000000e+01   0.0000000e+00   0.0000000e+00
   1.5511327e+00  -3.5347871e+00   2.2940594e+00   6.4909057e+00   4.0521811e-02  -6.9606043e+00   3.8616374e+00   2.7260779e+00  -5.3457562e-01   1.9241253e+00  -1.7484496e+00   4.1835263e+00  -5.6442242e-01  -4.7356210e+00   3.4892422e+00  -2.5918877e-01   2.0955066e+00  -2.1801233e+00  -4.4258814e+00   8.3447527e-01   0.0000000e+00   3.0000000e+01   0.0000000e+00   0.0000000e+00
   1.7215307e+00  -3.0486919e+00   2.5055299e+00   6.5289766e+00  -4.9671096e-01  -7.2446632e+00   4.0406458e+00   2.8043656e+00  -1.7720830e+00   1.2699063e+00  -1.9167803e+00   3.0334799e+00  -1.4068015e+00  -5.0903447e+00   3.3768279e+00   2.0958643e-02   1.4056425e+00  -2.2172932e+00  -4.0986579e+00   1.0759556e+00   0.0000000e+00   3.0000000e+01   0.0000000e+00   0.0000000e+00
   1.4438362e+00  -3.3571001e+00   2.4521487e+00   6.3274566e+00  -1.0379459e+00  -7.8993388e+00   3.6062178e+00   2.9567393e+00  -2.9708428e+00   9.2654702e-01  -1.7143713e+00   1.8707861e+00  -2.2005177e+00  -5.3026793e+00   3.5987444e+00   4.8073817e-01   7.3112473e-01  -2.3665596e+00  -3.7520743e+00   1.3684782e+00   0.0000000e+00   3.0000000e+01   0.0000000e+00   0.0000000e+00
   6.8595235e-01  -4.2630541e+00   2.2255547e+00   5.8337646e+00  -1.2924579e+00  -8.6466897e+00   2.7914981e+00   3.1783432e+00  -3.8612536e+00   8.9616994e-01  -1.1606289e+00   1.1960066e+00  -2.7390843e+00  -5.4318086e+00   4.0627724e+00   1.1042764e+00   4.1948541e-01  -2.6384775e+00  -3.5450941e+00   1.7459032e+00   0.0000000e+00   3.0000000e+01   0.0000000e+00   0.0000000e+00
  -2.9494207e-01  -5.2101670e+00   2.0380115e+00   5.1425759e+00  -1.1028356e+00  -9.2225381e+00   1.9563474e+00   3.4210238e+00  -4.3769783e+00   1.0333065e+00  -4.7122091e-01   5.3221231e-01  -3.2393286e+00  -5.6015207e+00   4.5345351e+00   1.7581893e+00   5.2233545e-01  -3.1529340e+00  -3.5886074e+00   2.1364009e+00   0.0000000e+00   3.0000000e+01   0.0000000e+00   0.0000000e+00
  -1.0389855e+00  -5.6437111e+00   2.1769786e+00   4.7092006e+00  -5.6920155e-01  -9.5455015e+00   1.4750573e+00   3.7774421e+00  -4.6966769e+00   1.0282252e+00   1.7986793e-01  -6.1130284e-01  -4.0100005e+00  -5.8435449e+00   4.8395120e+00   2.3742670e+00   7.9504225e-01  -3.8818111e+00  -3.8279531e+00   2.5130727e+00   0.0000000e+00   3.0000000e+01   0.0000000e+00   0.0000000e+00
  -1.0187070e+00  -5.2716614e+00   2.7134727e+00   4.8502325e+00   3.2590231e-02  -9.7520146e+00   1.4581435e+00   4.3397158e+00  -5.0654153e+00   6.0451308e-01   6.3208013e-01  -1.7111612e+00  -5.0295544e+00  -6.1669102e+00   4.8851582e+00   2.9126233e+00   8.6199748e-01  -4.7677627e+00  -4.1651166e+00   2.8783495e+00   0.0000000e+00   3.0000000e+01   5.0000000e+01   0.0000000e+00
  -2.8442595e-01  -4.4059915e+00   3.2925403e+00   5.0120372e+00   1.7965492e-01  -1.0259046e+01   1.5079250e+00   4.7688517e+00  -5.5003015e+00  -1.5033428e-01   8.0573638e-01  -2.0128059e+00  -6.0715546e+00  -6.7849814e+00   4.4669948e+00   3.2218085e+00   2.7240244e-01  -6.0233819e+00  -4.7804796e+00   3.0140237e+00   0.0000000e+00   3.0000000e+01   5.0000000e+01   0.0000000e+00
   5.8367013e-01  -3.5700052e+00   3.6867337e+00   4.8398686e+00  -3.8721311e-01  -1.1165927e+01   1.4015657e+00   4.9306027e+00  -5.8254264e+00  -9.5961172e-01   7.3727035e-01  -1.7872482e+00  -6.8856042e+00  -7.8374673e+00   3.6478799e+00   3.2926557e+00  -1.0323568e+00  -7.7321568e+00  -5.6664038e+00   2.9362445e+00   0.0000000e+00   3.0000000e+01   5.0000000e+01   0.0000000e+00
   1.0283068e+00  -3.0238958e+00   3.9727210e+00   4.4414941e+00  -1.3764168e+00  -1.2116099e+01   1.2846070e+00   5.0611616e+00  -6.0094096e+00  -1.7550324e+00   4.2196804e-01  -1.7701074e+00  -7.4367506e+00  -9.3008530e+00   2.6727779e+00   3.2230952e+00  -2.5804183e+00  -9.5262921e+00  -6.5305998e+00   2.8449148e+00   0.0000000e+00   3.0000000e+01   5.0000000e+01   0.0000000e+00
   8.3873075e-01  -2.6892128e+00   4.2872180e+00   3.8997655e+00  -2.2500808e+00  -1.2635585e+01   1.3938345e+00   5.3170336e+00  -6.1047997e+00  -2.6129879e+00  -1.7799626e-01  -2.3775788e+00  -7.7878839e+00  -1.0826697e+01   1.8352921e+00   3.1223791e+00  -3.7072580e+00  -1.0788550e+01  -6.9604596e+00   2.9174551e+00   0.0000000e+00   3.0000000e+01   5.0000000e+01   0.0000000e+00
   2.4128917e-01  -2.3315461e+00   4.6876243e+00   3.2847956e+00  -2.6324491e+00  -1.2457545e+01   1.8635972e+00   5.8314604e+00  -6.0445214e+00  -3.4241117e+00  -6.8149780e-01  -3.1341985e+00  -7.8639572e+00  -1.1956527e+01   1.3921457e+00   3.1775505e+00  -3.9122259e+00  -1.1008247e+01  -6.7450556e+00   3.3094888e+00   0.0000000e+00   3.0000000e+01   5.0000000e+01   0.0000000e+00
  -4.7269468e-01  -1.9820944e+00   4.9763075e+00   2.3384916e+00  -2.6387655e+00  -1.1823421e+01   2.3809394e+00   6.4535881e+00  -5.8769866e+00  -3.9363155e+00  -9.3944090e-01  -3.5338908e+00  -7.6766940e+00  -1.2577329e+01   1.2480272e+00   3.2483984e+00  -3.2574526e+00  -1.0423555e+01  -6.2245340e+00   3.7535136e+00   0.0000000e+00   3.0000000e+01   5.0000000e+01   0.0000000e+00
  -1.1023483e+00  -1.8958684e+00   4.8787966e+00   1.2835805e+00  -2.5239841e+00  -1.1201832e+01   2.5199539e+00   6.7994944e+00  -5.6463599e+00  -4.0314511e+00  -9.8586764e-01  -3.5702828e+00  -7.2524061e+00  -1.2734030e+01   1.2451511e+00   3.0863812e+00  -2.2131805e+00  -9.5826951e+00  -5.8112898e+00   3.8436318e+00   0.0000000e+00   3.0000000e+01   5.0000000e+01   0.0000000e+00
  -1.5763581e+00  -2.2095689e+00   4.3819225e+00   8.9578703e-01  -2.3347862e+00  -1.0918769e+01   2.2391309e+00   6.7770851e+00  -5.3497130e+00  -3.6794774e+00  -9.1035549e-01  -3.3507742e+00  -6.6565154e+00  -1.2438434e+01   1.4076136e+00   2.7417097e+00  -1.2270606e+00  -8.8771847e+00  -5.6189848e+00   3.6002292e+00   0.0000000e+00   3.0000000e+01   5.0000000e+01   0.0000000e+00
  -1.9860321e+00  -2.8069952e+00   3.7354554e+00   1.1011035e+00  -2.1097808e+00  -1.0994090e+01   1.7925055e+00   6.5652630e+00  -4.9317394e+00  -2.9313773e+00  -6.8014415e-01  -3.5416378e+00  -6.1707412e+00  -1.1743457e+01   1.8536185e+00   2.5058330e+00  -6.3856970e-01  -8.4771767e+00  -5.5264041e+00   3.3608292e+00   0.0000000e+00   3.0000000e+01   5.0000000e+01   0.0000000e+00
  -2.4863243e+00  -3.4863753e+00   3.1825870e+00   1.1034487e+00  -2.0727804e+00  -1.1191679e+01   1.4167857e+00   6.3726000e+00  -4.3428265e+00  -1.9946702e+00  -2.2740591e-01  -4.0780499e+00  -6.0339675e+00  -1.0776627e+01   2.6090603e+00   2.5351827e+00  -6.5165833e-01  -8.3729773e+00  -5.4119107e+00   3.4106808e+00   0.0000000e+00   3.0000000e+01   5.0000000e+01   0.0000000e+00
  -3.1340667e+00  -4.1905949e+00   2.7703638e+00   6.1737482e-01  -2.4943908e+00  -1.1428951e+01   1.2213133e+00   6.3453930e+00  -3.6258778e+00  -1.1802202e+00   4.2030921e-01  -4.0257707e+00  -6.2095408e+00  -9.7343469e+00   3.4562842e+00   2.7614509e+00  -1.2886609e+00  -8.4007616e+00  -5.2716552e+00   3.7775087e+00   0.0000000e+00   3.0000000e+01   5.0000000e+01   0.0000000e+00
  -3.7506159e+00  -4.9159760e+00   2.5524019e+00  -2.0645983e-01  -3.3882782e+00  -1.1712767e+01   1.3571843e+00   6.6295776e+00  -2.9515566e+00  -5.1646270e-01   1.0169124e+00  -3.3493326e+00  -6.4880610e+00  -8.8018124e+00   4.2254006e+00   3.1513906e+00  -2.3362527e+00  -8.3469390e+00  -4.8973631e+00   4.4069102e+00   0.0000000e+00   3.0000000e+01   5.0000000e+01   0.0000000e+00
  -4.1255649e+00  -5.6369363e+00   2.5790836e+00  -1.5023295e+00  -4.5023032e+00  -1.2029912e+01   1.7953219e+00   7.2632318e+00  -2.5125613e+00   1.8426126e-02   1.4203726e+00  -3.1802046e+00  -6.8090958e+00  -8.2848738e+00   4.7888130e+00   3.7580339e+00  -3.4862090e+00  -8.2119136e+00  -4.2083984e+00   5.2095097e+00   0.0000000e+00   3.0000000e+01   5.0000000e+01   0.0000000e+00
  -4.1866026e+00  -6.2295633e+00   2.8400639e+00  -2.8949329e+00  -5.3751228e+00  -1.2258058e+01   2.3691098e+00   8.2034707e+00  -2.5483771e+00   1.5249806e-01   1.6335210e+00  -3.9777088e+00  -7.3654869e+00  -8.3942467e+00   5.1283654e+00   4.5591768e+00  -4.4390889e+00  -8.1440629e+00  -3.3235933e+00   6.2008083e+00   0.0000000e+00   3.0000000e+01   5.0000000e+01   0.0000000e+00
  -3.8953662e+00  -6.5793560e+00   3.2374588e+00  -3.5230900e+00  -5.6277375e+00  -1.2188063e+01   2.9683433e+00   9.3013726e+00  -3.0731953e+00  -3.4542168e-01   1.8039678e+00  -5.1967484e+00  -8.2264051e+00  -8.9994566e+00   5.3706615e+00   5.5001728e+00  -4.9194947e+00  -8.0501514e+00  -2.2583837e+00   7.3672803e+00   0.0000000e+00   3.0000000e+01   5.0000000e+01   0.0000000e+00
  -3.3485793e+00  -6.7504214e+00   3.6196139e+00  -3.1311868e+00  -5.3647130e+00  -1.1800710e+01   3.4193474e+00   1.0324242e+01  -3.7459369e+00  -1.1651695e+00   1.9168739e+00  -5.9020270e+00  -9.0807308e+00  -9.7515046e+00   5.5797809e+00   6.4688508e+00  -4.7458440e+00  -7.7864761e+00  -1.1586076e+00   8.4799024e+00   0.0000000e+00   3.0000000e+01   5.0000000e+01   0.0000000e+00
  -2.9335827e+00  -7.0356835e+00   3.6955977e+00  -2.7157894e+00  -5.1861777e+00  -1.1458462e+01   3.3745792e+00   1.0985211e+01  -4.0988289e+00  -1.7947587e+00   2.0756921e+00  -5.5430637e+00  -9.4776710e+00  -1.0328926e+01   5.7251310e+00   7.3124697e+00  -4.0911158e+00  -7.4310630e+00  -3.8623891e-01   9.2043738e+00   0.0000000e+00   3.0000000e+01   5.0000000e+01   0.0000000e+00
  -2.9929323e+00  -7.6195476e+00   3.3420608e+00  -3.0294033e+00  -5.5840077e+00  -1.1574943e+01   2.6882387e+00   1.1167376e+01  -4.1329195e+00  -2.1581892e+00   2.3708006e+00  -4.9849518e+00  -9.4722986e+00  -1.0639089e+01   5.8363823e+00   7.9175650e+00  -3.5634885e+00  -7.3009055e+00  -1.3777950e-01   9.5055598e+00   0.0000000e+00   3.0000000e+01   5.0000000e+01   0.0000000e+00
  -3.4042700e+00  -8.4453026e+00   2.7938386e+00  -3.8361889e+00  -6.5534251e+00  -1.2366007e+01   1.5456644e+00   1.1051363e+01  -4.1324407e+00  -2.4330005e+00   2.8672317e+00  -5.3358466e+00  -9.6039233e+00  -1.0856927e+01   5.9358957e+00   8.3969483e+00  -3.7900263e+00  -7.7152977e+00  -3.7731048e-01   9.6222431e+00   0.0000000e+00   3.0000000e+01   5.0000000e+01   0.0000000e+00
  -3.7399253e+00  -9.3340912e+00   2.2382869e+00  -4.5766720e+00  -7.6542679e+00  -1.3680867e+01   1.8846398e-01   1.0806436e+01  -4.3062812e+00  -2.7077483e+00   3.3166729e+00  -6.0334118e+00  -1.0154186e+01  -1.1064686e+01   5.9613506e+00   8.7905237e+00  -4.8048260e+00  -8.7322259e+00  -9.5528719e-01   9.6138181e+00   0.0000000e+00   3.0000000e+01   5.0000000e+01   0.0000000e+00
  -3.8594153e+00  -1.0125200e+01   1.6035652e+00  -4.7689791e+00  -8.4578831e+00  -1.5055794e+01  -1.1019085e+00   1.0430611e+01  -4.6448579e+00  -2.9446106e+00   3.4216197e+00  -5.9059341e+00  -1.0869262e+01  -1.1058820e+01   5.8589678e+00   8.9372036e+00  -6.0932328e+00  -9.8992220e+00  -1.6239429e+00   9.3595867e+00   0.0000000e+00   3.0000000e+01   5.0000000e+01   0.0000000e+00
  -4.0720024e+00  -1.0749775e+01   9.9714345e-01  -4.7141033e+00  -9.0502280e+00  -1.6190698e+01  -1.9930948e+00   9.9454801e+00  -5.0241084e+00  -3.1486193e+00   3.1602596e+00  -5.3284532e+00  -1.1393447e+01  -1.0769279e+01   5.5860434e+00   8.6666202e+00  -7.2680073e+00  -1.0791627e+01  -2.2039979e+00   8.8753841e+00   0.0000000e+00   3.0000000e+01   5.0000000e+01   0.0000000e+00
  -4.6692859e+00  -1.1211793e+01   6.9394085e-01  -5.2946821e+00  -9.7799912e+00  -1.7071355e+01  -2.3424928e+00   9.4674690e+00  -5.2707090e+00  -3.3971388e+00   2.7528060e+00  -5.4194511e+00  -1.1716615e+01  -1.0638029e+01   5.0047328e+00   7.9954956e+00  -8.3812262e+00  -1.1469183e+01  -2.7289963e+00   8.2399755e+00   0.0000000e+00   3.0000000e+01   5.0000000e+01   0.0000000e+00
  -5.5410767e+00  -1.1468655e+01   7.7195418e-01  -6.6623167e+00  -1.0712318e+01  -1.7749897e+01  -2.1779213e+00   9.0853295e+00  -5.3065968e+00  -3.8572191e+00   2.0644555e+00  -6.3204494e+00  -1.2053365e+01  -1.1156190e+01   3.9879987e+00   7.0112444e+00  -9.5822835e+00  -1.2203492e+01  -3.2167184e+00   7.4306045e+00   0.0000000e+00   3.0000000e+01   5.0000000e+01   0.0000000e+00
  -6.3511655e+00  -1.1497915e+01   1.0863445e+00  -7.8286288e+00  -1.1666078e+01  -1.8281675e+01  -1.6340527e+00   8.7142016e+00  -5.2433221e+00  -4.7020734e+00   1.1292506e+00  -7.2470310e+00  -1.2559106e+01  -1.2384685e+01   2.5798798e+00   5.8539508e+00  -1.0880727e+01  -1.3035094e+01  -3.6046290e+00   6.4475566e+00   0.0000000e+00   0.0000000e+00   5.0000000e+01   0.0000000e+00
  -6.8546189e+00  -1.1372820e+01   1.4158845e+00  -8.3049445e+00  -1.2424005e+01  -1.8711180e+01  -1.0462549e+00   8.2732432e+00  -5.3953994e+00  -5.8642646e+00   1.5671702e-01  -7.4627969e+00  -1.3270470e+01  -1.3993449e+01   1.0109157e+00   4.6832390e+00  -1.2197440e+01  -1.3945048e+01  -3.9899411e+00   5.3939169e+00   0.0000000e+00   0.0000000e+00   5.0000000e+01   0.0000000e+00
  -6.9068434e+00  -1.1150701e+01   1.6295997e+00  -8.4778849e+00  -1.2771376e+01  -1.9013692e+01  -7.4977670e-01   7.7873753e+00  -5.9229426e+00  -7.2198441e+00  -5.7008274e-01  -7.2255512e+00  -1.3994757e+01  -1.5492877e+01  -3.9742514e-01   3.6622077e+00  -1.3306165e+01  -1.4790167e+01  -4.5236813e+00   4.3760497e+00   0.0000000e+00   0.0000000e+00   5.0000000e+01   0.0000000e+00
  -6.5378384e+00  -1.0844519e+01   1.6471179e+00  -8.4438424e+00  -1.2621552e+01  -1.9116079e+01  -8.3165751e-01   7.1785616e+00  -6.8067155e+00  -8.5216687e+00  -9.4061534e-01  -7.2362720e+00  -1.4503842e+01  -1.6513635e+01  -1.4025205e+00   2.8094137e+00  -1.3972007e+01  -1.5356617e+01  -5.2458874e+00   3.4041386e+00   0.0000000e+00   0.0000000e+00   5.0000000e+01   0.0000000e+00
  -6.0878514e+00  -1.0637366e+01   1.2776076e+00  -8.2650141e+00  -1.2317392e+01  -1.9264662e+01  -1.3918897e+00   6.2973821e+00  -7.8019037e+00  -9.3854047e+00  -9.8704018e-01  -7.7177262e+00  -1.4768767e+01  -1.7026223e+01  -1.9937841e+00   2.0687641e+00  -1.4363775e+01  -1.5752731e+01  -6.2744294e+00   2.4146378e+00   0.0000000e+00   0.0000000e+00   5.0000000e+01   0.0000000e+00
  -5.8714795e+00  -1.0696967e+01   4.5436235e-01  -8.1671957e+00  -1.2311072e+01  -1.9786141e+01  -2.4715629e+00   5.1831188e+00  -8.5150900e+00  -9.7302107e+00  -9.1252967e-01  -8.6190493e+00  -1.4888790e+01  -1.7136845e+01  -2.2825423e+00   1.4165574e+00  -1.4762110e+01  -1.6304857e+01  -7.6056763e+00   1.4623122e+00   0.0000000e+00   0.0000000e+00   5.0000000e+01   0.0000000e+00
  -5.9072194e+00  -1.0934829e+01  -5.5215803e-01  -8.2076287e+00  -1.2656557e+01  -2.0537284e+01  -3.7478393e+00   4.1365432e+00  -8.6241111e+00  -9.6747331e+00  -8.2497520e-01  -9.3260062e+00  -1.4813916e+01  -1.6766879e+01  -2.2959916e+00   1.0359095e+00  -1.5118625e+01  -1.6852419e+01  -8.8303452e+00   7.8922377e-01   0.0000000e+00   0.0000000e+00   5.0000000e+01   0.0000000e+00
  -6.0088006e+00  -1.1115568e+01  -1.3431644e+00  -8.2607088e+00  -1.3039799e+01  -2.1076192e+01  -4.7419753e+00   3.4151015e+00  -8.0778799e+00  -9.1991841e+00  -8.9077400e-01  -9.1409337e+00  -1.4389003e+01  -1.5814239e+01  -2.1186521e+00   9.9445051e-01  -1.5210626e+01  -1.6950643e+01  -9.5563340e+00   4.5717843e-01   0.0000000e+00   0.0000000e+00   5.0000000e+01   0.0000000e+00
  -5.9050292e+00  -1.0998545e+01  -1.6338239e+00  -8.0787910e+00  -1.3078382e+01  -2.1072370e+01  -5.1208695e+00   3.0168699e+00  -7.1949596e+00  -8.5983983e+00  -1.1550646e+00  -8.6603166e+00  -1.3745527e+01  -1.4578333e+01  -2.0362765e+00   1.0528980e+00  -1.4891160e+01  -1.6351198e+01  -9.7662543e+00   2.3480798e-01   0.0000000e+00   0.0000000e+00   5.0000000e+01   0.0000000e+00
  -5.5411428e+00  -1.0446147e+01  -1.3063930e+00  -7.7659188e+00  -1.2645883e+01  -2.0493639e+01  -4.7886241e+00   2.9083975e+00  -6.5541990e+00  -8.3417313e+00  -1.6426501e+00  -8.5613243e+00  -1.3317869e+01  -1.3677122e+01  -2.2009199e+00   1.0262223e+00  -1.4275708e+01  -1.5266744e+01  -9.6225562e+00   5.5259364e-03   0.0000000e+00   0.0000000e+00   5.0000000e+01   0.0000000e+00
  -5.1944419e+00  -9.6587272e+00  -6.0361920e-01  -7.4198847e+00  -1.2006727e+01  -1.9659148e+01  -3.9844299e+00   2.8691410e+00  -6.4403171e+00  -8.5275671e+00  -2.1920637e+00  -8.6791041e+00  -1.3448286e+01  -1.3531582e+01  -2.5266326e+00   8.9074952e-01  -1.3727353e+01  -1.4196870e+01  -9.3044800e+00  -2.7567022e-01   0.0000000e+00   0.0000000e+00   5.0000000e+01   0.0000000e+00
  -5.0711086e+00  -8.9599555e+00   1.4508711e-01  -6.9799532e+00  -1.1548584e+01  -1.8857165e+01  -2.9482638e+00   2.7134565e+00  -6.7882446e+00  -8.9655781e+00  -2.6545251e+00  -9.0844326e+00  -1.4093292e+01  -1.3961434e+01  -2.7600917e+00   6.9733699e-01  -1.3552821e+01  -1.3443168e+01  -8.7836936e+00  -5.3955814e-01   0.0000000e+00   0.0000000e+00   5.0000000e+01   0.0000000e+00
  -5.2109780e+00  -8.5350684e+00   7.8474256e-01  -6.7092747e+00  -1.1531254e+01  -1.8207304e+01  -1.8157096e+00   2.5303876e+00  -7.4210713e+00  -9.3612981e+00  -2.7762377e+00  -9.5656301e+00  -1.4996033e+01  -1.4553976e+01  -2.7057407e+00   6.1933680e-01  -1.3887546e+01  -1.2973886e+01  -8.0041656e+00  -6.4452943e-01   0.0000000e+00   0.0000000e+00   5.0000000e+01   0.0000000e+00
  -5.7554146e+00  -8.4027673e+00   1.3524679e+00  -7.2723477e+00  -1.2064216e+01  -1.7707665e+01  -6.9542681e-01   2.5822125e+00  -8.2561716e+00  -9.5910161e+00  -2.4479066e+00  -1.0030666e+01  -1.6029910e+01  -1.4996162e+01  -2.2301906e+00   7.8908568e-01  -1.4655186e+01  -1.2731519e+01  -6.9467410e+00  -4.4046735e-01   0.0000000e+00   0.0000000e+00   5.0000000e+01   0.0000000e+00
  -6.7634073e+00  -8.5545043e+00   1.8395591e+00  -8.7291244e+00  -1.2943143e+01  -1.7298883e+01   2.0352979e-01   2.9577688e+00  -9.1353497e+00  -9.5948711e+00  -1.6762155e+00  -1.0633636e+01  -1.7032775e+01  -1.5082815e+01  -1.3103697e+00   1.2775852e+00  -1.5556772e+01  -1.2585529e+01  -5.6858087e+00   9.8892849e-02   0.0000000e+00   0.0000000e+00   5.0000000e+01   0.0000000e+00
  -7.8457152e+00  -8.8375519e+00   2.1368620e+00  -1.0145426e+01  -1.3546115e+01  -1.6852668e+01   6.9460955e-01   3.4479439e+00  -9.8573928e+00  -9.2798210e+00  -6.5581769e-01  -1.1326673e+01  -1.7683121e+01  -1.4673032e+01  -1.2392270e-01   1.9660917e+00  -1.6160200e+01  -1.2403152e+01  -4.5192787e+00   7.5697350e-01   0.0000000e+00   0.0000000e+00   5.0000000e+01   0.0000000e+00
  -8.5194640e+00  -9.0492658e+00   2.1330149e+00  -1.0685145e+01  -1.3382961e+01  -1.6336768e+01   6.9305328e-01   3.6957141e+00  -1.0303573e+01  -8.6325549e+00   3.2582255e-01  -1.2146819e+01  -1.7692499e+01  -1.3744900e+01   9.7175225e-01   2.5058497e+00  -1.6103789e+01  -1.2142611e+01  -3.8022754e+00   1.1407568e+00   0.0000000e+00   0.0000000e+00   5.0000000e+01   0.0000000e+00
  -8.6739575e+00  -9.0958676e+00   1.8356041e+00  -1.0212054e+01  -1.2486246e+01  -1.5770052e+01   2.4180774e-01   3.4734555e+00  -1.0413221e+01  -7.7225392e+00   8.2422009e-01  -1.2710203e+01  -1.6908135e+01  -1.2354873e+01   1.6468895e+00   2.5619407e+00  -1.5215268e+01  -1.1798128e+01  -3.6126465e+00   1.0168483e+00   0.0000000e+00   0.0000000e+00   5.0000000e+01   0.0000000e+00
  -8.4151619e+00  -8.9583952e+00   1.3986109e+00  -8.9733875e+00  -1.1111264e+01  -1.5131555e+01  -4.4456894e-01   2.9722471e+00  -1.0035585e+01  -6.7612358e+00   8.6550818e-01  -1.1847223e+01  -1.5294553e+01  -1.0754182e+01   1.7946007e+00   2.2807496e+00  -1.3530885e+01  -1.1178448e+01  -3.7267104e+00   5.2781648e-01   0.0000000e+00   0.0000000e+00   5.0000000e+01   0.0000000e+00
  -7.9977781e+00  -8.8264091e+00   8.9217040e-01  -7.5826101e+00  -9.6274775e+00  -1.4663566e+01  -1.2318552e+00   2.4436595e+00  -9.2515654e+00  -5.9696805e+00   6.3868620e-01  -9.7477053e+00  -1.3138709e+01  -9.4389310e+00   1.5334655e+00   2.0014465e+00  -1.1498006e+01  -1.0353870e+01  -3.9466525e+00  -6.8340916e-02   0.0000000e+00   0.0000000e+00   5.0000000e+01   0.0000000e+00
  -7.8231832e+00  -8.9655574e+00   2.4110193e-01  -7.0984655e+00  -8.6906740e+00  -1.4811758e+01  -2.1133159e+00   1.9121236e+00  -8.3267272e+00  -5.3238233e+00   3.6786155e-01  -8.5286860e+00  -1.1158592e+01  -8.8258757e+00   1.0743448e+00   1.8505191e+00  -1.0052375e+01  -9.8055771e+00  -4.2843827e+00  -6.6662748e-01   0.0000000e+00   0.0000000e+00   5.0000000e+01   0.0000000e+00
  -8.0330547e+00  -9.2957622e+00  -4.6736301e-01  -7.5538513e+00  -8.5859575e+00  -1.5621686e+01  -2.9213845e+00   1.4345606e+00  -7.5815949e+00  -4.8384593e+00   1.4650946e-01  -8.6633466e+00  -1.0022346e+01  -8.9890334e+00   5.7873990e-01   1.7440236e+00  -9.8468478e+00  -9.9513677e+00  -4.7749629e+00  -1.1878539e+00   0.0000000e+00   0.0000000e+00   5.0000000e+01   0.0000000e+00
  -8.4373980e+00  -9.5557435e+00  -1.0396295e+00  -8.1580568e+00  -9.0001780e+00  -1.6726225e+01  -3.4386603e+00   1.1000945e+00  -7.2112098e+00  -4.7241405e+00   2.5181920e-02  -8.9403950e+00  -9.8804560e+00  -9.7860003e+00   9.5442274e-02   1.6700716e+00  -1.0698511e+01  -1.0781142e+01  -5.3139976e+00  -1.5781833e+00   0.0000000e+00   0.0000000e+00   5.0000000e+01   0.0000000e+00
  -8.7799022e+00  -9.5424517e+00  -1.2767571e+00  -8.5228714e+00  -9.4388611e+00  -1.7545947e+01  -3.4461741e+00   1.0393935e+00  -7.0120466e+00  -4.8776328e+00   7.5371123e-02  -8.8547606e+00  -1.0291043e+01  -1.0701215e+01  -1.5618420e-01   1.7689739e+00  -1.1828277e+01  -1.1746960e+01  -5.5027490e+00  -1.6500358e+00   0.0000000e+00   0.0000000e+00   5.0000000e+01   0.0000000e+00
  -9.0844279e+00  -9.3650206e+00  -1.1285765e+00  -8.9862080e+00  -9.8438414e+00  -1.7837971e+01  -2.9227296e+00   1.3365533e+00  -6.6800449e+00  -4.8402684e+00   4.4581430e-01  -9.1650960e+00  -1.0743521e+01  -1.1167167e+01   1.0563110e-01   2.1803334e+00  -1.2792993e+01  -1.2311119e+01  -5.0789457e+00  -1.2049699e+00   0.0000000e+00   0.0000000e+00   5.0000000e+01   0.0000000e+00
  -9.5218420e+00  -9.3219666e+00  -8.0840115e-01  -9.6440358e+00  -1.0431250e+01  -1.7839951e+01  -2.1306246e+00   1.9657187e+00  -6.1001290e+00  -4.1959851e+00   1.1461631e+00  -1.0015337e+01  -1.0866638e+01  -1.0905006e+01   9.9029713e-01   2.8689910e+00  -1.3627199e+01  -1.2527572e+01  -4.2126197e+00  -2.4579891e-01   0.0000000e+00   0.0000000e+00   5.0000000e+01   0.0000000e+00
  -1.0073648e+01  -9.5275859e+00  -6.4734997e-01  -1.0161413e+01  -1.1159001e+01  -1.7858913e+01  -1.4756520e+00   2.7473596e+00  -5.1470147e+00  -3.0375469e+00   2.0938325e+00  -1.0246930e+01  -1.0431320e+01  -9.9925726e+00   2.2331062e+00   3.6969030e+00  -1.4339155e+01  -1.2652506e+01  -3.2847127e+00   9.7631337e-01   0.0000000e+00   0.0000000e+00   5.0000000e+01   0.0000000e+00
  -1.0530228e+01  -9.9022526e+00  -9.5053112e-01  -1.0359537e+01  -1.1675743e+01  -1.8008453e+01  -1.3947329e+00   3.2655231e+00  -3.7968004e+00  -1.7548338e+00   2.9271326e+00  -9.2494240e+00  -9.4979785e+00  -8.7234093e+00   3.2802256e+00   4.3372152e+00  -1.4762412e+01  -1.2794794e+01  -2.7108285e+00   1.9108651e+00   0.0000000e+00   0.0000000e+00   5.0000000e+01   0.0000000e+00
  -1.0712340e+01  -1.0346538e+01  -1.8211507e+00  -1.0103515e+01  -1.1754658e+01  -1.8213858e+01  -2.0137246e+00   3.1992546e+00  -2.0971110e+00  -5.9269107e-01   3.3827573e+00  -7.5157470e+00  -8.1651918e+00  -7.3754867e+00   3.7674408e+00   4.4968584e+00  -1.4727713e+01  -1.2741116e+01  -2.6528174e+00   2.1246399e+00   0.0000000e+00   0.0000000e+00   5.0000000e+01   0.0000000e+00
  -1.0702020e+01  -1.0807510e+01  -2.9587221e+00  -9.7130118e+00  -1.1747144e+01  -1.8512171e+01  -2.9984561e+00   2.6516770e+00  -3.2367798e-01   3.1118454e-01   3.3352031e+00  -6.2911909e+00  -6.7816148e+00  -6.4627660e+00   3.6057081e+00   4.0250629e+00  -1.4478979e+01  -1.2461701e+01  -3.0202201e+00   1.6159314e+00   0.0000000e+00   0.0000000e+00   5.0000000e+01   0.0000000e+00
  -1.0722878e+01  -1.1353456e+01  -4.0421907e+00  -9.8355402e+00  -1.2151763e+01  -1.9087783e+01  -4.0863603e+00   1.8985581e+00   1.2319600e+00   9.1932952e-01   3.0233725e+00  -6.1270651e+00  -5.7982182e+00  -6.3685873e+00   2.8889290e+00   2.9394790e+00  -1.4473902e+01  -1.2277783e+01  -3.7582522e+00   5.4576977e-01   0.0000000e+00   0.0000000e+00   5.0000000e+01   0.0000000e+00
  -1.0767615e+01  -1.1994327e+01  -5.0214053e+00  -1.0084648e+01  -1.2830621e+01  -1.9815317e+01  -5.1599143e+00   1.1646910e+00   2.5893698e+00   1.4353012e+00   2.7043309e+00  -5.9046655e+00  -5.1939161e+00  -6.6899054e+00   2.0735670e+00   1.5125376e+00  -1.4632666e+01  -1.2297848e+01  -4.6396526e+00  -7.4117942e-01   0.0000000e+00   0.0000000e+00   5.0000000e+01   0.0000000e+00
  -1.0768755e+01  -1.2493962e+01  -5.8562213e+00  -1.0184696e+01  -1.3331621e+01  -2.0309833e+01  -5.9735931e+00   5.7583784e-01   3.8190623e+00   1.8888981e+00   2.5636325e+00  -5.5203174e+00  -4.8249679e+00  -6.9710190e+00   1.5372619e+00   7.8309264e-02  -1.4646622e+01  -1.2380275e+01  -5.3056924e+00  -1.8567955e+00   0.0000000e+00   0.0000000e+00   5.0000000e+01   0.0000000e+00
  -1.1071976e+01  -1.2594314e+01  -6.2492299e+00  -1.1325777e+01  -1.3719135e+01  -2.0301935e+01  -6.1824916e+00   1.6065561e-01   4.5285923e+00   2.0711035e+00   2.5843326e+00  -6.9983354e+00  -5.0490883e+00  -7.2371533e+00   1.3108078e+00  -1.2166432e+00  -1.4668219e+01  -1.2459144e+01  -5.4985061e+00  -2.6303753e+00   0.0000000e+00   0.0000000e+00   5.0000000e+01   0.0000000e+00
  -1.1744633e+01  -1.2257789e+01  -6.0500779e+00  -1.3765296e+01  -1.4110956e+01  -1.9797618e+01  -5.7099453e+00  -2.2958545e-01   4.4757200e+00   1.7596805e+00   2.7123849e+00  -1.0422006e+01  -5.9937698e+00  -7.5631260e+00   1.2921398e+00  -2.4170004e+00  -1.4835931e+01  -1.2424856e+01  -5.2039451e+00  -3.1837063e+00   0.0000000e+00   0.0000000e+00   5.0000000e+01   0.0000000e+00
  -1.2291332e+01  -1.1607815e+01  -5.5268762e+00  -1.6053954e+01  -1.4231201e+01  -1.8907730e+01  -4.8653883e+00  -8.4378123e-01   4.0739693e+00   1.0280015e+00   2.8470288e+00  -1.3299724e+01  -7.0758538e+00  -7.7119821e+00   1.3838556e+00  -3.7119565e+00  -1.4890870e+01  -1.2165540e+01  -4.6446321e+00  -3.7966382e+00   0.0000000e+00   0.0000000e+00   5.0000000e+01   0.0000000e+00
  -1.2335516e+01  -1.0787499e+01  -4.9529859e+00  -1.6932608e+01  -1.3819761e+01  -1.7715019e+01  -3.9808530e+00  -1.6462824e+00   3.8515069e+00   3.4162979e-01   3.1370273e+00  -1.4466665e+01  -7.6932509e+00  -7.4071522e+00   1.5779342e+00  -4.9433078e+00  -1.4588323e+01  -1.1606030e+01  -4.0368486e+00  -4.4889685e+00   0.0000000e+00   0.0000000e+00   5.0000000e+01   0.0000000e+00
  -1.1883571e+01  -9.9347488e+00  -4.4178487e+00  -1.6517127e+01  -1.2892267e+01  -1.6370561e+01  -3.3215981e+00  -2.4594437e+00   3.8559671e+00  -1.2696283e-01   3.4656074e+00  -1.4704663e+01  -7.6925293e+00  -6.8134350e+00   1.6743049e+00  -5.9689596e+00  -1.3842244e+01  -1.0895508e+01  -3.6417107e+00  -5.1675476e+00   0.0000000e+00   0.0000000e+00   5.0000000e+01   0.0000000e+00
  -1.1216771e+01  -9.2028204e+00  -4.0273546e+00  -1.5693785e+01  -1.1664400e+01  -1.5125986e+01  -3.0940948e+00  -3.3041161e+00   3.8620733e+00  -5.7020708e-01   3.4445308e+00  -1.4786382e+01  -7.2879609e+00  -6.3303171e+00   1.2869914e+00  -6.8438283e+00  -1.2785561e+01  -1.0088994e+01  -3.6572877e+00  -5.9459963e+00   0.0000000e+00   0.0000000e+00   5.0000000e+01   0.0000000e+00
  -1.0568128e+01  -8.6255413e+00  -3.7972873e+00  -1.4916127e+01  -1.0387543e+01  -1.4211250e+01  -3.2089016e+00  -4.1922139e+00   3.7272563e+00  -9.8121440e-01   2.7911662e+00  -1.4847557e+01  -6.7369872e+00  -6.1834506e+00   4.0215541e-01  -7.5427645e+00  -1.1752069e+01  -9.1340912e+00  -3.9362763e+00  -6.8418171e+00   0.0000000e+00   0.0000000e+00   5.0000000e+01   0.0000000e+00
  -1.0049126e+01  -8.1714397e+00  -3.6044749e+00  -1.4212065e+01  -9.3503784e+00  -1.3725675e+01  -3.3457766e+00  -4.9818810e+00   3.5530931e+00  -1.1394113e+00   1.8352617e+00  -1.4601506e+01  -6.1386434e+00  -6.3492903e+00  -4.9217183e-01  -8.0160778e+00  -1.1097459e+01  -8.2097944e+00  -4.1263785e+00  -7.5911936e+00   0.0000000e+00   0.0000000e+00   5.0000000e+01   0.0000000e+00
  -9.6166020e+00  -7.7225496e+00  -3.2961292e+00  -1.3627024e+01  -8.5758424e+00  -1.3451107e+01  -3.1858540e+00  -5.4761716e+00   3.5511826e+00  -8.7607281e-01   1.0511525e+00  -1.4135919e+01  -5.4302861e+00  -6.4292016e+00  -8.5998294e-01  -8.2094076e+00  -1.0815725e+01  -7.5201039e+00  -3.9043384e+00  -7.9118979e+00   0.0000000e+00   0.0000000e+00   5.0000000e+01   0.0000000e+00
  -9.2239687e+00  -7.1986004e+00  -2.9462608e+00  -1.3264276e+01  -7.8817294e+00  -1.3069231e+01  -2.6987969e+00  -5.6967282e+00   3.8649218e+00  -3.0344337e-01   5.5302952e-01  -1.3996205e+01  -4.5215302e+00  -6.0732381e+00  -6.4535888e-01  -8.0962402e+00  -1.0579861e+01  -6.8824780e+00  -3.2535236e+00  -7.8620153e+00   0.0000000e+00   0.0000000e+00   5.0000000e+01   0.0000000e+00
  -8.9063687e+00  -6.6160780e+00  -2.7252613e+00  -1.3013723e+01  -7.1904866e+00  -1.2392766e+01  -2.0240165e+00  -5.7795310e+00   4.4530046e+00   3.4584224e-01   1.6070854e-01  -1.3853694e+01  -3.3980886e+00  -5.3183494e+00  -9.1632412e-02  -7.8100425e+00  -1.0193966e+01  -6.0723885e+00  -2.3842011e+00  -7.6055648e+00   0.0000000e+00   0.0000000e+00   5.0000000e+01   0.0000000e+00
  -8.6527731e+00  -6.0907094e+00  -2.6602049e+00  -1.2501990e+01  -6.6870608e+00  -1.1602566e+01  -1.3077563e+00  -5.8022765e+00   5.1898942e+00   9.7045317e-01  -7.3316446e-02  -1.3274018e+01  -2.2742819e+00  -4.5040872e+00   5.1465327e-01  -7.4920105e+00  -9.8860658e+00  -5.2299011e+00  -1.5514369e+00  -7.2531597e+00   0.0000000e+00   0.0000000e+00   5.0000000e+01   0.0000000e+00
  -8.4545595e+00  -5.7377978e+00  -2.6422258e+00  -1.1949810e+01  -6.6816346e+00  -1.1178307e+01  -7.2918598e-01  -5.7475784e+00   5.7678306e+00   1.4914206e+00  -1.6572845e-01  -1.2688770e+01  -1.4960185e+00  -3.9237019e+00   9.9744042e-01  -7.2390516e+00  -1.0016352e+01  -4.8103877e+00  -9.9427786e-01  -6.8582217e+00   0.0000000e+00   0.0000000e+00   5.0000000e+01   0.0000000e+00
  -8.3069995e+00  -5.6221658e+00  -2.6598651e+00  -1.2147830e+01  -7.2272422e+00  -1.1312506e+01  -5.2676808e-01  -5.5005815e+00   6.0848655e+00   1.9369572e+00  -1.1836133e-01  -1.2606075e+01  -1.0906349e+00  -3.5075330e+00   1.3962826e+00  -6.9258245e+00  -1.0531047e+01  -4.9052516e+00  -8.1159920e-01  -6.3567483e+00   0.0000000e+00   0.0000000e+00   5.0000000e+01   0.0000000e+00
  -8.1387261e+00  -5.6945668e+00  -2.8297243e+00  -1.2932501e+01  -7.8682765e+00  -1.1613829e+01  -8.0319819e-01  -5.0513568e+00   6.3025757e+00   2.4877903e+00  -1.6672383e-02  -1.2767471e+01  -7.8467669e-01  -2.9909236e+00   1.7767842e+00  -6.4115160e+00  -1.0884248e+01  -5.1163860e+00  -9.2184227e-01  -5.7638781e+00   0.0000000e+00   0.0000000e+00   5.0000000e+01   0.0000000e+00
  -7.9004458e+00  -5.8878119e+00  -3.2547986e+00  -1.3491347e+01  -8.1512782e+00  -1.1748828e+01  -1.5467261e+00  -4.5987957e+00   6.6468493e+00   3.0650882e+00   4.5298296e-02  -1.2583009e+01  -2.8937051e-01  -2.3950802e+00   2.0059084e+00  -5.7793821e+00  -1.0715827e+01  -5.1739158e+00  -1.3439860e+00  -5.2790906e+00   0.0000000e+00   0.0000000e+00   5.0000000e+01   0.0000000e+00
  -7.6125596e+00  -6.1370596e+00  -3.8049569e+00  -1.3603126e+01  -8.2176093e+00  -1.1982355e+01  -2.6182428e+00  -4.2634601e+00   7.0526945e+00   3.2306647e+00  -8.9728338e-02  -1.2043199e+01   2.7853702e-01  -2.2127260e+00   1.8408805e+00  -5.2265082e+00  -1.0338042e+01  -5.4439514e+00  -2.2167018e+00  -4.9594035e+00   0.0000000e+00   0.0000000e+00   5.0000000e+01   0.0000000e+00
  -7.3305896e+00  -6.3716095e+00  -4.2260505e+00  -1.3379247e+01  -8.4916905e+00  -1.2732359e+01  -3.7445275e+00  -3.8912107e+00   7.2015690e+00   2.7362019e+00  -2.7096752e-01  -1.1169082e+01   4.5763553e-01  -2.8561935e+00   1.2204212e+00  -4.7394850e+00  -1.0318719e+01  -6.3189943e+00  -3.4637058e+00  -4.6353575e+00   0.0000000e+00   0.0000000e+00   5.0000000e+01   0.0000000e+00
  -7.0604573e+00  -6.5069642e+00  -4.4203013e+00  -1.3005495e+01  -9.0027637e+00  -1.3858936e+01  -4.6399602e+00  -3.3481221e+00   6.9860386e+00   1.9029207e+00  -3.7386125e-01  -1.0363854e+01  -1.5352150e-02  -4.0622623e+00   4.2856937e-01  -4.2021874e+00  -1.0819238e+01  -7.6353643e+00  -4.7091410e+00  -4.1474516e+00   0.0000000e+00   0.0000000e+00   5.0000000e+01   0.0000000e+00
  -6.6731507e+00  -6.4522445e+00  -4.4441228e+00  -1.2843866e+01  -9.4591677e+00  -1.4860486e+01  -5.1384539e+00  -2.7005954e+00   6.5792679e+00   1.0847206e+00  -3.9695463e-01  -1.0685041e+01  -1.0069960e+00  -5.2568792e+00  -2.2352010e-01  -3.6335797e+00  -1.1623937e+01  -8.8982910e+00  -5.5819160e+00  -3.5240671e+00   0.0000000e+00   0.0000000e+00   5.0000000e+01   0.0000000e+00
  -6.1210065e+00  -6.1770893e+00  -4.2583754e+00  -1.2981664e+01  -9.7505429e+00  -1.5431445e+01  -5.1551503e+00  -2.0211522e+00   6.0974332e+00   4.1703474e-01  -4.8459170e-01  -1.1804891e+01  -2.1529627e+00  -6.0504628e+00  -5.8121512e-01  -3.1446112e+00  -1.2442317e+01  -9.7517188e+00  -5.8576926e+00  -2.8559562e+00   0.0000000e+00   0.0000000e+00   5.0000000e+01   0.0000000e+00
  -5.5999967e+00  -5.8331421e+00  -3.8615105e+00  -1.3096093e+01  -1.0057816e+01  -1.5672619e+01  -4.7586187e+00  -1.3945904e+00   5.6680479e+00   6.4813095e-02  -5.8757494e-01  -1.2305804e+01  -3.0801741e+00  -6.3545019e+00  -6.3928671e-01  -2.7038363e+00  -1.3103031e+01  -1.0127688e+01  -5.5832588e+00  -2.2425675e+00   0.0000000e+00   0.0000000e+00   5.0000000e+01   0.0000000e+00
  -5.2153142e+00  -5.5413768e+00  -3.3350533e+00  -1.2918712e+01  -1.0392125e+01  -1.5694774e+01  -4.0976287e+00  -8.4496614e-01   5.4982976e+00   1.9857045e-01  -6.9179033e-01  -1.1766487e+01  -3.4735000e+00  -6.1647635e+00  -4.1555501e-01  -2.2746646e+00  -1.3427801e+01  -1.0141887e+01  -4.9486924e+00  -1.7112615e+00   0.0000000e+00   0.0000000e+00   5.0000000e+01   0.0000000e+00
  -4.7876340e+00  -5.2021452e+00  -2.8701174e+00  -1.2535240e+01  -1.0465968e+01  -1.5326714e+01  -3.3340603e+00  -4.7833195e-01   5.6962375e+00   6.0322131e-01  -8.4803116e-01  -1.1030620e+01  -3.2184443e+00  -5.4823140e+00  -3.9016062e-02  -1.9607417e+00  -1.3174296e+01  -9.7686418e+00  -4.1762332e+00  -1.3986170e+00   0.0000000e+00   0.0000000e+00   5.0000000e+01   0.0000000e+00
  -4.0964399e+00  -4.6749158e+00  -2.7092222e+00  -1.1902383e+01  -9.9421515e+00  -1.4295141e+01  -2.6413488e+00  -4.7652961e-01   6.1159240e+00   9.2175450e-01  -1.2157657e+00  -1.0428803e+01  -2.4084475e+00  -4.3656920e+00   2.4810453e-01  -2.0428071e+00  -1.2155217e+01  -8.9020168e+00  -3.5295313e+00  -1.5205935e+00   0.0000000e+00   0.0000000e+00   5.0000000e+01   0.0000000e+00
  -3.0198042e+00  -3.9574458e+00  -2.9426680e+00  -1.0531183e+01  -8.6279709e+00  -1.2568380e+01  -2.1940011e+00  -9.0154897e-01   6.6830812e+00   1.1169415e+00  -1.8244589e+00  -9.3892017e+00  -1.2034261e+00  -3.1325709e+00   2.2957383e-01  -2.6040329e+00  -1.0400455e+01  -7.5396551e+00  -3.2550183e+00  -2.1126817e+00   0.0000000e+00   0.0000000e+00   5.0000000e+01   0.0000000e+00
  -1.7317489e+00  -3.2444003e+00  -3.4672915e+00  -8.6493612e+00  -6.8981411e+00  -1.0589926e+01  -2.1346889e+00  -1.6396525e+00   7.3304778e+00   1.1797697e+00  -2.6029811e+00  -8.0811229e+00   4.8893009e-02  -2.2802351e+00  -9.5228382e-02  -3.3842376e+00  -8.3237547e+00  -5.9494337e+00  -3.4085846e+00  -2.9084990e+00   0.0000000e+00   0.0000000e+00   5.0000000e+01   0.0000000e+00
  -7.6367172e-01  -2.8739856e+00  -4.1199934e+00  -7.3719604e+00  -5.4824644e+00  -9.0480726e+00  -2.4977117e+00  -2.4652692e+00   7.8609755e+00   1.0887118e+00  -3.2496665e+00  -7.3115133e+00   1.0039894e+00  -1.9991199e+00  -4.7175422e-01  -4.0831323e+00  -6.5243710e+00  -4.5464631e+00  -3.8340935e+00  -3.5607144e+00   0.0000000e+00   0.0000000e+00   5.0000000e+01   0.0000000e+00
  -4.0795127e-01  -2.9512712e+00  -4.7562211e+00  -6.9765010e+00  -4.6472351e+00  -8.2464615e+00  -3.1079047e+00  -3.1525841e+00   8.2158132e+00   1.1040240e+00  -3.5303632e+00  -6.9923163e+00   1.7141892e+00  -1.9822594e+00  -6.2262796e-01  -4.6359837e+00  -5.2610234e+00  -3.5801446e+00  -4.2947405e+00  -3.9468783e+00   0.0000000e+00   0.0000000e+00   5.0000000e+01   0.0000000e+00
  -4.2405190e-01  -3.2612542e+00  -5.2068718e+00  -6.8862314e+00  -4.1901126e+00  -8.0753702e+00  -3.7505997e+00  -3.6765679e+00   8.4970977e+00   1.3326827e+00  -3.4777780e+00  -6.3616012e+00   2.2925686e+00  -2.1576824e+00  -6.1827434e-01  -5.1166383e+00  -4.5299976e+00  -3.1714678e+00  -4.7733909e+00  -4.1792982e+00   0.0000000e+00   0.0000000e+00   5.0000000e+01   0.0000000e+00
  -4.1210890e-01  -3.3838048e+00  -5.1832948e+00  -6.6934671e+00  -3.8145172e+00  -8.0488159e+00  -4.1027519e+00  -3.9799929e+00   8.6541296e+00   1.6125852e+00  -3.3017957e+00  -5.4724921e+00   2.6438177e+00  -2.5086648e+00  -5.2134214e-01  -5.4754586e+00  -4.1857882e+00  -3.2096188e+00  -5.1832330e+00  -4.1902055e+00   0.0000000e+00   0.0000000e+00   5.0000000e+01   0.0000000e+00
  -3.1402285e-01  -3.1038174e+00  -4.6116625e+00  -6.5468740e+00  -3.4583183e+00  -7.7046261e+00  -3.8985034e+00  -3.9545275e+00   8.5696673e+00   1.8972109e+00  -2.9933355e+00  -5.1291969e+00   2.7446063e+00  -2.6295534e+00  -1.6012768e-01  -5.5765200e+00  -4.0391706e+00  -3.2001252e+00  -5.1878781e+00  -3.8235891e+00   0.0000000e+00   0.0000000e+00   5.0000000e+01   0.0000000e+00
  -3.1171424e-01  -2.5237559e+00  -3.6827176e+00  -6.7707560e+00  -3.2601942e+00  -7.0765343e+00  -3.2018073e+00  -3.6680082e+00   8.1528551e+00   2.2265054e+00  -2.6212083e+00  -5.6787995e+00   2.5578851e+00  -2.2983381e+00   5.1830710e-01  -5.4692093e+00  -4.1089929e+00  -2.9767620e+00  -4.7203315e+00  -3.1446542e+00   0.0000000e+00   0.0000000e+00   5.0000000e+01   0.0000000e+00
  -4.8918722e-01  -1.8351534e+00  -2.5915317e+00  -7.5079760e+00  -3.2913893e+00  -6.4093306e+00  -2.2778286e+00  -3.3264190e+00   7.5653972e+00   2.6666475e+00  -2.0883863e+00  -6.8741756e+00   2.0811694e+00  -1.6905754e+00   1.4151684e+00  -5.1342233e+00  -4.4162054e+00  -2.7452086e+00  -4.0387923e+00  -2.3597932e+00   0.0000000e+00   0.0000000e+00   5.0000000e+01   0.0000000e+00
  -7.8730495e-01  -1.2964275e+00  -1.6079174e+00  -8.5285520e+00  -3.4521065e+00  -5.8822111e+00  -1.5391404e+00  -3.1690177e+00   6.9972693e+00   3.1475035e+00  -1.3861889e+00  -8.1975559e+00   1.4808146e+00  -1.0626006e+00   2.2852333e+00  -4.7237954e+00  -4.7817003e+00  -2.6867879e+00  -3.5513103e+00  -1.8046637e+00   0.0000000e+00   0.0000000e+00   5.0000000e+01   0.0000000e+00
  -1.0657382e+00  -1.1342309e+00  -1.0694469e+00  -9.2680563e+00  -3.5625491e+00  -5.5315650e+00  -1.4196509e+00  -3.3738286e+00   6.5011750e+00   3.4005879e+00  -7.1994794e-01  -9.0937401e+00   1.0423344e+00  -5.7213992e-01   2.6757906e+00  -4.6212808e+00  -4.9768198e+00  -2.7590545e+00  -3.6387590e+00  -1.8558551e+00   0.0000000e+00   0.0000000e+00   5.0000000e+01   0.0000000e+00
  -1.1552740e+00  -1.2454212e+00  -9.8237268e-01  -9.4305462e+00  -3.3695344e+00  -5.2322631e+00  -1.8842886e+00  -3.8985179e+00   6.1443550e+00   3.2327028e+00  -3.8641964e-01  -9.2166828e+00   1.0916423e+00  -2.8066202e-01   2.3968288e+00  -5.0460561e+00  -4.7300394e+00  -2.7895999e+00  -4.2395551e+00  -2.4974974e+00   0.0000000e+00   0.0000000e+00   5.0000000e+01   0.0000000e+00
  -1.0880938e+00  -1.4001399e+00  -1.0538086e+00  -9.1805014e+00  -2.9210969e+00  -4.9613103e+00  -2.4235612e+00  -4.4625841e+00   6.0817134e+00   2.7360546e+00  -4.0515283e-01  -8.9053402e+00   1.6459835e+00  -2.5130186e-01   1.7547215e+00  -5.8035719e+00  -4.0418079e+00  -2.6289703e+00  -4.8564224e+00  -3.2362714e+00   0.0000000e+00   0.0000000e+00   5.0000000e+01   0.0000000e+00
  -1.1626025e+00  -1.5901420e+00  -1.0938809e+00  -8.9715676e+00  -2.6866095e+00  -4.8724492e+00  -2.6555799e+00  -4.7622784e+00   6.3441058e+00   2.4005350e+00  -7.7404634e-01  -8.6055104e+00   2.2721344e+00  -3.7249780e-01   1.2121197e+00  -6.4622168e+00  -3.3464088e+00  -2.3114539e+00  -5.0308728e+00  -3.5742123e+00   0.0000000e+00   0.0000000e+00   5.0000000e+01   0.0000000e+00
  -1.4368350e+00  -1.8340169e+00  -1.1592461e+00  -8.8037381e+00  -2.7904377e+00  -5.1174089e+00  -2.7253126e+00  -4.7498763e+00   6.8811413e+00   2.4183299e+00  -1.3937606e+00  -7.8572599e+00   2.6811478e+00  -5.6152085e-01   8.3256637e-01  -6.8360802e+00  -2.9285799e+00  -2.0743459e+00  -4.9133095e+00  -3.5266113e+00   0.0000000e+00   0.0000000e+00   5.0000000e+01   0.0000000e+00
  -1.7524107e+00  -2.0176175e+00  -1.3155019e+00  -8.6376205e+00  -2.9557924e+00  -5.5034143e+00  -2.8463348e+00  -4.5609428e+00   7.4985088e+00   2.5337677e+00  -2.1300076e+00  -6.9870785e+00   2.7118012e+00  -8.9539542e-01   4.3697593e-01  -7.0216758e+00  -2.7972180e+00  -2.1825723e+00  -4.8726236e+00  -3.3725778e+00   0.0000000e+00   0.0000000e+00   5.0000000e+01   0.0000000e+00
  -2.1807075e+00  -2.1490445e+00  -1.6078112e+00  -8.9739691e+00  -3.0824781e+00  -5.6960740e+00  -3.0194593e+00  -4.3310610e+00   7.9681495e+00   2.6071854e+00  -2.7324684e+00  -6.8972158e+00   2.2795525e+00  -1.3248177e+00   6.3948828e-02  -7.0327353e+00  -3.0004291e+00  -2.4970265e+00  -4.9373239e+00  -3.2626412e+00   0.0000000e+00   0.0000000e+00   5.0000000e+01   0.0000000e+00
  -2.7912724e+00  -2.2421003e+00  -2.0045547e+00  -9.7279772e+00  -3.1985395e+00  -5.5444142e+00  -3.0893198e+00  -4.1178128e+00   8.1723952e+00   2.6383088e+00  -3.1328601e+00  -7.4625029e+00   1.6238929e+00  -1.6324704e+00  -1.2543502e-01  -6.9007776e+00  -3.3930142e+00  -2.6947275e+00  -4.9152649e+00  -3.1543688e+00   0.0000000e+00   0.0000000e+00   5.0000000e+01   0.0000000e+00
  -3.4955525e+00  -2.2484814e+00  -2.3358907e+00  -1.0326014e+01  -3.3049835e+00  -5.0638014e+00  -2.8789621e+00  -3.9349442e+00   8.2018847e+00   2.7663784e+00  -3.3401097e+00  -8.1817118e+00   1.1037124e+00  -1.5261954e+00  -1.7028005e-02  -6.6352496e+00  -3.6284795e+00  -2.5487176e+00  -4.6234524e+00  -2.9231597e+00   0.0000000e+00   0.0000000e+00   5.0000000e+01   0.0000000e+00
  -4.1106511e+00  -2.1095481e+00  -2.4414289e+00  -1.0506298e+01  -3.2276521e+00  -4.2914468e+00  -2.3595615e+00  -3.7648162e+00   8.2333326e+00   3.1190912e+00  -3.4099016e+00  -8.6457350e+00   8.7547942e-01  -9.1303212e-01   4.1453495e-01  -6.2531284e+00  -3.4575962e+00  -2.0250686e+00  -4.0321596e+00  -2.4902889e+00   0.0000000e+00   0.0000000e+00   5.0000000e+01   0.0000000e+00
  -4.3582439e+00  -1.7683358e+00  -2.3340851e+00  -1.0603912e+01  -2.7236243e+00  -3.1539032e+00  -1.6583067e+00  -3.5989950e+00   8.4200071e+00   3.5863434e+00  -3.2817275e+00  -8.7289142e+00   8.9497978e-01   8.0766883e-02   1.1075737e+00  -5.7861596e+00  -2.7615966e+00  -1.0577167e+00  -3.2061221e+00  -1.9379797e+00   0.0000000e+00   0.0000000e+00   5.0000000e+01   0.0000000e+00
  -4.1417612e+00  -1.2729083e+00  -2.1505101e+00  -1.0700052e+01  -1.7936744e+00  -1.7979692e+00  -1.0365846e+00  -3.4099640e+00   8.8029527e+00   4.1355412e+00  -2.9935628e+00  -8.6341238e+00   1.0934800e+00   1.2799003e+00   1.9508630e+00  -5.2732297e+00  -1.5827521e+00   3.8751248e-01  -2.2585988e+00  -1.3684984e+00   0.0000000e+00   0.0000000e+00   5.0000000e+01   0.0000000e+00
  -3.6981678e+00  -8.7662293e-01  -2.0838308e+00  -1.0355993e+01  -8.0728057e-01  -8.6731949e-01  -8.2601745e-01  -3.2478090e+00   9.2468818e+00   4.5758099e+00  -2.6610630e+00  -8.6872082e+00   1.2870001e+00   2.1606961e+00   2.5612469e+00  -4.8184137e+00  -3.5143594e-01   1.9088035e+00  -1.5107136e+00  -9.4741754e-01   0.0000000e+00   0.0000000e+00   5.0000000e+01   0.0000000e+00
  -3.3072705e+00  -6.9147096e-01  -2.0951679e+00  -9.7742651e+00  -2.5204790e-01  -8.4217924e-01  -1.0006897e+00  -3.0836867e+00   9.4599094e+00   4.4854245e+00  -2.4858564e+00  -8.7644657e+00   1.2668881e+00   2.1391793e+00   2.6131147e+00  -4.5249505e+00   3.3485417e-01   2.8395260e+00  -1.2372678e+00  -7.0626360e-01   0.0000000e+00   0.0000000e+00   5.0000000e+01   0.0000000e+00
  -3.1054453e+00  -6.2535755e-01  -2.0211738e+00  -9.6447146e+00  -3.2889780e-01  -1.5226579e+00  -1.3009574e+00  -2.9115149e+00   9.3235926e+00   3.7711216e+00  -2.5212768e+00  -8.9730890e+00   9.2928819e-01   1.2398515e+00   2.1929090e+00  -4.3264159e+00   2.9085445e-01   2.9673592e+00  -1.3785547e+00  -6.0438283e-01   0.0000000e+00   0.0000000e+00   5.0000000e+01   0.0000000e+00
  -2.8698348e+00  -4.4891447e-01  -1.8052201e+00  -9.6329623e+00  -5.6955475e-01  -2.2024722e+00  -1.5043771e+00  -2.8668718e+00   9.0019517e+00   2.7550744e+00  -2.9051885e+00  -9.4824214e+00   3.5505140e-01   1.1465828e-01   1.5760991e+00  -4.1930830e+00  -3.0214589e-02   2.7056075e+00  -1.6973279e+00  -6.9146873e-01   0.0000000e+00   0.0000000e+00   5.0000000e+01   0.0000000e+00
  -2.3322608e+00   6.6558155e-02  -1.4708782e+00  -9.0361909e+00  -4.8947223e-01  -2.2853430e+00  -1.3885622e+00  -2.9067531e+00   8.8229087e+00   1.7936398e+00  -3.6620180e+00  -9.4884781e+00  -8.1058328e-02  -6.3664303e-01   1.0076525e+00  -4.0954157e+00  -8.4707046e-02   2.5968941e+00  -1.9218954e+00  -8.9236767e-01   0.0000000e+00   0.0000000e+00   5.0000000e+01   0.0000000e+00
  -1.6682062e+00   8.5073636e-01  -1.0251648e+00  -7.8176306e+00  -1.8933471e-01  -1.6570053e+00  -7.7881451e-01  -2.8324574e+00   8.8278866e+00   1.1161623e+00  -4.5120735e+00  -8.7645680e+00  -1.7083765e-01  -7.1411709e-01   8.0937881e-01  -3.9922219e+00   2.6500202e-01   2.8358220e+00  -1.7636537e+00  -9.6639861e-01   0.0000000e+00   0.0000000e+00   5.0000000e+01   0.0000000e+00
  -1.1936184e+00   1.6328480e+00  -5.1136032e-01  -6.6991430e+00   6.5184046e-02  -5.8671567e-01   2.5535517e-01  -2.6001028e+00   8.8020019e+00   8.6444839e-01  -4.8422918e+00  -8.2180646e+00  -6.0529575e-02  -1.5539285e-01   1.1767669e+00  -3.8396122e+00   7.3469183e-01   3.3906769e+00  -1.1328362e+00  -8.1452950e-01   0.0000000e+00   0.0000000e+00   5.0000000e+01   0.0000000e+00
  -9.7437642e-01   2.1961570e+00  -4.4389807e-02  -6.3435046e+00   1.9785918e-01   5.4428528e-01   1.4210180e+00  -2.2300958e+00   8.5751744e+00   9.9518074e-01  -4.4105845e+00  -8.6035694e+00  -6.3980646e-02   7.5416445e-01   2.0299817e+00  -3.5703067e+00   9.2985719e-01   4.1272212e+00  -2.2548981e-01  -4.6200007e-01   0.0000000e+00   0.0000000e+00   5.0000000e+01   0.0000000e+00
  -1.0215817e+00   2.3998933e+00   2.1653678e-01  -6.5939722e+00   1.0870351e-01   1.4800111e+00   2.3584711e+00  -1.7290751e+00   8.1396635e+00   1.2917956e+00  -3.3407003e+00  -9.5874702e+00  -3.6077317e-01   1.7496956e+00   3.1700446e+00  -3.0757692e+00   6.6014197e-01   4.8308377e+00   6.5253612e-01   1.0963586e-01   0.0000000e+00   0.0000000e+00   5.0000000e+01   0.0000000e+00
  -1.2792325e+00   2.3555587e+00   2.9320756e-01  -6.9717414e+00  -1.4039733e-01   2.3732209e+00   2.9685239e+00  -1.1041586e+00   7.6718012e+00   1.7426883e+00  -1.8329051e+00  -1.0080146e+01  -6.6059509e-01   2.8181175e+00   4.5232228e+00  -2.2793330e+00   2.9505598e-01   5.4293211e+00   1.4390994e+00   1.0110796e+00   0.0000000e+00   0.0000000e+00   5.0000000e+01   0.0000000e+00
  -1.6394782e+00   2.2818759e+00   3.1375091e-01  -7.3243172e+00  -3.4231670e-01   3.3637298e+00   3.4033505e+00  -3.9651153e-01   7.4068279e+00   2.4842874e+00  -9.7019655e-02  -9.6118512e+00  -6.0297778e-01   3.9193157e+00   5.9996896e+00  -1.2347667e+00   2.9153364e-01   5.9851778e+00   2.2255475e+00   2.2501224e+00   0.0000000e+00   0.0000000e+00   5.0000000e+01   0.0000000e+00
  -2.1299011e+00   2.1343462e+00   2.8872104e-01  -7.9475163e+00  -5.5934614e-01   4.1353991e+00   3.7192330e+00   3.2032442e-01   7.3385964e+00   3.3357677e+00   1.5508186e+00  -8.9520552e+00  -2.7610624e-01   4.7497836e+00   7.3094559e+00  -8.8954398e-02   5.7693400e-01   6.4321811e+00   2.9777158e+00   3.6110843e+00   0.0000000e+00   0.0000000e+00   5.0000000e+01   0.0000000e+00
  -2.8049765e+00   1.7181100e+00   2.0565718e-01  -9.0522071e+00  -1.0022849e+00   4.2637689e+00   3.8021091e+00   9.7957019e-01   7.2762985e+00   3.7509156e+00   3.0351778e+00  -8.9448372e+00  -2.8799028e-02   4.9595510e+00   8.1567993e+00   1.0563280e+00   7.4925393e-01   6.6954238e+00   3.5318608e+00   4.8059807e+00   0.0000000e+00   0.0000000e+00   5.0000000e+01   0.0000000e+00
  -3.6220219e+00   1.0414735e+00   1.4210903e-01  -1.0288142e+01  -1.7332431e+00   3.6525718e+00   3.5914639e+00   1.5274625e+00   7.0458978e+00   3.6510600e+00   4.2216449e+00  -9.3795127e+00  -1.6487655e-01   4.4570675e+00   8.5344254e+00   1.9771054e+00   4.7024110e-01   6.5104427e+00   3.7823378e+00   5.6776967e+00   1.0000000e+03   0.0000000e+00   5.0000000e+01   0.0000000e+00
  -4.4553613e+00   2.3872638e-01   5.1751536e-02  -1.1275169e+01  -2.7111003e+00   2.4674859e+00   3.0825920e+00   1.7801517e+00   6.7603400e+00   3.3752184e+00   5.0244587e+00  -9.8596539e+00  -6.5835067e-01   3.4545151e+00   8.5752757e+00   2.4369810e+00  -3.5336195e-01   5.6455347e+00   3.7728694e+00   6.0956772e+00   1.0000000e+03   0.0000000e+00   5.0000000e+01   0.0000000e+00
