nt = 720
nc = 24
channels = F7 T3 T5 Fp1 F3 C3 P3 O1 F8 T4 T6 Fp2 F4 C4 P4 O2 Fz Cz Pz Oz TR SOn Occ RAp
ne = 20
type = B
fsmp = 120.0000000000
band = 0.1 0.2 44 58 0
orig.file = s2_bl1
orig.nt = 295148
orig.sample_range = 91158 94753
orig.fsmp = 600
orig.subject = 2
orig.run = 16
  -3.8651587e+01  -1.4058009e+01   8.2055310e-01  -1.1605983e+02  -4.6499012e+01  -1.9004227e+01  -6.8207230e+00   4.6150240e+00  -3.7128793e+01  -1.7952474e+01  -3.6392332e+00  -1.2562093e+02  -4.7147437e+01  -2.7309787e+01  -7.5563284e+00   1.4940330e+00  -3.5966678e+01  -2.0565593e+01  -1.3107095e+01  -9.5777068e-01   0.0000000e+00   0.0000000e+00   0.0000000e+00   0.0000000e+00
  -4.2419738e+01  -1.5078504e+01   1.4108931e+00  -1.3058883e+02  -5.1929198e+01  -1.9184662e+01  -6.9118377e+00   6.7170733e+00  -3.9678773e+01  -1.8239215e+01  -3.9592479e+00  -1.4174378e+02  -5.2775119e+01  -2.7895590e+01  -7.5975059e+00   2.5126638e+00  -3.8588954e+01  -1.9448200e+01  -1.1097958e+01  -4.3015237e-01   0.0000000e+00   0.0000000e+00   0.0000000e+00   0.0000000e+00
  -4.1578174e+01  -1.4306242e+01   2.2283644e+00  -1.3111144e+02  -5.1783794e+01  -1.7784919e+01  -6.1242124e+00   8.3495689e+00  -3.9178468e+01  -1.7634726e+01  -4.1551026e+00  -1.4381091e+02  -5.3273704e+01  -2.7132627e+01  -7.2205742e+00   3.4103388e+00  -3.7748005e+01  -1.7628217e+01  -9.2857521e+00   1.6982528e-01   0.0000000e+00   0.0000000e+00   0.0000000e+00   0.0000000e+00
  -3.7891962e+01  -1.2340000e+01   3.1631057e+00  -1.2294185e+02  -4.8145688e+01  -1.5138006e+01  -4.7502801e+00   9.3636529e+00  -3.6659397e+01  -1.6441194e+01  -4.1728412e+00  -1.3662300e+02  -5.0410223e+01  -2.5307410e+01  -6.5915832e+00   4.0683025e+00  -3.4408974e+01  -1.5254423e+01  -7.6170142e+00   5.8597770e-01   0.0000000e+00   0.0000000e+00   0.0000000e+00   0.0000000e+00
  -3.2988042e+01  -9.8248584e+00   3.9303555e+00  -1.1021656e+02  -4.2748560e+01  -1.1600740e+01  -3.2715425e+00   9.6242015e+00  -3.2980870e+01  -1.4867160e+01  -4.1828567e+00  -1.2426883e+02  -4.5567853e+01  -2.2748009e+01  -6.0134692e+00   4.3110926e+00  -2.9539792e+01  -1.2446695e+01  -6.1516867e+00   5.0336294e-01   0.0000000e+00   0.0000000e+00   0.0000000e+00   0.0000000e+00
  -2.7664455e+01  -7.1871048e+00   4.2059592e+00  -9.5310158e+01  -3.6519482e+01  -7.6417590e+00  -2.1648590e+00   9.0857403e+00  -2.8781536e+01  -1.2889064e+01  -4.2172827e+00  -1.0939572e+02  -3.9672952e+01  -1.9855709e+01  -5.6564000e+00   4.0849970e+00  -2.3924913e+01  -9.4177127e+00  -5.0390925e+00  -1.8540695e-01   0.0000000e+00   0.0000000e+00   0.0000000e+00   0.0000000e+00
  -2.2190089e+01  -4.7139026e+00   3.9069420e+00  -7.9555711e+01  -3.0003099e+01  -3.8058694e+00  -1.6423977e+00   7.9702104e+00  -2.4532300e+01  -1.0727302e+01  -4.1977936e+00  -9.3821369e+01  -3.3516221e+01  -1.7058197e+01  -5.4241434e+00   3.5528054e+00  -1.8212816e+01  -6.5150069e+00  -4.2572755e+00  -1.2090737e+00   0.0000000e+00   0.0000000e+00   0.0000000e+00   0.0000000e+00
  -1.6715458e+01  -2.4863362e+00   3.3473719e+00  -6.3926926e+01  -2.3733020e+01  -5.1259102e-01  -1.3848646e+00   6.8380631e+00  -2.0476098e+01  -8.8115040e+00  -4.0851999e+00  -7.8613253e+01  -2.7704426e+01  -1.4694119e+01  -5.1629073e+00   3.0857937e+00  -1.3014951e+01  -4.0169105e+00  -3.4923462e+00  -2.0428892e+00   0.0000000e+00   0.0000000e+00   0.0000000e+00   0.0000000e+00
  -1.1629178e+01  -5.7585274e-01   2.8582837e+00  -4.9401895e+01  -1.8256718e+01   2.0429968e+00  -9.9935800e-01   6.1587177e+00  -1.6859971e+01  -7.3782573e+00  -3.8981984e+00  -6.4043784e+01  -2.2504363e+01  -1.2811687e+01  -4.7664982e+00   2.9421260e+00  -8.6537443e+00  -2.0222734e+00  -2.4915042e+00  -2.3135411e+00   0.0000000e+00   0.0000000e+00   0.0000000e+00   0.0000000e+00
  -7.3269450e+00   9.5645212e-01   2.5915904e+00  -3.6740856e+01  -1.3807677e+01   3.9613803e+00  -3.9688488e-01   6.0577597e+00  -1.3862111e+01  -6.2704345e+00  -3.5478005e+00  -5.0514124e+01  -1.8025769e+01  -1.1250380e+01  -4.1791491e+00   3.1209848e+00  -5.0634750e+00  -4.2006724e-01  -1.2758061e+00  -1.9303618e+00   0.0000000e+00   0.0000000e+00   0.0000000e+00   0.0000000e+00
  -3.7824840e+00   2.2640273e+00   2.6977350e+00  -2.6011414e+01  -1.0231631e+01   5.4797003e+00   4.2900633e-01   6.4682015e+00  -1.1480740e+01  -5.3832108e+00  -3.0865761e+00  -3.8627287e+01  -1.4360141e+01  -9.9698768e+00  -3.4537893e+00   3.4347778e+00  -2.1355218e+00   8.2917908e-01   1.9171211e-02  -9.7355610e-01   0.0000000e+00   0.0000000e+00   0.0000000e+00   0.0000000e+00
  -7.7544987e-01   3.4143127e+00   3.2207946e+00  -1.6640276e+01  -7.3599430e+00   6.6025518e+00   1.4334591e+00   7.2221427e+00  -9.6848214e+00  -4.8133372e+00  -2.6526249e+00  -2.8795637e+01  -1.1520312e+01  -9.0402479e+00  -2.6971562e+00   3.9331042e+00   1.8183763e-01   1.6292499e+00   1.2458781e+00   3.0880953e-01   0.0000000e+00   0.0000000e+00   0.0000000e+00   0.0000000e+00
   1.7971327e+00   4.2532851e+00   3.9358792e+00  -8.1683424e+00  -5.1456345e+00   7.1844289e+00   2.4923082e+00   8.0632174e+00  -8.3355677e+00  -4.3993035e+00  -2.3345423e+00  -2.0503566e+01  -9.1575349e+00  -8.3151082e+00  -1.9070828e+00   4.5797124e+00   1.9930102e+00   1.9994121e+00   2.3409037e+00   1.6268514e+00   0.0000000e+00   0.0000000e+00   0.0000000e+00   0.0000000e+00
   3.9153389e+00   4.6388125e+00   4.5836497e+00  -5.2026336e-01  -3.4866901e+00   7.4118849e+00   3.5397918e+00   8.8437385e+00  -7.0692889e+00  -3.8271859e+00  -1.9216736e+00  -1.3026191e+01  -6.7640910e+00  -7.4113208e+00  -1.0208274e+00   5.1388593e+00   3.5024677e+00   2.2384942e+00   3.3307251e+00   2.7861624e+00   0.0000000e+00   0.0000000e+00   0.0000000e+00   0.0000000e+00
   5.5337031e+00   4.6657818e+00   5.1074461e+00   6.1840575e+00  -2.1269270e+00   7.7311211e+00   4.5084689e+00   9.4578923e+00  -5.6774715e+00  -3.0762526e+00  -1.3216388e+00  -5.7402455e+00  -4.1220864e+00  -6.1207555e+00  -1.3393315e-01   5.4919125e+00   4.9291740e+00   2.5713385e+00   4.0674528e+00   3.5198958e+00   0.0000000e+00   0.0000000e+00   0.0000000e+00   0.0000000e+00
   6.7240809e+00   4.5893684e+00   5.5684034e+00   1.1954230e+01  -8.7514194e-01   8.2802438e+00   5.2753311e+00   9.7408913e+00  -4.2947406e+00  -2.3436681e+00  -5.7762966e-01   1.6246690e+00  -1.4370584e+00  -4.6632561e+00   5.5418022e-01   5.3803594e+00   6.2869164e+00   2.9710622e+00   4.3350840e+00   3.6097028e+00   0.0000000e+00   0.0000000e+00   0.0000000e+00   0.0000000e+00
   7.7923330e+00   4.7227917e+00   6.0374395e+00   1.7113586e+01   4.0499985e-01   9.0158611e+00   5.7612250e+00   9.6972540e+00  -3.1319783e+00  -1.7423072e+00   8.0831552e-02   8.1201416e+00   9.3154348e-01  -3.4428384e+00   8.9533875e-01   4.9474057e+00   7.5538016e+00   3.3558353e+00   4.1892108e+00   3.1726803e+00   0.0000000e+00   0.0000000e+00   0.0000000e+00   0.0000000e+00
   9.0625586e+00   5.2480662e+00   6.4974580e+00   2.2120690e+01   1.8566027e+00   9.9967449e+00   6.0007396e+00   9.4282143e+00  -2.0693269e+00  -1.2053064e+00   3.9715777e-01   1.3122918e+01   2.9918433e+00  -2.6884878e+00   8.1590376e-01   4.3988507e+00   8.9259780e+00   3.8160409e+00   3.8731888e+00   2.5215375e+00   0.0000000e+00   0.0000000e+00   0.0000000e+00   0.0000000e+00
   1.0406415e+01   5.9435252e+00   6.8225160e+00   2.6942353e+01   3.4349096e+00   1.1167432e+01   6.0748880e+00   9.1154803e+00  -9.7815377e-01  -6.6217376e-01   4.9999554e-01   1.7258940e+01   4.8691867e+00  -2.2991944e+00   5.0203117e-01   3.8721567e+00   1.0474235e+01   4.4351476e+00   3.6241655e+00   1.9752984e+00   0.0000000e+00   0.0000000e+00   0.0000000e+00   0.0000000e+00
   1.1466731e+01   6.4020112e+00   6.8839825e+00   3.1140842e+01   4.9056977e+00   1.2135770e+01   5.9028935e+00   8.8872221e+00   7.4575061e-02  -2.2337202e-01   6.6127307e-01   2.1523452e+01   6.4568621e+00  -2.1106801e+00   1.8542783e-01   3.3068850e+00   1.1901925e+01   5.0282154e+00   3.4102592e+00   1.6059697e+00   0.0000000e+00   0.0000000e+00   0.0000000e+00   0.0000000e+00
   1.2171668e+01   6.4595927e+00   6.6668031e+00   3.4477897e+01   6.0303547e+00   1.2628280e+01   5.4887511e+00   8.7608850e+00   9.6373809e-01   6.9990493e-02   7.1167438e-01   2.5679711e+01   7.5490159e+00  -2.0305303e+00  -7.1778023e-02   2.7114476e+00   1.2867836e+01   5.3142170e+00   3.2050487e+00   1.3243951e+00   0.0000000e+00   0.0000000e+00   0.0000000e+00   0.0000000e+00
   1.2779067e+01   6.3167369e+00   6.3112939e+00   3.7286402e+01   6.9161674e+00   1.2865324e+01   5.0722809e+00   8.6808945e+00   1.8067664e+00   4.5554229e-01   6.1068733e-01   2.8864344e+01   8.3047234e+00  -1.7921422e+00  -1.0018539e-01   2.2470429e+00   1.3520932e+01   5.5130865e+00   3.2263355e+00   1.1407577e+00   0.0000000e+00   0.0000000e+00   0.0000000e+00   0.0000000e+00
   1.3421210e+01   6.1951669e+00   5.9336079e+00   4.0123941e+01   7.8227181e+00   1.3160028e+01   4.8051121e+00   8.4638519e+00   2.8196171e+00   1.0564722e+00   5.6839969e-01   3.1298448e+01   9.1468566e+00  -1.1075297e+00   3.3177140e-01   2.0791978e+00   1.4324493e+01   6.1141168e+00   3.6521692e+00   1.0668511e+00   0.0000000e+00   0.0000000e+00   0.0000000e+00   0.0000000e+00
   1.3931448e+01   6.0275436e+00   5.4730649e+00   4.2946448e+01   8.7568751e+00   1.3612708e+01   4.6853399e+00   7.9719604e+00   4.0661090e+00   1.9799907e+00   7.6566011e-01   3.3758443e+01   1.0244471e+01   9.8705055e-02   1.2685478e+00   2.1679528e+00   1.5403224e+01   7.2592819e+00   4.4819250e+00   1.0835911e+00   0.0000000e+00   0.0000000e+00   0.0000000e+00   0.0000000e+00
   1.4230733e+01   5.7970613e+00   4.9625012e+00   4.5326629e+01   9.6913546e+00   1.4271077e+01   4.8631621e+00   7.3345691e+00   5.4393205e+00   3.3269940e+00   9.8914413e-01   3.6681349e+01   1.1580459e+01   1.8223762e+00   2.6412464e+00   2.4062890e+00   1.6608303e+01   8.8066581e+00   5.6873190e+00   1.2725967e+00   0.0000000e+00   0.0000000e+00   0.0000000e+00   0.0000000e+00
   1.4359232e+01   5.6185020e+00   4.5656585e+00   4.7089221e+01   1.0620730e+01   1.5109257e+01   5.4831567e+00   6.7575625e+00   6.7056633e+00   4.8793657e+00   1.1643712e+00   3.9861953e+01   1.3023117e+01   3.8452122e+00   4.3050505e+00   2.8485387e+00   1.7781451e+01   1.0564693e+01   7.1732281e+00   1.7314163e+00   0.0000000e+00   0.0000000e+00   0.0000000e+00   0.0000000e+00
   1.4470115e+01   5.6243889e+00   4.3898013e+00   4.8661062e+01   1.1631252e+01   1.6064784e+01   6.4241187e+00   6.4393269e+00   7.6657735e+00   6.3392580e+00   1.5092803e+00   4.2850502e+01   1.4452406e+01   5.8427033e+00   6.0618804e+00   3.5922714e+00   1.8949842e+01   1.2237819e+01   8.7158592e+00   2.4885378e+00   0.0000000e+00   0.0000000e+00   0.0000000e+00   0.0000000e+00
   1.4705319e+01   5.8778040e+00   4.3964101e+00   5.0533129e+01   1.2765225e+01   1.7044165e+01   7.3813240e+00   6.4692947e+00   8.2914208e+00   7.5236866e+00   2.2422465e+00   4.5372865e+01   1.5696796e+01   7.5610449e+00   7.7086586e+00   4.7028559e+00   2.0118295e+01   1.3631789e+01   1.0086078e+01   3.4678249e+00   0.0000000e+00   0.0000000e+00   0.0000000e+00   0.0000000e+00
   1.4962601e+01   6.3007682e+00   4.5235463e+00   5.2340425e+01   1.3911266e+01   1.7946944e+01   8.0838214e+00   6.7858459e+00   8.5069691e+00   8.3468498e+00   3.2234559e+00   4.7255587e+01   1.6523760e+01   8.7659833e+00   8.9953564e+00   5.9964235e+00   2.1151337e+01   1.4635132e+01   1.1070212e+01   4.4428852e+00   0.0000000e+00   0.0000000e+00   0.0000000e+00   0.0000000e+00
   1.5028296e+01   6.6449581e+00   4.6579426e+00   5.3471750e+01   1.4909344e+01   1.8537466e+01   8.3347837e+00   7.1529372e+00   8.1679779e+00   8.6560296e+00   4.1491152e+00   4.8566196e+01   1.6814126e+01   9.2531603e+00   9.7048199e+00   7.1207815e+00   2.1933127e+01   1.5209915e+01   1.1554166e+01   5.0863817e+00   0.0000000e+00   0.0000000e+00   0.0000000e+00   0.0000000e+00
   1.4837498e+01   6.7665277e+00   4.7299447e+00   5.4003512e+01   1.5604421e+01   1.8693102e+01   8.2091378e+00   7.2960386e+00   7.3282060e+00   8.4975227e+00   4.8158967e+00   4.9139092e+01   1.6641680e+01   9.0762824e+00   9.8669564e+00   7.8210278e+00   2.2429743e+01   1.5425285e+01   1.1682882e+01   5.2105202e+00   0.0000000e+00   0.0000000e+00   0.0000000e+00   0.0000000e+00
   1.4428669e+01   6.6725773e+00   4.7413910e+00   5.4283474e+01   1.5859835e+01   1.8593385e+01   7.9347648e+00   7.1393468e+00   6.3001087e+00   8.1256920e+00   5.2916309e+00   4.8938509e+01   1.6123442e+01   8.4846458e+00   9.6597450e+00   8.0107019e+00   2.2681069e+01   1.5449109e+01   1.1586606e+01   4.8808185e+00   0.0000000e+00   0.0000000e+00   0.0000000e+00   0.0000000e+00
   1.3914234e+01   6.4610600e+00   4.6649247e+00   5.4598385e+01   1.5773222e+01   1.8469593e+01   7.6344529e+00   6.7913713e+00   5.4102831e+00   7.6438220e+00   5.6364799e+00   4.8577390e+01   1.5326615e+01   7.7210044e+00   9.2527983e+00   7.7675057e+00   2.2785481e+01   1.5457497e+01   1.1313157e+01   4.3499822e+00   0.0000000e+00   0.0000000e+00   0.0000000e+00   0.0000000e+00
   1.3635396e+01   6.4163517e+00   4.5027921e+00   5.5143770e+01   1.5779912e+01   1.8519570e+01   7.4572509e+00   6.5164006e+00   4.9210324e+00   7.1831338e+00   5.8239816e+00   4.8632959e+01   1.4541267e+01   7.0518321e+00   8.8556428e+00   7.3643613e+00   2.2969021e+01   1.5729389e+01   1.1088894e+01   4.0037648e+00   0.0000000e+00   0.0000000e+00   0.0000000e+00   0.0000000e+00
   1.3903873e+01   6.7435920e+00   4.3325054e+00   5.5935118e+01   1.6280043e+01   1.8874051e+01   7.5694944e+00   6.5654375e+00   4.9406832e+00   7.0259819e+00   5.8587361e+00   4.9522197e+01   1.4221584e+01   6.8050460e+00   8.7931772e+00   7.2055833e+00   2.3509214e+01   1.6431046e+01   1.1181574e+01   4.2246943e+00   0.0000000e+00   0.0000000e+00   0.0000000e+00   0.0000000e+00
   1.4453441e+01   7.2397171e+00   4.2144568e+00   5.6721758e+01   1.7028607e+01   1.9366222e+01   7.9218165e+00   6.9358815e+00   5.3365073e+00   7.1189872e+00   5.9490710e+00   5.0630099e+01   1.4371836e+01   7.0626476e+00   9.1362887e+00   7.4764854e+00   2.4303905e+01   1.7298116e+01   1.1526793e+01   4.9894801e+00   0.0000000e+00   0.0000000e+00   0.0000000e+00   0.0000000e+00
   1.4713292e+01   7.5092546e+00   4.1669290e+00   5.7192754e+01   1.7422357e+01   1.9718358e+01   8.2671463e+00   7.4726239e+00   5.8479632e+00   7.2386714e+00   6.2072801e+00   5.1122576e+01   1.4637821e+01   7.5458440e+00   9.5897881e+00   8.0489329e+00   2.4940353e+01   1.7897362e+01   1.1808947e+01   5.8960160e+00   0.0000000e+00   0.0000000e+00   0.0000000e+00   0.0000000e+00
   1.4569258e+01   7.4620415e+00   4.1940303e+00   5.7361404e+01   1.7368425e+01   1.9922746e+01   8.4238126e+00   7.9925534e+00   6.3736055e+00   7.2864660e+00   6.6007460e+00   5.1075944e+01   1.4785183e+01   7.9563705e+00   9.9194670e+00   8.7470212e+00   2.5228810e+01   1.8164984e+01   1.1888811e+01   6.5809936e+00   0.0000000e+00   0.0000000e+00   0.0000000e+00   0.0000000e+00
   1.4398724e+01   7.3305931e+00   4.2979153e+00   5.7385188e+01   1.7289825e+01   2.0223799e+01   8.3612402e+00   8.3286967e+00   6.9077417e+00   7.2883905e+00   6.8484652e+00   5.1306981e+01   1.4949451e+01   8.3389754e+00   1.0151008e+01   9.3805294e+00   2.5435703e+01   1.8374535e+01   1.1886112e+01   6.9348660e+00   0.0000000e+00   0.0000000e+00   0.0000000e+00   0.0000000e+00
   1.4561871e+01   7.3555550e+00   4.4829855e+00   5.7352372e+01   1.7493446e+01   2.0668820e+01   8.1455909e+00   8.3760966e+00   7.6179429e+00   7.4227775e+00   7.0122631e+00   5.2403263e+01   1.5537550e+01   8.8746471e+00   1.0346916e+01   9.8823387e+00   2.5934627e+01   1.8803062e+01   1.1942878e+01   7.0506028e+00   0.0000000e+00   0.0000000e+00   0.0000000e+00   0.0000000e+00
   1.5054146e+01   7.6338758e+00   4.7656545e+00   5.7476340e+01   1.7947963e+01   2.1097781e+01   8.0165657e+00   8.2218272e+00   8.4018141e+00   7.4196903e+00   7.2387899e+00   5.3611692e+01   1.6518285e+01   9.4061367e+00   1.0518622e+01   1.0366161e+01   2.6748740e+01   1.9480880e+01   1.2186056e+01   7.1479351e+00   0.0000000e+00   0.0000000e+00   0.0000000e+00   0.0000000e+00
   1.5613014e+01   8.0722205e+00   5.0885930e+00   5.7717279e+01   1.8465128e+01   2.1442223e+01   8.1754892e+00   8.1299084e+00   8.9362389e+00   7.0720431e+00   7.6494823e+00   5.4284012e+01   1.7547122e+01   9.6680209e+00   1.0726025e+01   1.0957275e+01   2.7601631e+01   2.0251441e+01   1.2657159e+01   7.4320343e+00   0.0000000e+00   0.0000000e+00   0.0000000e+00   0.0000000e+00
   1.5986602e+01   8.4544891e+00   5.3134399e+00   5.7691066e+01   1.8834996e+01   2.1710378e+01   8.5715962e+00   8.2693861e+00   9.1368108e+00   6.6484278e+00   8.2566826e+00   5.4525397e+01   1.8432301e+01   9.6934503e+00   1.0991025e+01   1.1603013e+01   2.8243044e+01   2.0906135e+01   1.3294849e+01   7.8691716e+00   0.0000000e+00   0.0000000e+00   0.0000000e+00   0.0000000e+00
   1.6063337e+01   8.6301061e+00   5.3390372e+00   5.7318821e+01   1.9019258e+01   2.1907390e+01   8.9961211e+00   8.5296502e+00   9.1783478e+00   6.4026499e+00   8.8858376e+00   5.4692808e+01   1.9139844e+01   9.6409341e+00   1.1171858e+01   1.2105115e+01   2.8660499e+01   2.1385553e+01   1.3897170e+01   8.2191167e+00   0.0000000e+00   0.0000000e+00   0.0000000e+00   0.0000000e+00
   1.5932881e+01   8.6885033e+00   5.3212826e+00   5.6866732e+01   1.9066035e+01   2.1953060e+01   9.3046643e+00   8.7661550e+00   9.2660530e+00   6.3871367e+00   9.1043704e+00   5.4883734e+01   1.9676882e+01   9.5893549e+00   1.1128828e+01   1.2251150e+01   2.8805257e+01   2.1586079e+01   1.4210877e+01   8.3605872e+00   0.0000000e+00   0.0000000e+00   0.0000000e+00   0.0000000e+00
   1.5731780e+01   8.7770380e+00   5.4595505e+00   5.6215680e+01   1.8787267e+01   2.1635408e+01   9.4433552e+00   8.9251038e+00   9.4581169e+00   6.4213579e+00   8.8630530e+00   5.4831741e+01   1.9921249e+01   9.3499186e+00   1.0772235e+01   1.1959314e+01   2.8332024e+01   2.1288588e+01   1.4042897e+01   8.2813509e+00   0.0000000e+00   0.0000000e+00   0.0000000e+00   0.0000000e+00
   1.5514595e+01   8.9203913e+00   5.7410496e+00   5.5391762e+01   1.8071570e+01   2.0890002e+01   9.3867295e+00   8.9949689e+00   9.5780524e+00   6.3593563e+00   8.3998660e+00   5.4483425e+01   1.9747438e+01   8.7127532e+00   1.0072175e+01   1.1336462e+01   2.7076657e+01   2.0302161e+01   1.3302284e+01   7.9977232e+00   0.0000000e+00   0.0000000e+00   0.0000000e+00   0.0000000e+00
   1.5248667e+01   9.0058338e+00   6.0457315e+00   5.4603593e+01   1.7056314e+01   1.9865258e+01   9.0941925e+00   8.8968243e+00   9.4536069e+00   6.0950709e+00   7.8221837e+00   5.3652026e+01   1.9225057e+01   7.8025886e+00   9.0605042e+00   1.0567911e+01   2.5270261e+01   1.8691478e+01   1.1998006e+01   7.4549630e+00   0.0000000e+00   0.0000000e+00   0.0000000e+00   0.0000000e+00
   1.4929595e+01   8.9341123e+00   6.2712856e+00   5.3673614e+01   1.5987567e+01   1.8797368e+01   8.5051403e+00   8.6070450e+00   9.2116562e+00   5.6683003e+00   7.2497256e+00   5.2420711e+01   1.8736643e+01   6.9453282e+00   7.8694287e+00   9.8435263e+00   2.3354476e+01   1.6873200e+01   1.0249304e+01   6.6506683e+00   0.0000000e+00   0.0000000e+00   0.0000000e+00   0.0000000e+00
   1.4612153e+01   8.6297441e+00   6.2812401e+00   5.2468844e+01   1.5004609e+01   1.7798346e+01   7.5567290e+00   8.2255769e+00   9.1586422e+00   5.3987179e+00   6.9150967e+00   5.1657332e+01   1.8579579e+01   6.2710489e+00   6.6738691e+00   9.3034651e+00   2.1669887e+01   1.5295124e+01   8.2417173e+00   5.7488310e+00   0.0000000e+00   0.0000000e+00   0.0000000e+00   0.0000000e+00
   1.4403638e+01   8.1771583e+00   6.1272247e+00   5.1400424e+01   1.4263106e+01   1.6951105e+01   6.4155018e+00   7.9453879e+00   9.4014392e+00   5.4411885e+00   6.6863109e+00   5.1674935e+01   1.8639288e+01   5.6689671e+00   5.5753150e+00   8.9817114e+00   2.0362040e+01   1.4055067e+01   6.2614824e+00   4.9584721e+00   0.0000000e+00   0.0000000e+00   0.0000000e+00   0.0000000e+00
   1.4220233e+01   7.7177672e+00   5.9745091e+00   5.0781801e+01   1.3857424e+01   1.6341091e+01   5.3625902e+00   7.8400158e+00   9.7770305e+00   5.3942420e+00   6.2864690e+00   5.1597824e+01   1.8590727e+01   4.9505369e+00   4.5608843e+00   8.7853102e+00   1.9410902e+01   1.3016935e+01   4.6140295e+00   4.3812215e+00   0.0000000e+00   0.0000000e+00   0.0000000e+00   0.0000000e+00
   1.3712537e+01   7.2897842e+00   5.8398879e+00   5.0018118e+01   1.3556122e+01   1.6067472e+01   4.6629529e+00   7.8540014e+00   9.9562066e+00   5.0186174e+00   5.7635203e+00   5.0460266e+01   1.8329634e+01   4.2635385e+00   3.8112559e+00   8.6739532e+00   1.8779948e+01   1.2247499e+01   3.6499301e+00   4.1098955e+00   0.0000000e+00   0.0000000e+00   0.0000000e+00   0.0000000e+00
   1.3016919e+01   6.9703299e+00   5.6336572e+00   4.8898981e+01   1.3287695e+01   1.6127268e+01   4.4663850e+00   7.9257133e+00   9.9910987e+00   4.6164641e+00   5.4973205e+00   4.8808235e+01   1.8249185e+01   4.0119091e+00   3.5710150e+00   8.7969504e+00   1.8644866e+01   1.2124968e+01   3.5794916e+00   4.2128333e+00   0.0000000e+00   0.0000000e+00   0.0000000e+00   0.0000000e+00
   1.2629719e+01   6.8848713e+00   5.4061079e+00   4.8288934e+01   1.3306282e+01   1.6363538e+01   4.7814499e+00   8.0820071e+00   1.0135032e+01   4.7112065e+00   5.5924737e+00   4.7786761e+01   1.8604620e+01   4.3652383e+00   3.9104249e+00   9.2307693e+00   1.9093795e+01   1.2678419e+01   4.2953645e+00   4.7446925e+00   0.0000000e+00   0.0000000e+00   0.0000000e+00   0.0000000e+00
   1.2770888e+01   7.0383236e+00   5.1988817e+00   4.8924186e+01   1.3740143e+01   1.6733912e+01   5.4354805e+00   8.3456561e+00   1.0654881e+01   5.4571343e+00   5.9605593e+00   4.8014077e+01   1.9335240e+01   5.1823242e+00   4.6800936e+00   9.8815190e+00   2.0038210e+01   1.3646718e+01   5.4323365e+00   5.5903686e+00   0.0000000e+00   0.0000000e+00   0.0000000e+00   0.0000000e+00
   1.3212768e+01   7.2609741e+00   4.9115025e+00   5.0139965e+01   1.4372781e+01   1.7272347e+01   6.1132585e+00   8.6742921e+00   1.1528498e+01   6.4111206e+00   6.3666164e+00   4.9256137e+01   2.0268404e+01   6.1555144e+00   5.5631568e+00   1.0487505e+01   2.1365315e+01   1.4772405e+01   6.5717344e+00   6.4283161e+00   0.0000000e+00   0.0000000e+00   0.0000000e+00   0.0000000e+00
   1.3605793e+01   7.3666493e+00   4.3814225e+00   5.1173306e+01   1.5069577e+01   1.7995642e+01   6.6273197e+00   9.0323426e+00   1.2619090e+01   7.3021129e+00   6.6837185e+00   5.1062994e+01   2.1359371e+01   7.2211641e+00   6.4405148e+00   1.0883206e+01   2.3018968e+01   1.6066836e+01   7.5276080e+00   7.0664140e+00   0.0000000e+00   0.0000000e+00   0.0000000e+00   0.0000000e+00
   1.3839097e+01   7.3087268e+00   3.5698485e+00   5.2179677e+01   1.5972941e+01   1.9014273e+01   7.0633671e+00   9.4124440e+00   1.3921253e+01   8.1890865e+00   6.7682819e+00   5.3164164e+01   2.2796056e+01   8.6975475e+00   7.5159287e+00   1.1049011e+01   2.5095215e+01   1.7747394e+01   8.4992540e+00   7.6073146e+00   0.0000000e+00   0.0000000e+00   0.0000000e+00   0.0000000e+00
   1.3967760e+01   7.1854290e+00   2.6844153e+00   5.3037357e+01   1.7097631e+01   2.0301789e+01   7.5133585e+00   9.8200629e+00   1.5296718e+01   9.0647242e+00   6.9133802e+00   5.4943927e+01   2.4492668e+01   1.0667220e+01   8.9202855e+00   1.1105415e+01   2.7522227e+01   1.9857569e+01   9.7338812e+00   8.2313828e+00   0.0000000e+00   0.0000000e+00   0.0000000e+00   0.0000000e+00
   1.4100716e+01   7.1287672e+00   1.9137215e+00   5.3358362e+01   1.8238289e+01   2.1603396e+01   7.8565864e+00   1.0184793e+01   1.6323176e+01   9.7164639e+00   7.2352054e+00   5.6149408e+01   2.5916875e+01   1.2674304e+01   1.0312386e+01   1.1059602e+01   2.9932434e+01   2.2100473e+01   1.1020762e+01   8.8195740e+00   0.0000000e+00   0.0000000e+00   0.0000000e+00   0.0000000e+00
   1.4323020e+01   7.1882700e+00   1.2760652e+00   5.3402146e+01   1.9166733e+01   2.2608087e+01   7.9158103e+00   1.0356758e+01   1.6713006e+01   9.9651600e+00   7.5796432e+00   5.6626818e+01   2.6607050e+01   1.4120256e+01   1.1134187e+01   1.0775688e+01   3.1862329e+01   2.4089385e+01   1.1873393e+01   9.0502068e+00   0.0000000e+00   0.0000000e+00   0.0000000e+00   0.0000000e+00
   1.4553971e+01   7.2779799e+00   7.2374167e-01   5.3499899e+01   1.9617439e+01   2.3016886e+01   7.5560340e+00   1.0205795e+01   1.6547433e+01   9.9468687e+00   7.7573841e+00   5.6359571e+01   2.6553794e+01   1.4678563e+01   1.1201492e+01   1.0114746e+01   3.2889839e+01   2.5333010e+01   1.2036540e+01   8.7885661e+00   0.0000000e+00   0.0000000e+00   0.0000000e+00   0.0000000e+00
   1.4504195e+01   7.1209925e+00   1.5319107e-01   5.3268074e+01   1.9364496e+01   2.2738510e+01   6.7870750e+00   9.6609691e+00   1.6267076e+01   9.9490471e+00   7.7447076e+00   5.5804196e+01   2.6158042e+01   1.4522152e+01   1.0761619e+01   9.1194419e+00   3.2939544e+01   2.5667793e+01   1.1587870e+01   8.0930977e+00   0.0000000e+00   0.0000000e+00   0.0000000e+00   0.0000000e+00
   1.4228300e+01   6.7512514e+00  -2.5679948e-01   5.2767976e+01   1.8771953e+01   2.2128398e+01   6.0255946e+00   8.9751731e+00   1.6256289e+01   9.9593427e+00   7.5540605e+00   5.5787208e+01   2.5918475e+01   1.4195097e+01   1.0192536e+01   7.9873856e+00   3.2606901e+01   2.5534656e+01   1.0892981e+01   7.2198222e+00   0.0000000e+00   0.0000000e+00   0.0000000e+00   0.0000000e+00
   1.3983703e+01   6.3875953e+00  -2.6424633e-01   5.2529873e+01   1.8261324e+01   2.1486373e+01   5.6307882e+00   8.5373125e+00   1.6340534e+01   9.7845141e+00   7.3205335e+00   5.6478193e+01   2.5818397e+01   1.3915115e+01   9.6777837e+00   6.9602789e+00   3.2305575e+01   2.5323832e+01   1.0274841e+01   6.4478409e+00   0.0000000e+00   0.0000000e+00   0.0000000e+00   0.0000000e+00
   1.3915593e+01   6.1593073e+00   7.9438382e-02   5.2592666e+01   1.7800113e+01   2.0876964e+01   5.5726371e+00   8.3589148e+00   1.6135996e+01   9.3913663e+00   7.1378426e+00   5.6785401e+01   2.5413490e+01   1.3551584e+01   9.2175369e+00   6.0537680e+00   3.1854822e+01   2.4938556e+01   9.7558582e+00   5.8273855e+00   0.0000000e+00   0.0000000e+00   0.0000000e+00   0.0000000e+00
   1.4055197e+01   6.1972202e+00   5.3018631e-01   5.2474475e+01   1.7363098e+01   2.0371728e+01   5.6665569e+00   8.1209662e+00   1.5642276e+01   8.9241449e+00   7.0171893e+00   5.6235011e+01   2.4646344e+01   1.3059089e+01   8.7183070e+00   5.1518073e+00   3.1153570e+01   2.4255146e+01   9.2252933e+00   5.2437532e+00   0.0000000e+00   0.0000000e+00   0.0000000e+00   0.0000000e+00
   1.4125808e+01   6.3605162e+00   7.9471808e-01   5.1775984e+01   1.6936203e+01   1.9902159e+01   5.6622615e+00   7.5551659e+00   1.4993924e+01   8.4607061e+00   6.6442234e+00   5.5354655e+01   2.3737197e+01   1.2404872e+01   7.9671215e+00   4.1038451e+00   3.0228817e+01   2.3269767e+01   8.5538117e+00   4.5660177e+00   0.0000000e+00   0.0000000e+00   0.0000000e+00   0.0000000e+00
   1.3989062e+01   6.5482388e+00   9.7253852e-01   5.0866639e+01   1.6537748e+01   1.9450480e+01   5.5832112e+00   6.9163874e+00   1.4343722e+01   8.0488251e+00   5.9179892e+00   5.4766198e+01   2.2846876e+01   1.1639181e+01   6.9988177e+00   3.1245457e+00   2.9203292e+01   2.2175775e+01   7.8291995e+00   3.9580414e+00   0.0000000e+00   0.0000000e+00   0.0000000e+00   0.0000000e+00
   1.3852202e+01   6.9890754e+00   1.4557090e+00   5.0334795e+01   1.6330025e+01   1.9264247e+01   5.8093535e+00   6.7582539e+00   1.3701275e+01   7.8227009e+00   5.0247177e+00   5.4543153e+01   2.2081595e+01   1.1079437e+01   6.3062451e+00   2.6437306e+00   2.8335436e+01   2.1296079e+01   7.4743807e+00   3.8586746e+00   0.0000000e+00   0.0000000e+00   0.0000000e+00   0.0000000e+00
   1.3772492e+01   7.6624116e+00   2.2812684e+00   5.0024147e+01   1.6294905e+01   1.9336707e+01   6.4096426e+00   7.0978391e+00   1.2912083e+01   7.7539021e+00   4.3562065e+00   5.4110303e+01   2.1316450e+01   1.0826775e+01   6.2164854e+00   2.7226147e+00   2.7646984e+01   2.0754233e+01   7.6402563e+00   4.3648971e+00   0.0000000e+00   0.0000000e+00   0.0000000e+00   0.0000000e+00
   1.3566401e+01   8.1505300e+00   3.1157053e+00   4.9391435e+01   1.6161029e+01   1.9303439e+01   7.0024008e+00   7.4408608e+00   1.1913875e+01   7.6334897e+00   4.2408914e+00   5.3148218e+01   2.0308642e+01   1.0668421e+01   6.6252258e+00   3.1113830e+00   2.6874219e+01   2.0271239e+01   8.0183753e+00   5.1065145e+00   0.0000000e+00   0.0000000e+00   0.0000000e+00   0.0000000e+00
   1.3060137e+01   8.1013857e+00   3.6086586e+00   4.8332522e+01   1.5696869e+01   1.8894752e+01   7.2255378e+00   7.3724498e+00   1.0869214e+01   7.2660273e+00   4.6707458e+00   5.1989752e+01   1.9000239e+01   1.0335225e+01   7.1242489e+00   3.5283182e+00   2.5818115e+01   1.9590794e+01   8.2551325e+00   5.6121574e+00   0.0000000e+00   0.0000000e+00   0.0000000e+00   0.0000000e+00
   1.2272139e+01   7.6793623e+00   3.8441852e+00   4.7165825e+01   1.5005901e+01   1.8173741e+01   7.1185772e+00   6.9104893e+00   9.9138579e+00   6.6260083e+00   5.2195534e+00   5.0977140e+01   1.7548609e+01   9.7171991e+00   7.3010997e+00   3.7821499e+00   2.4550901e+01   1.8677087e+01   8.2155927e+00   5.7022486e+00   0.0000000e+00   0.0000000e+00   0.0000000e+00   0.0000000e+00
   1.1327994e+01   7.2564771e+00   4.1507344e+00   4.5960294e+01   1.4291134e+01   1.7354600e+01   6.9594045e+00   6.3687213e+00   9.1223086e+00   5.8227279e+00   5.4656966e+00   4.9702597e+01   1.6148745e+01   8.9388961e+00   7.0848757e+00   3.8148082e+00   2.3279873e+01   1.7605481e+01   8.0197938e+00   5.4997234e+00   0.0000000e+00   0.0000000e+00   0.0000000e+00   0.0000000e+00
   1.0391734e+01   7.0025129e+00   4.6274821e+00   4.4896159e+01   1.3748599e+01   1.6729859e+01   6.9224597e+00   5.9801713e+00   8.6210514e+00   4.9973618e+00   5.1216085e+00   4.8271594e+01   1.5065100e+01   8.2768705e+00   6.6246294e+00   3.6142490e+00   2.2250347e+01   1.6606109e+01   7.8359000e+00   5.1309056e+00   0.0000000e+00   0.0000000e+00   0.0000000e+00   0.0000000e+00
   9.6513852e+00   6.8473148e+00   5.1783834e+00   4.4170557e+01   1.3429350e+01   1.6374281e+01   6.9487111e+00   5.7706120e+00   8.4563488e+00   4.2690289e+00   4.4494976e+00   4.7350341e+01   1.4357072e+01   7.7878559e+00   5.9658377e+00   3.3425279e+00   2.1505887e+01   1.5892227e+01   7.6153094e+00   4.6913981e+00   0.0000000e+00   0.0000000e+00   0.0000000e+00   0.0000000e+00
   9.1397258e+00   6.6061491e+00   5.6444390e+00   4.3653697e+01   1.3103480e+01   1.6016643e+01   6.8495226e+00   5.6593449e+00   8.3613149e+00   3.5885445e+00   3.7911721e+00   4.7095655e+01   1.3656210e+01   7.2105976e+00   5.1111719e+00   3.2287877e+00   2.0856790e+01   1.5264202e+01   7.1801023e+00   4.3298658e+00   0.0000000e+00   0.0000000e+00   0.0000000e+00   0.0000000e+00
   8.6954769e+00   6.1899071e+00   5.8565395e+00   4.2961240e+01   1.2554423e+01   1.5476810e+01   6.6255484e+00   5.6420976e+00   8.1080439e+00   2.8904653e+00   3.5100116e+00   4.6741686e+01   1.2643885e+01   6.4867072e+00   4.3360049e+00   3.4699763e+00   2.0170467e+01   1.4546875e+01   6.6277467e+00   4.2272598e+00   0.0000000e+00   0.0000000e+00   0.0000000e+00   0.0000000e+00
   8.3635309e+00   5.8642894e+00   5.9092509e+00   4.2063618e+01   1.2009699e+01   1.5075166e+01   6.6727897e+00   5.9264091e+00   7.8504682e+00   2.4777396e+00   3.7689292e+00   4.5732775e+01   1.1575733e+01   5.9946192e+00   4.2004266e+00   4.2133033e+00   1.9661598e+01   1.4039726e+01   6.5103016e+00   4.7120284e+00   0.0000000e+00   0.0000000e+00   0.0000000e+00   0.0000000e+00
   8.2393942e+00   5.8149753e+00   5.9926934e+00   4.1233306e+01   1.1720699e+01   1.5025294e+01   7.1636143e+00   6.4972479e+00   7.8849319e+00   2.4539216e+00   4.3973315e+00   4.4369967e+01   1.0787675e+01   5.9344023e+00   4.8909296e+00   5.3518762e+00   1.9371426e+01   1.3976792e+01   7.0878603e+00   5.8311300e+00   0.0000000e+00   0.0000000e+00   0.0000000e+00   0.0000000e+00
   8.1689034e+00   5.8542636e+00   6.1945139e+00   4.0483331e+01   1.1557303e+01   1.5149402e+01   7.8649471e+00   7.0128071e+00   8.1381176e+00   2.4242340e+00   4.9611685e+00   4.3265159e+01   1.0245418e+01   6.1129086e+00   5.9753305e+00   6.5079552e+00   1.9035512e+01   1.4089566e+01   8.0156905e+00   7.1537004e+00   0.0000000e+00   0.0000000e+00   0.0000000e+00   0.0000000e+00
   7.9469932e+00   5.7448348e+00   6.5448478e+00   3.9883637e+01   1.1327136e+01   1.5284599e+01   8.6042396e+00   7.2794706e+00   8.3606024e+00   2.3014295e+00   5.2825808e+00   4.2413679e+01   9.7877631e+00   6.2946346e+00   6.9402105e+00   7.4371618e+00   1.8570605e+01   1.4142770e+01   8.8773249e+00   8.2566706e+00   0.0000000e+00   0.0000000e+00   0.0000000e+00   0.0000000e+00
   7.5193604e+00   5.5707270e+00   7.0368643e+00   3.9372603e+01   1.1012151e+01   1.5444751e+01   9.3682049e+00   7.4815519e+00   8.3670718e+00   2.2452395e+00   5.5574883e+00   4.1166471e+01   9.3231360e+00   6.3929678e+00   7.6633858e+00   8.2283680e+00   1.8086025e+01   1.4138881e+01   9.5163075e+00   9.1075743e+00   0.0000000e+00   0.0000000e+00   0.0000000e+00   0.0000000e+00
   7.0555259e+00   5.5989502e+00   7.5756490e+00   3.8749867e+01   1.0739498e+01   1.5702780e+01   1.0093268e+01   7.7933093e+00   8.1359360e+00   2.1637978e+00   6.0048168e+00   3.9463144e+01   8.9156577e+00   6.4356418e+00   8.2081438e+00   9.0890730e+00   1.7680572e+01   1.4151079e+01   9.9304508e+00   9.8266004e+00   0.0000000e+00   0.0000000e+00   0.0000000e+00   0.0000000e+00
   6.8377972e+00   5.9553377e+00   7.9715970e+00   3.8167243e+01   1.0709151e+01   1.6077491e+01   1.0608568e+01   8.1371380e+00   7.7625882e+00   2.1055566e+00   6.5580798e+00   3.8007505e+01   8.6781246e+00   6.4632141e+00   8.5773980e+00   9.9720376e+00   1.7411646e+01   1.4141465e+01   1.0081633e+01   1.0393748e+01   0.0000000e+00   0.0000000e+00   0.0000000e+00   0.0000000e+00
   6.8402093e+00   6.3885558e+00   7.9638544e+00   3.7842095e+01   1.0833864e+01   1.6340829e+01   1.0668529e+01   8.2420469e+00   7.5010297e+00   2.1061348e+00   7.1601799e+00   3.7605277e+01   8.7097073e+00   6.4242939e+00   8.6450846e+00   1.0600302e+01   1.7223907e+01   1.3944130e+01   9.7996760e+00   1.0603372e+01   0.0000000e+00   0.0000000e+00   0.0000000e+00   0.0000000e+00
   6.7080695e+00   6.5392733e+00   7.5387356e+00   3.7593992e+01   1.0715762e+01   1.6214153e+01   1.0211533e+01   7.9561929e+00   7.4608641e+00   2.1156532e+00   7.4523642e+00   3.7836303e+01   8.8345958e+00   6.2768725e+00   8.2899842e+00   1.0757670e+01   1.6953881e+01   1.3405813e+01   9.0309160e+00   1.0353559e+01   0.0000000e+00   0.0000000e+00   0.0000000e+00   0.0000000e+00
   6.2791064e+00   6.2060221e+00   6.9021052e+00   3.7244842e+01   1.0131204e+01   1.5618000e+01   9.3017948e+00   7.3515908e+00   7.6036276e+00   2.2657135e+00   7.2081455e+00   3.7722861e+01   8.8633811e+00   5.9502782e+00   7.4654280e+00   1.0436265e+01   1.6508243e+01   1.2571836e+01   7.8443897e+00   9.6775114e+00   0.0000000e+00   0.0000000e+00   0.0000000e+00   0.0000000e+00
   5.7463163e+00   5.4568739e+00   6.2486849e+00   3.6787644e+01   9.2680784e+00   1.4708156e+01   8.1751510e+00   6.7049743e+00   7.9627975e+00   2.5507222e+00   6.5955395e+00   3.7142056e+01   8.8382172e+00   5.4484258e+00   6.3632492e+00   9.8242284e+00   1.5944690e+01   1.1578650e+01   6.5301579e+00   8.7967167e+00   0.0000000e+00   0.0000000e+00   0.0000000e+00   0.0000000e+00
   5.4514546e+00   4.6024072e+00   5.6595170e+00   3.6359158e+01   8.5191523e+00   1.3827688e+01   7.2485549e+00   6.3192446e+00   8.6386640e+00   2.8836746e+00   6.1517070e+00   3.6762458e+01   8.9547616e+00   5.0334453e+00   5.4883514e+00   9.2692287e+00   1.5481165e+01   1.0811646e+01   5.6680322e+00   8.1175518e+00   0.0000000e+00   0.0000000e+00   0.0000000e+00   0.0000000e+00
   5.5216582e+00   3.8407907e+00   5.1177434e+00   3.6267689e+01   8.0306016e+00   1.3178827e+01   6.7405325e+00   6.2541956e+00   9.5704378e+00   3.2684971e+00   6.1342719e+00   3.7122485e+01   9.3975004e+00   5.0076066e+00   5.2256090e+00   8.8636716e+00   1.5213696e+01   1.0485623e+01   5.5878203e+00   7.8341519e+00   1.0000000e+03   0.0000000e+00   0.0000000e+00   0.0000000e+00
   5.6026560e+00   3.0823881e+00   4.4743255e+00   3.6234482e+01   7.5063804e+00   1.2684335e+01   6.4888020e+00   6.2516147e+00   1.0565915e+01   3.7022810e+00   6.5211847e+00   3.7758913e+01   1.0074736e+01   5.4262413e+00   5.4748344e+00   8.5492496e+00   1.4954246e+01   1.0455227e+01   6.0441403e+00   7.7122022e+00   1.0000000e+03   0.0000000e+00   0.0000000e+00   0.0000000e+00
   5.3131955e+00   2.2786047e+00   3.6799466e+00   3.5663060e+01   6.6694023e+00   1.2271341e+01   6.2707218e+00   6.1059979e+00   1.1559004e+01   4.3335635e+00   7.1729392e+00   3.8045647e+01   1.0785403e+01   6.1428568e+00   5.9785554e+00   8.4289782e+00   1.4655687e+01   1.0552545e+01   6.5938658e+00   7.5882624e+00   1.0000000e+03   0.0000000e+00   0.0000000e+00   0.0000000e+00
   4.6618559e+00   1.4348242e+00   2.8200580e+00   3.4774760e+01   5.5422967e+00   1.1804555e+01   5.9366605e+00   5.8543646e+00   1.2647090e+01   5.0845049e+00   7.9251123e+00   3.7932950e+01   1.1236079e+01   6.7114467e+00   6.4390097e+00   8.6427546e+00   1.4343448e+01   1.0574307e+01   6.8869418e+00   7.5201101e+00   1.0000000e+03   3.0000000e+01   0.0000000e+00   0.0000000e+00
   3.9897226e+00   5.5654025e-01   1.9956352e+00   3.4134592e+01   4.5131011e+00   1.1251314e+01   5.4959328e+00   5.6036228e+00   1.3831816e+01   5.6967543e+00   8.6725643e+00   3.7631755e+01   1.1234145e+01   6.8812125e+00   6.7046124e+00   9.1588497e+00   1.4081316e+01   1.0418375e+01   6.8654054e+00   7.5009021e+00   1.0000000e+03   3.0000000e+01   0.0000000e+00   0.0000000e+00
   3.5729627e+00  -2.6755606e-01   1.3350038e+00   3.3770062e+01   3.9937747e+00   1.0787112e+01   5.1116281e+00   5.5138274e+00   1.5118344e+01   6.0336941e+00   9.5862540e+00   3.7338905e+01   1.1105867e+01   6.9789194e+00   6.9294156e+00   9.8628028e+00   1.4111312e+01   1.0358225e+01   6.7224384e+00   7.5207151e+00   0.0000000e+00   3.0000000e+01   0.0000000e+00   0.0000000e+00
   3.3219047e+00  -8.9753682e-01   8.8067392e-01   3.3399883e+01   3.9079113e+00   1.0512705e+01   4.8195988e+00   5.6728371e+00   1.6525145e+01   6.0971995e+00   1.0454505e+01   3.7229818e+01   1.1263181e+01   7.2691607e+00   7.2042397e+00   1.0569687e+01   1.4465483e+01   1.0451506e+01   6.5109253e+00   7.6180622e+00   0.0000000e+00   3.0000000e+01   0.0000000e+00   0.0000000e+00
   3.1628409e+00  -1.1450484e+00   5.4756222e-01   3.2997797e+01   4.0025871e+00   1.0498787e+01   4.6281528e+00   5.9413808e+00   1.8065167e+01   6.1072415e+00   1.0991021e+01   3.7270550e+01   1.1733415e+01   7.6190885e+00   7.4268044e+00   1.1102894e+01   1.4902816e+01   1.0503351e+01   6.2385177e+00   7.7597598e+00   0.0000000e+00   3.0000000e+01   0.0000000e+00   0.0000000e+00
   3.2983078e+00  -8.2540601e-01   3.5478393e-01   3.2788216e+01   4.3192284e+00   1.0891114e+01   4.7771953e+00   6.1536400e+00   1.9513727e+01   6.2735717e+00   1.0971529e+01   3.7298350e+01   1.2286145e+01   7.9440645e+00   7.5686915e+00   1.1332468e+01   1.5375783e+01   1.0576538e+01   6.1912338e+00   7.9082393e+00   0.0000000e+00   3.0000000e+01   0.0000000e+00   0.0000000e+00
   3.9154244e+00   1.0781949e-02   4.1687271e-01   3.2900892e+01   5.0435695e+00   1.1566443e+01   5.2685397e+00   6.1732626e+00   2.0519181e+01   6.5219859e+00   1.0399595e+01   3.7136941e+01   1.2668251e+01   8.1982847e+00   7.6406165e+00   1.1247807e+01   1.5906738e+01   1.0838372e+01   6.4002883e+00   7.9828433e+00   0.0000000e+00   3.0000000e+01   0.0000000e+00   0.0000000e+00
   4.8636377e+00   1.0285601e+00   6.7428616e-01   3.3374083e+01   6.1638972e+00   1.2139966e+01   5.7111574e+00   5.8849606e+00   2.0997663e+01   6.6337964e+00   9.4302367e+00   3.7048572e+01   1.2883803e+01   8.2984843e+00   7.6434057e+00   1.0847960e+01   1.6398779e+01   1.1107493e+01   6.4944690e+00   7.8785202e+00   0.0000000e+00   3.0000000e+01   0.0000000e+00   0.0000000e+00
   5.6673984e+00   1.7549324e+00   7.1827180e-01   3.3857138e+01   7.2175186e+00   1.2294113e+01   5.7729727e+00   5.2656553e+00   2.1189211e+01   6.3758424e+00   8.4859905e+00   3.7257003e+01   1.3087611e+01   8.2167940e+00   7.5483513e+00   1.0152860e+01   1.6631824e+01   1.1135022e+01   6.3088635e+00   7.5226999e+00   0.0000000e+00   3.0000000e+01   0.0000000e+00   0.0000000e+00
   6.0712949e+00   2.1487080e+00   3.7804170e-01   3.3874369e+01   7.8907896e+00   1.2261398e+01   5.6593670e+00   4.5143425e+00   2.1350566e+01   5.9109382e+00   7.8863279e+00   3.7100839e+01   1.3304475e+01   8.1009204e+00   7.4769889e+00   9.3838513e+00   1.6578541e+01   1.1081969e+01   6.1554333e+00   7.0166235e+00   0.0000000e+00   3.0000000e+01   0.0000000e+00   0.0000000e+00
   6.2451720e+00   2.5402122e+00  -1.1580401e-01   3.3574948e+01   8.3864149e+00   1.2425489e+01   5.6710220e+00   3.8263926e+00   2.1537625e+01   5.7267562e+00   7.6705671e+00   3.6266952e+01   1.3371558e+01   8.0059785e+00   7.5043767e+00   8.7926654e+00   1.6400913e+01   1.1218536e+01   6.2245994e+00   6.4417195e+00   0.0000000e+00   3.0000000e+01   0.0000000e+00   0.0000000e+00
   6.4490377e+00   3.0756139e+00  -5.6440340e-01   3.3347539e+01   8.9366679e+00   1.2731545e+01   5.7306741e+00   3.2050125e+00   2.1510119e+01   5.8501857e+00   7.6246827e+00   3.5354576e+01   1.3120788e+01   7.7966495e+00   7.4980287e+00   8.3279988e+00   1.6067283e+01   1.1424693e+01   6.3739358e+00   5.8186284e+00   0.0000000e+00   3.0000000e+01   0.0000000e+00   0.0000000e+00
   6.7822816e+00   3.6472026e+00  -8.9870461e-01   3.3201186e+01   9.5042062e+00   1.2938613e+01   5.7013770e+00   2.5742878e+00   2.1179193e+01   5.9874094e+00   7.5563182e+00   3.4952429e+01   1.2633635e+01   7.3908401e+00   7.2843456e+00   7.7897405e+00   1.5534983e+01   1.1519304e+01   6.4849319e+00   5.1758598e+00   0.0000000e+00   3.0000000e+01   0.0000000e+00   0.0000000e+00
   7.1673032e+00   4.1606838e+00  -1.1244118e+00   3.3002840e+01   9.9608716e+00   1.3027195e+01   5.6166993e+00   1.7856396e+00   2.0542593e+01   5.8572000e+00   7.1239413e+00   3.4850080e+01   1.2050307e+01   6.8318929e+00   6.7096110e+00   6.9109270e+00   1.4962924e+01   1.1448582e+01   6.4472145e+00   4.3680071e+00   0.0000000e+00   3.0000000e+01   0.0000000e+00   0.0000000e+00
   7.4718984e+00   4.5866941e+00  -1.3472018e+00   3.2769600e+01   1.0187862e+01   1.3104685e+01   5.4741075e+00   7.3792638e-01   1.9750619e+01   5.2945362e+00   6.2713570e+00   3.4340858e+01   1.1441690e+01   6.1319146e+00   5.7423354e+00   5.6363407e+00   1.4482383e+01   1.1306122e+01   6.1041802e+00   3.2001658e+00   0.0000000e+00   3.0000000e+01   0.0000000e+00   0.0000000e+00
   7.7405059e+00   4.9850323e+00  -1.5701690e+00   3.2606049e+01   1.0280325e+01   1.3164940e+01   5.1941091e+00  -4.4867348e-01   1.9177348e+01   4.5089134e+00   5.1611707e+00   3.3367286e+01   1.0876922e+01   5.3374920e+00   4.5994964e+00   4.2109147e+00   1.4129676e+01   1.1069820e+01   5.4271686e+00   1.8230602e+00   0.0000000e+00   3.0000000e+01   0.0000000e+00   0.0000000e+00
   8.1235647e+00   5.4657036e+00  -1.6675274e+00   3.2317741e+01   1.0474074e+01   1.3167008e+01   4.8383363e+00  -1.5694392e+00   1.8962964e+01   3.8422808e+00   4.0673334e+00   3.2390627e+01   1.0321447e+01   4.6330834e+00   3.5761949e+00   2.9956808e+00   1.3830925e+01   1.0709087e+01   4.5085978e+00   5.4108869e-01   0.0000000e+00   3.0000000e+01   0.0000000e+00   0.0000000e+00
   8.5839903e+00   6.0342297e+00  -1.4305649e+00   3.1802107e+01   1.0794168e+01   1.3125768e+01   4.6431004e+00  -2.4215636e+00   1.8813620e+01   3.3279708e+00   3.0964395e+00   3.1515813e+01   9.6082801e+00   4.1126535e+00   2.7473057e+00   2.1989907e+00   1.3406965e+01   1.0283228e+01   3.3237394e+00  -5.2518455e-01   0.0000000e+00   3.0000000e+01   0.0000000e+00   0.0000000e+00
   8.8409810e+00   6.4328494e+00  -8.0282272e-01   3.1214935e+01   1.0915476e+01   1.2879882e+01   4.6411454e+00  -2.8280415e+00   1.8485742e+01   2.6855658e+00   2.4601438e+00   3.0855010e+01   8.7328199e+00   3.6121832e+00   2.0073093e+00   1.8065648e+00   1.2658636e+01   9.7203574e+00   1.8434999e+00  -1.3569743e+00   0.0000000e+00   3.0000000e+01   0.0000000e+00   0.0000000e+00
   8.5293058e+00   6.3634427e+00   6.4922044e-02   3.0757076e+01   1.0443718e+01   1.2297522e+01   4.8069252e+00  -2.5544069e+00   1.7933029e+01   1.9283209e+00   2.5163324e+00   3.0312873e+01   7.7991331e+00   3.0323699e+00   1.5595421e+00   1.8553046e+00   1.1542238e+01   8.8732763e+00   5.0608603e-01  -1.6518500e+00   0.0000000e+00   3.0000000e+01   0.0000000e+00   0.0000000e+00
   7.5999489e+00   5.8478630e+00   1.0782686e+00   3.0374755e+01   9.3442891e+00   1.1421537e+01   5.2177198e+00  -1.4774764e+00   1.7257193e+01   1.3634445e+00   3.4578885e+00   2.9287089e+01   6.7752958e+00   2.3312969e+00   1.7107756e+00   2.6030867e+00   1.0198604e+01   7.7722975e+00  -2.2380341e-01  -1.0536952e+00   0.0000000e+00   3.0000000e+01   0.0000000e+00   0.0000000e+00
   6.3305275e+00   5.1201313e+00   2.1609938e+00   2.9368620e+01   7.7926237e+00   1.0198223e+01   5.7101377e+00   1.7645091e-01   1.6461568e+01   1.0848598e+00   5.0088841e+00   2.7720770e+01   5.4055710e+00   1.4009861e+00   2.3481400e+00   4.0061280e+00   8.6250506e+00   6.3406308e+00  -4.7630103e-01   3.2100137e-01   0.0000000e+00   3.0000000e+01   0.0000000e+00   0.0000000e+00
   5.0559776e+00   4.3395111e+00   3.0340386e+00   2.7711318e+01   6.0632928e+00   8.6678001e+00   5.9113224e+00   1.8836959e+00   1.5584078e+01   8.5767071e-01   6.7987303e+00   2.6147112e+01   3.6396101e+00   2.9293945e-01   3.0479983e+00   5.6675839e+00   6.7993168e+00   4.5808525e+00  -6.8661609e-01   1.9106751e+00   0.0000000e+00   3.0000000e+01   0.0000000e+00   0.0000000e+00
   3.9124282e+00   3.5605771e+00   3.5216221e+00   2.6134318e+01   4.5012836e+00   7.0786168e+00   5.7106366e+00   3.3015210e+00   1.4840343e+01   5.9229403e-01   8.3025507e+00   2.4762872e+01   1.8446722e+00  -7.5632503e-01   3.5977048e+00   7.1569232e+00   4.9328271e+00   2.6801732e+00  -1.0251367e+00   3.3094444e+00   0.0000000e+00   3.0000000e+01   0.0000000e+00   0.0000000e+00
   2.7905208e+00   2.7266700e+00   3.7371794e+00   2.4868884e+01   3.1485965e+00   5.5629416e+00   5.2593496e+00   4.4630721e+00   1.4439192e+01   4.1672405e-01   9.3584162e+00   2.3612686e+01   5.0870389e-01  -1.5332384e+00   3.9868725e+00   8.3214964e+00   3.2418785e+00   8.8463868e-01  -1.3304494e+00   4.4328679e+00   0.0000000e+00   3.0000000e+01   0.0000000e+00   0.0000000e+00
   1.6018226e+00   1.7694412e+00   3.8211812e+00   2.3820099e+01   1.7472532e+00   4.0742522e+00   4.6716523e+00   5.4744335e+00   1.4291729e+01   2.8044555e-01   9.8029620e+00   2.2700483e+01  -2.7736365e-01  -2.0625267e+00   4.1069854e+00   9.1033319e+00   1.7128101e+00  -6.7482329e-01  -1.5012849e+00   5.2202506e+00   0.0000000e+00   3.0000000e+01   0.0000000e+00   0.0000000e+00
   5.3315809e-01   6.9191566e-01   3.7143928e+00   2.2924461e+01   2.4331254e-01   2.4657100e+00   3.8261350e+00   6.1932465e+00   1.4157261e+01   7.2309741e-02   9.3603969e+00   2.2173163e+01  -8.8473912e-01  -2.7263038e+00   3.7373453e+00   9.3247644e+00   1.5648758e-01  -2.1037992e+00  -1.7988626e+00   5.4763999e+00   0.0000000e+00   3.0000000e+01   0.0000000e+00   0.0000000e+00
  -2.0977459e-02  -3.1952484e-01   3.3720024e+00   2.2155573e+01  -1.0273921e+00   7.5498512e-01   2.5935575e+00   6.4034763e+00   1.3795097e+01  -2.9676106e-01   8.0317930e+00   2.1971454e+01  -1.6788454e+00  -3.8657035e+00   2.8085246e+00   8.8823452e+00  -1.4776437e+00  -3.6588448e+00  -2.5357813e+00   5.0945877e+00   0.0000000e+00   3.0000000e+01   0.0000000e+00   0.0000000e+00
   1.1105641e-01  -1.0278746e+00   2.9352043e+00   2.1545238e+01  -1.8104009e+00  -8.6310826e-01   1.1310844e+00   6.1417338e+00   1.3302254e+01  -8.3039442e-01   6.2411217e+00   2.1644362e+01  -2.6482866e+00  -5.3474114e+00   1.4705244e+00   7.9527495e+00  -3.0360635e+00  -5.3914432e+00  -3.6541873e+00   4.2262588e+00   0.0000000e+00   3.0000000e+01   0.0000000e+00   0.0000000e+00
   7.0401625e-01  -1.3018333e+00   2.5851043e+00   2.1323270e+01  -2.0765896e+00  -2.0927050e+00  -1.6100004e-01   5.6007672e+00   1.3043623e+01  -1.2387333e+00   4.4182765e+00   2.1480258e+01  -3.3636912e+00  -6.5299651e+00   7.4320934e-02   6.8129861e+00  -4.1203006e+00  -6.9940892e+00  -4.7479413e+00   3.1704042e+00   0.0000000e+00   3.0000000e+01   0.0000000e+00   0.0000000e+00
   1.4167002e+00  -1.2107982e+00   2.2547002e+00   2.1310151e+01  -1.9759416e+00  -2.7147108e+00  -1.0494521e+00   4.7729217e+00   1.3269079e+01  -1.3875051e+00   2.8146057e+00   2.1986345e+01  -3.5782839e+00  -7.0267087e+00  -1.1223533e+00   5.5594219e+00  -4.4762308e+00  -8.0060943e+00  -5.5153705e+00   2.0303689e+00   0.0000000e+00   3.0000000e+01   0.0000000e+00   0.0000000e+00
   2.0125520e+00  -9.3594657e-01   1.8957700e+00   2.1245301e+01  -1.7392856e+00  -2.8149502e+00  -1.4643453e+00   3.7640556e+00   1.3764925e+01  -1.3926433e+00   1.5038495e+00   2.2455457e+01  -3.7782802e+00  -7.1190977e+00  -2.0351053e+00   4.2734390e+00  -4.3995859e+00  -8.3364610e+00  -5.8767563e+00   9.6110312e-01   0.0000000e+00   3.0000000e+01   0.0000000e+00   0.0000000e+00
   2.4751104e+00  -6.1804347e-01   1.6551996e+00   2.1406943e+01  -1.4406270e+00  -2.5903266e+00  -1.3990216e+00   2.9785371e+00   1.4150572e+01  -1.4278732e+00   7.2470053e-01   2.2232102e+01  -4.3648888e+00  -7.1822023e+00  -2.6068037e+00   3.3342434e+00  -4.2811257e+00  -8.2083507e+00  -5.8654362e+00   2.8573075e-01   0.0000000e+00   3.0000000e+01   0.0000000e+00   0.0000000e+00
   2.9033731e+00  -4.2742484e-01   1.5175056e+00   2.1874535e+01  -1.0714866e+00  -2.1541918e+00  -1.0205396e+00   2.5729196e+00   1.4258981e+01  -1.5967983e+00   2.7890979e-01   2.1872295e+01  -4.9573606e+00  -7.1502926e+00  -2.7790587e+00   2.8536676e+00  -4.1167209e+00  -7.8585567e+00  -5.5353098e+00   9.8340737e-02   0.0000000e+00   3.0000000e+01   0.0000000e+00   0.0000000e+00
   3.2533404e+00  -4.7340115e-01   1.3205929e+00   2.1966893e+01  -8.0565730e-01  -1.5721456e+00  -5.1778297e-01   2.4562848e+00   1.4116655e+01  -1.8291392e+00  -9.1083046e-02   2.1564891e+01  -5.1363486e+00  -6.8121003e+00  -2.5862165e+00   2.6797302e+00  -3.7880388e+00  -7.2877592e+00  -4.8895193e+00   2.6472419e-01   0.0000000e+00   3.0000000e+01   0.0000000e+00   0.0000000e+00
   3.5999052e+00  -4.2893363e-01   1.3232512e+00   2.1579996e+01  -6.0026072e-01  -7.1925520e-01   2.4526913e-01   2.7771928e+00   1.3978939e+01  -1.8146856e+00  -2.9054948e-01   2.1482491e+01  -4.8626585e+00  -6.2093223e+00  -2.1124286e+00   2.7765714e+00  -3.1440910e+00  -6.3578513e+00  -3.9135671e+00   8.0195617e-01   0.0000000e+00   3.0000000e+01   0.0000000e+00   0.0000000e+00
   4.0471422e+00  -2.8569658e-02   1.8739463e+00   2.1256987e+01  -2.7882267e-01   3.0039610e-01   1.3007222e+00   3.6789770e+00   1.4083773e+01  -1.6016955e+00  -2.1435328e-01   2.1767018e+01  -4.5004491e+00  -5.7861799e+00  -1.6185760e+00   3.1030639e+00  -2.3148933e+00  -5.3333369e+00  -2.9562491e+00   1.7158202e+00   0.0000000e+00   3.0000000e+01   0.0000000e+00   0.0000000e+00
   4.5617285e+00   6.3160100e-01   2.9061119e+00   2.1204273e+01   1.8139511e-01   1.2211309e+00   2.3816848e+00   4.9598884e+00   1.4392609e+01  -1.4164659e+00  -3.5982408e-02   2.1966875e+01  -4.3987123e+00  -5.7581741e+00  -1.3174890e+00   3.5325165e+00  -1.5219051e+00  -4.6249689e+00  -2.4268423e+00   2.8266074e+00   0.0000000e+00   3.0000000e+01   0.0000000e+00   0.0000000e+00
   5.0728530e+00   1.3612013e+00   4.0944070e+00   2.1273529e+01   7.0737617e-01   1.9893977e+00   3.2700752e+00   6.1943618e+00   1.4758606e+01  -1.2682944e+00   2.7018768e-01   2.1657302e+01  -4.3972938e+00  -5.7440963e+00  -1.0815052e+00   4.0778859e+00  -7.1967157e-01  -4.1293646e+00  -2.2382251e+00   3.9055456e+00   0.0000000e+00   3.0000000e+01   0.0000000e+00   0.0000000e+00
   5.3013675e+00   1.9826662e+00   5.1070887e+00   2.0765619e+01   1.1642889e+00   2.7223224e+00   3.9863870e+00   7.0982217e+00   1.4727774e+01  -1.0877709e+00   7.2706629e-01   2.0560093e+01  -4.3043449e+00  -5.2620557e+00  -6.1387765e-01   4.6604097e+00   1.5599979e-01  -3.4985833e+00  -2.0008636e+00   4.8440004e+00   0.0000000e+00   3.0000000e+01   0.0000000e+00   0.0000000e+00
   5.2054109e+00   2.4441987e+00   5.7160933e+00   1.9557231e+01   1.6434178e+00   3.5999856e+00   4.6528045e+00   7.6477101e+00   1.4350370e+01  -6.3772491e-01   1.3716070e+00   1.9042485e+01  -3.9626691e+00  -4.0769364e+00   2.9511615e-01   5.2514613e+00   1.2402120e+00  -2.4159668e+00  -1.4175820e+00   5.6818225e+00   0.0000000e+00   3.0000000e+01   0.0000000e+00   0.0000000e+00
   5.2869671e+00   2.9251755e+00   5.9104768e+00   1.8732980e+01   2.4575186e+00   4.7308880e+00   5.3621003e+00   7.9727863e+00   1.4241344e+01   2.3827889e-01   1.9812466e+00   1.8079739e+01  -3.2455592e+00  -2.3019184e+00   1.6230153e+00   5.8057965e+00   2.7189756e+00  -8.6046756e-01  -4.0642474e-01   6.4786103e+00   0.0000000e+00   3.0000000e+01   0.0000000e+00   0.0000000e+00
   5.9489959e+00   3.6114463e+00   5.8305428e+00   1.9342983e+01   3.6101927e+00   5.9912051e+00   6.0838778e+00   8.1189226e+00   1.4739397e+01   1.2733368e+00   2.4052334e+00   1.8014703e+01  -2.2648741e+00  -3.6935497e-01   3.0674220e+00   6.2113465e+00   4.4588421e+00   9.4240943e-01   8.7197080e-01   7.1350906e+00   0.0000000e+00   3.0000000e+01   0.0000000e+00   0.0000000e+00
   7.1050756e+00   4.5028404e+00   5.5866124e+00   2.1091778e+01   4.8377257e+00   7.1600961e+00   6.6397513e+00   7.9896612e+00   1.5669691e+01   2.2159740e+00   2.5317907e+00   1.8990098e+01  -1.0673462e+00   1.3819686e+00   4.2981281e+00   6.2201117e+00   6.1860674e+00   2.6553206e+00   2.1028252e+00   7.4532016e+00   0.0000000e+00   3.0000000e+01   0.0000000e+00   0.0000000e+00
   8.2873149e+00   5.4331194e+00   5.1968346e+00   2.2596358e+01   5.8552820e+00   8.1055828e+00   6.8921510e+00   7.5886242e+00   1.6636871e+01   3.1041217e+00   2.4241925e+00   2.0465896e+01   3.3861216e-01   2.8098487e+00   5.1293898e+00   5.7831347e+00   7.6436698e+00   4.0043166e+00   3.0291157e+00   7.3539980e+00   0.0000000e+00   3.0000000e+01   0.0000000e+00   0.0000000e+00
   9.1988711e+00   6.2474835e+00   4.6946121e+00   2.3514788e+01   6.5639640e+00   8.8368474e+00   6.8535609e+00   7.0783575e+00   1.7363484e+01   3.6989541e+00   2.1128147e+00   2.1223222e+01   1.7227509e+00   3.7603167e+00   5.4470563e+00   5.0713727e+00   8.6962090e+00   4.8737871e+00   3.5228637e+00   6.9201776e+00   0.0000000e+00   3.0000000e+01   0.0000000e+00   0.0000000e+00
   9.8250877e+00   6.8432390e+00   4.1054099e+00   2.4303313e+01   7.0135060e+00   9.4161587e+00   6.5622669e+00   6.6344401e+00   1.7775457e+01   3.8149269e+00   1.6033940e+00   2.1385990e+01   2.7830554e+00   4.0976058e+00   5.2366256e+00   4.3841291e+00   9.3749657e+00   5.3527211e+00   3.5797076e+00   6.3439056e+00   0.0000000e+00   3.0000000e+01   0.0000000e+00   0.0000000e+00
   1.0283643e+01   7.2281331e+00   3.5503002e+00   2.5016423e+01   7.3578619e+00   9.8484732e+00   6.1170107e+00   6.3696104e+00   1.7920732e+01   3.7021980e+00   8.8161016e-01   2.1589150e+01   3.2294918e+00   3.8860906e+00   4.6986678e+00   3.9412867e+00   9.7625202e+00   5.5630647e+00   3.3725045e+00   5.8982420e+00   0.0000000e+00   3.0000000e+01   0.0000000e+00   0.0000000e+00
   1.0659773e+01   7.4253805e+00   3.1064176e+00   2.5457750e+01   7.7179735e+00   1.0068572e+01   5.6531061e+00   6.2711906e+00   1.7994071e+01   3.5577366e+00   3.0699741e-01   2.1895806e+01   3.0702544e+00   3.4442441e+00   4.1347916e+00   3.8372319e+00   9.9433022e+00   5.6361543e+00   3.1747856e+00   5.7606152e+00   0.0000000e+00   3.0000000e+01   0.0000000e+00   0.0000000e+00
   1.0896984e+01   7.4735606e+00   2.7251432e+00   2.5536509e+01   8.0793629e+00   1.0193137e+01   5.3649239e+00   6.2867635e+00   1.8109239e+01   3.5085775e+00   1.1977595e-01   2.2133964e+01   2.7232840e+00   3.2441463e+00   3.8123502e+00   4.0135171e+00   1.0026294e+01   5.7545290e+00   3.2234393e+00   5.9214218e+00   0.0000000e+00   3.0000000e+01   0.0000000e+00   0.0000000e+00
   1.0975977e+01   7.4989814e+00   2.3515994e+00   2.5458670e+01   8.5727779e+00   1.0535859e+01   5.4118619e+00   6.3105176e+00   1.8388625e+01   3.8070470e+00   2.5846040e-01   2.2356517e+01   2.7074806e+00   3.5999007e+00   3.7723740e+00   4.2553434e+00   1.0212076e+01   6.2097053e+00   3.5459518e+00   6.0961185e+00   0.0000000e+00   3.0000000e+01   0.0000000e+00   0.0000000e+00
   1.0907114e+01   7.5944478e+00   2.0147183e+00   2.5397929e+01   9.3326087e+00   1.1211745e+01   5.7855086e+00   6.2498458e+00   1.8914624e+01   4.6735215e+00   5.7860527e-01   2.2622772e+01   3.1810841e+00   4.5708352e+00   3.9967585e+00   4.3355027e+00   1.0700843e+01   7.1435504e+00   4.0087953e+00   6.0740648e+00   0.0000000e+00   3.0000000e+01   0.0000000e+00   0.0000000e+00
   1.0529267e+01   7.4987754e+00   1.6626265e+00   2.5081822e+01   9.9544546e+00   1.1732780e+01   6.1182353e+00   6.1062612e+00   1.9442007e+01   5.8524994e+00   9.9592260e-01   2.2673810e+01   3.6976267e+00   5.7833614e+00   4.3482380e+00   4.1237064e+00   1.1181198e+01   8.1374295e+00   4.2920668e+00   5.7748372e+00   0.0000000e+00   3.0000000e+01   0.0000000e+00   0.0000000e+00
   9.7549638e+00   6.9453939e+00   1.2613933e+00   2.4397309e+01   9.9446448e+00   1.1658769e+01   6.1006296e+00   5.9430911e+00   1.9533671e+01   6.8403317e+00   1.2646173e+00   2.2582308e+01   3.7161643e+00   6.7221980e+00   4.6331785e+00   3.6371639e+00   1.1109119e+01   8.5970521e+00   4.1897167e+00   5.2203737e+00   0.0000000e+00   3.0000000e+01   0.0000000e+00   0.0000000e+00
   8.8270655e+00   6.1906676e+00   9.9135685e-01   2.3545297e+01   9.3623186e+00   1.1248836e+01   5.9721888e+00   5.8107843e+00   1.9078997e+01   7.3326293e+00   1.3672065e+00   2.2499553e+01   3.0900219e+00   7.2280963e+00   4.8634083e+00   3.1488936e+00   1.0412101e+01   8.5434343e+00   3.9833319e+00   4.6153192e+00   0.0000000e+00   3.0000000e+01   0.0000000e+00   0.0000000e+00
   7.9234448e+00   5.6333710e+00   1.0071322e+00   2.2531157e+01   8.5212871e+00   1.0938745e+01   6.0955715e+00   5.6125989e+00   1.8188370e+01   7.2139450e+00   1.3671314e+00   2.2090803e+01   2.1007745e+00   7.4302686e+00   5.0430432e+00   2.7269458e+00   9.4233463e+00   8.2542608e+00   3.9785697e+00   4.0553940e+00   0.0000000e+00   3.0000000e+01   0.0000000e+00   0.0000000e+00
   7.0741268e+00   5.3751850e+00   1.2265546e+00   2.1470105e+01   7.6492025e+00   1.0852336e+01   6.4520604e+00   5.1466598e+00   1.7226610e+01   6.6499992e+00   1.2860973e+00   2.1318523e+01   1.3778756e+00   7.4588014e+00   5.0369682e+00   2.2856712e+00   8.5870544e+00   7.9620873e+00   4.0944130e+00   3.4306065e+00   0.0000000e+00   3.0000000e+01   0.0000000e+00   0.0000000e+00
   6.3707087e+00   5.3504911e+00   1.5314855e+00   2.0470448e+01   6.8832757e+00   1.0916487e+01   6.8513753e+00   4.4251932e+00   1.6491559e+01   6.0261550e+00   1.0600424e+00   2.0319256e+01   1.2171648e+00   7.3596797e+00   4.8446979e+00   1.9382739e+00   8.1663574e+00   7.8135963e+00   4.1703314e+00   2.7621629e+00   0.0000000e+00   3.0000000e+01   0.0000000e+00   0.0000000e+00
   5.7667100e+00   5.3683887e+00   1.7101732e+00   1.9434538e+01   6.1001223e+00   1.0845540e+01   7.0052640e+00   3.5053022e+00   1.5935571e+01   5.5289165e+00   7.3607210e-01   1.9366827e+01   1.2745623e+00   6.9776277e+00   4.4477193e+00   1.7894636e+00   7.9073452e+00   7.7279764e+00   4.0194498e+00   2.0689980e+00   0.0000000e+00   3.0000000e+01   0.0000000e+00   0.0000000e+00
   5.2014171e+00   5.3784084e+00   1.7231013e+00   1.8472467e+01   5.2668685e+00   1.0527018e+01   6.8162092e+00   2.4841439e+00   1.5475639e+01   5.1006232e+00   4.1335049e-01   1.8988551e+01   1.1519951e+00   6.2884085e+00   3.8636436e+00   1.7582802e+00   7.5865437e+00   7.5483792e+00   3.5465488e+00   1.3978428e+00   0.0000000e+00   3.0000000e+01   0.0000000e+00   0.0000000e+00
   4.7239828e+00   5.3921701e+00   1.7565082e+00   1.7702197e+01   4.5719096e+00   1.0106790e+01   6.4249905e+00   1.5400273e+00   1.5138432e+01   4.5829431e+00   2.2568150e-01   1.9143741e+01   7.1843653e-01   5.4794353e+00   3.2411431e+00   1.7845328e+00   7.2672411e+00   7.2769853e+00   2.8528247e+00   8.5493657e-01   0.0000000e+00   3.0000000e+01   0.0000000e+00   0.0000000e+00
   4.4577042e+00   5.3914072e+00   1.8502490e+00   1.7098191e+01   4.2154479e+00   9.7559868e+00   5.9337089e+00   7.6226462e-01   1.5028411e+01   4.1240744e+00   1.3489586e-01   1.9176728e+01   2.0038561e-01   4.8619581e+00   2.7643213e+00   1.7886779e+00   7.1429103e+00   7.0203871e+00   2.1809340e+00   4.5869742e-01   0.0000000e+00   3.0000000e+01   0.0000000e+00   0.0000000e+00
   4.4517474e+00   5.3008699e+00   1.7727681e+00   1.6785087e+01   4.2450741e+00   9.4670390e+00   5.3167191e+00   6.0393925e-02   1.5351423e+01   4.0667415e+00   2.0131144e-01   1.9191299e+01   1.5008662e-01   4.7193480e+00   2.5761231e+00   1.7125653e+00   7.3370857e+00   6.9227260e+00   1.7281603e+00   1.3090243e-01   0.0000000e+00   3.0000000e+01   0.0000000e+00   0.0000000e+00
   4.6219306e+00   5.1378638e+00   1.4432309e+00   1.6880574e+01   4.5670669e+00   9.2051775e+00   4.7115672e+00  -6.2218825e-01   1.6150025e+01   4.5603918e+00   4.0008639e-01   1.9984296e+01   8.8412059e-01   5.1734600e+00   2.7796906e+00   1.5919163e+00   7.8249839e+00   6.9648797e+00   1.6081041e+00  -8.0296928e-02   0.0000000e+00   3.0000000e+01   0.0000000e+00   0.0000000e+00
   4.8534259e+00   4.9974851e+00   9.5389863e-01   1.7167511e+01   4.9964234e+00   9.0082964e+00   4.2844100e+00  -1.2747013e+00   1.7191550e+01   5.4719319e+00   5.4261106e-01   2.1168789e+01   2.0708488e+00   6.0554684e+00   3.2490120e+00   1.3687862e+00   8.4592396e+00   7.0075837e+00   1.7453077e+00  -1.7166227e-01   0.0000000e+00   3.0000000e+01   0.0000000e+00   0.0000000e+00
   5.0689943e+00   4.8358340e+00   3.3493172e-01   1.7382365e+01   5.3252390e+00   8.8818084e+00   3.9954657e+00  -1.9004829e+00   1.8148998e+01   6.5410968e+00   4.1656928e-01   2.1881714e+01   3.1294303e+00   6.9537311e+00   3.6920085e+00   9.2911914e-01   9.0124298e+00   6.8894129e+00   1.8551574e+00  -3.0733982e-01   0.0000000e+00   3.0000000e+01   0.0000000e+00   0.0000000e+00
   5.2138809e+00   4.6178854e+00  -3.3319850e-01   1.7452246e+01   5.5735217e+00   8.9679208e+00   3.8798210e+00  -2.3395898e+00   1.8957060e+01   7.4451587e+00   3.1980241e-01   2.2145283e+01   3.9340375e+00   7.5725996e+00   4.0116596e+00   4.7902261e-01   9.4651341e+00   6.7441959e+00   1.9394161e+00  -4.2608109e-01   0.0000000e+00   3.0000000e+01   0.0000000e+00   0.0000000e+00
   5.0960236e+00   4.4429692e+00  -8.0042732e-01   1.7462925e+01   5.8120883e+00   9.3894230e+00   4.1040145e+00  -2.3998220e+00   1.9566498e+01   7.8637293e+00   3.2212723e-01   2.2479493e+01   4.5946644e+00   7.8624269e+00   4.2450810e+00   2.6883841e-01   9.9889265e+00   6.8126131e+00   2.2181819e+00  -2.8182078e-01   0.0000000e+00   3.0000000e+01   0.0000000e+00   0.0000000e+00
   4.4524908e+00   4.2644448e+00  -9.2658855e-01   1.7226436e+01   5.7261468e+00   9.8383508e+00   4.4962306e+00  -2.2492660e+00   1.9809351e+01   7.6158550e+00   1.9539431e-01   2.2848193e+01   4.9735295e+00   7.6827802e+00   4.1109354e+00   2.7370436e-01   1.0364147e+01   6.9340732e+00   2.4098898e+00  -3.5293542e-02   0.0000000e+00   3.0000000e+01   0.0000000e+00   0.0000000e+00
   3.2838517e+00   3.9351772e+00  -7.8454333e-01   1.6491231e+01   5.1077076e+00   9.9734186e+00   4.6788499e+00  -2.2172200e+00   1.9567067e+01   6.7739964e+00  -2.2361432e-01   2.2678734e+01   4.8452233e+00   6.9589468e+00   3.3690698e+00   2.1886699e-01   1.0230202e+01   6.7936830e+00   2.1089177e+00  -1.0810219e-01   0.0000000e+00   3.0000000e+01   0.0000000e+00   0.0000000e+00
   2.0745011e+00   3.5585811e+00  -4.3791227e-01   1.5402359e+01   4.4432368e+00   9.9261773e+00   4.5618499e+00  -2.2907083e+00   1.8967792e+01   5.7172501e+00  -7.3899704e-01   2.1797970e+01   4.3233767e+00   6.0404981e+00   2.3549409e+00   5.6828851e-02   9.8451145e+00   6.5998448e+00   1.5311565e+00  -5.2239662e-01   0.0000000e+00   3.0000000e+01   0.0000000e+00   0.0000000e+00
   1.3134699e+00   3.3590364e+00   1.0724474e-01   1.4299008e+01   4.2795612e+00   9.9652400e+00   4.3890041e+00  -2.1644931e+00   1.8252178e+01   4.9773760e+00  -1.0256136e+00   2.0469541e+01   3.6662056e+00   5.4817895e+00   1.7367894e+00   2.1821393e-03   9.6789368e+00   6.7325310e+00   1.2643873e+00  -7.7009694e-01   0.0000000e+00   3.0000000e+01   0.0000000e+00   0.0000000e+00
   9.5199454e-01   3.3239307e+00   6.8492900e-01   1.3287698e+01   4.3789397e+00   1.0069451e+01   4.3709957e+00  -1.7851186e+00   1.7578146e+01   4.7348812e+00  -7.3911706e-01   1.8960294e+01   2.9092947e+00   5.5091377e+00   1.8759873e+00   1.2313312e-01   9.5715034e+00   7.2072989e+00   1.5673667e+00  -5.4562775e-01   0.0000000e+00   3.0000000e+01   0.0000000e+00   0.0000000e+00
   7.5262310e-01   3.4146021e+00   1.1395102e+00   1.2350082e+01   4.2177451e+00   1.0152056e+01   4.5261762e+00  -1.3643285e+00   1.6984061e+01   4.9012692e+00   8.4277649e-02   1.7499085e+01   2.0635678e+00   6.0512137e+00   2.6488256e+00   2.9739251e-01   9.2287096e+00   7.7990080e+00   2.2466156e+00  -5.2202266e-02   0.0000000e+00   3.0000000e+01   0.0000000e+00   0.0000000e+00
   6.6078423e-01   3.6642510e+00   1.5084440e+00   1.1536317e+01   3.6963417e+00   1.0163556e+01   4.7510449e+00  -9.8450009e-01   1.6552236e+01   5.3464452e+00   1.2351275e+00   1.6455430e+01   1.3592553e+00   6.8928920e+00   3.6348112e+00   4.9420897e-01   8.7677226e+00   8.3158660e+00   2.9376968e+00   4.6776331e-01   0.0000000e+00   3.0000000e+01   0.0000000e+00   0.0000000e+00
   7.0469292e-01   4.1017284e+00   2.0473249e+00   1.0764039e+01   3.1099926e+00   1.0182195e+01   5.1704162e+00  -3.7942099e-01   1.6200418e+01   5.8392093e+00   2.4458353e+00   1.5587983e+01   9.9226203e-01   7.8923100e+00   4.6673585e+00   8.6366569e-01   8.4054639e+00   8.6336104e+00   3.5928112e+00   1.2036733e+00   0.0000000e+00   3.0000000e+01   0.0000000e+00   0.0000000e+00
   7.7976047e-01   4.6235736e+00   2.9347138e+00   1.0050723e+01   2.6663230e+00   1.0319634e+01   5.9665309e+00   6.9493708e-01   1.5705221e+01   6.1611975e+00   3.5603016e+00   1.4273624e+01   7.9316819e-01   8.8122545e+00   5.7540141e+00   1.5514818e+00   8.1193970e+00   8.7237231e+00   4.3498090e+00   2.3748547e+00   0.0000000e+00   3.0000000e+01   0.0000000e+00   0.0000000e+00
   7.8135788e-01   5.1127048e+00   4.0647111e+00   9.4509646e+00   2.2757134e+00   1.0630677e+01   7.1173987e+00   2.0810116e+00   1.4922621e+01   6.0729974e+00   4.5286784e+00   1.2642944e+01   4.2933480e-01   9.1890147e+00   6.6535755e+00   2.3789781e+00   7.7409856e+00   8.5972800e+00   5.1841348e+00   3.7454191e+00   0.0000000e+00   3.0000000e+01   0.0000000e+00   0.0000000e+00
   8.8876859e-01   5.6249657e+00   5.1160802e+00   9.1189580e+00   1.9356269e+00   1.1233704e+01   8.4670244e+00   3.3494761e+00   1.3957878e+01   5.4857364e+00   5.3709431e+00   1.1176200e+01  -1.5254136e-01   8.8532484e+00   7.1629563e+00   3.0571868e+00   7.1965147e+00   8.4212117e+00   5.9764506e+00   4.8614441e+00   0.0000000e+00   3.0000000e+01   0.0000000e+00   0.0000000e+00
   1.2545956e+00   6.2741650e+00   5.8792620e+00   8.9730225e+00   1.7151682e+00   1.2178138e+01   9.7963331e+00   4.2060020e+00   1.2980263e+01   4.6897061e+00   5.9318580e+00   1.0042740e+01  -8.0982789e-01   8.1314200e+00   7.3843136e+00   3.5174888e+00   6.5251469e+00   8.3087017e+00   6.6157853e+00   5.5689619e+00   0.0000000e+00   3.0000000e+01   0.0000000e+00   0.0000000e+00
   1.6938997e+00   6.9825021e+00   6.4070895e+00   8.5492254e+00   1.4850700e+00   1.3195005e+01   1.0826643e+01   4.7194564e+00   1.2019798e+01   3.8625760e+00   6.1676736e+00   9.2200900e+00  -1.4801628e+00   7.3211619e+00   7.4446737e+00   3.8612427e+00   5.8506956e+00   8.2331118e+00   7.0329063e+00   6.0195022e+00   0.0000000e+00   3.0000000e+01   0.0000000e+00   0.0000000e+00
   1.9851480e+00   7.5246833e+00   6.7624299e+00   7.7126085e+00   1.1565730e+00   1.3748442e+01   1.1240286e+01   5.0637544e+00   1.0870326e+01   2.8502783e+00   5.9978530e+00   8.4682820e+00  -2.4173267e+00   6.3584152e+00   7.2454163e+00   4.0017021e+00   5.2026458e+00   8.0113826e+00   7.0549602e+00   6.2724149e+00   0.0000000e+00   3.0000000e+01   0.0000000e+00   0.0000000e+00
   2.1753742e+00   7.8503981e+00   7.0041170e+00   6.6664605e+00   9.1188611e-01   1.3674085e+01   1.1015265e+01   5.3719285e+00   9.5220961e+00   1.6697647e+00   5.5365302e+00   7.1586945e+00  -3.8163410e+00   5.2334761e+00   6.8009921e+00   3.9286932e+00   4.5338732e+00   7.6285949e+00   6.7141091e+00   6.3627556e+00   0.0000000e+00   3.0000000e+01   0.0000000e+00   0.0000000e+00
   2.2451210e+00   8.0595311e+00   7.1892775e+00   5.3006670e+00   8.1750633e-01   1.3279339e+01   1.0455779e+01   5.6594883e+00   8.1013953e+00   6.4215182e-01   5.0460548e+00   4.9104513e+00  -5.5532004e+00   4.2092093e+00   6.4224738e+00   3.8333928e+00   3.7125170e+00   7.2193567e+00   6.3171381e+00   6.4132218e+00   0.0000000e+00   3.0000000e+01   0.0000000e+00   0.0000000e+00
   2.1013418e+00   8.0604421e+00   7.1371277e+00   3.4627368e+00   6.2330816e-01   1.2645233e+01   9.6595999e+00   5.7048856e+00   6.8495628e+00  -2.3740769e-02   4.8769148e+00   2.1084760e+00  -7.2341481e+00   3.4971807e+00   6.2836216e+00   3.8442192e+00   2.5625518e+00   6.7743688e+00   5.9704312e+00   6.3821934e+00   0.0000000e+00   3.0000000e+01   0.0000000e+00   0.0000000e+00
   1.9570601e+00   7.8274508e+00   6.7237560e+00   1.6167959e+00   2.5498589e-01   1.1761550e+01   8.7262190e+00   5.3521460e+00   6.1024648e+00  -2.9352827e-01   5.1271281e+00  -2.6904971e-01  -8.3814779e+00   3.1788741e+00   6.3736660e+00   3.9495945e+00   1.3643591e+00   6.3408743e+00   5.7552991e+00   6.2484365e+00   0.0000000e+00   3.0000000e+01   0.0000000e+00   0.0000000e+00
   2.0899159e+00   7.5362969e+00   6.0813383e+00   3.8225812e-01  -1.8156915e-01   1.0806222e+01   7.8946966e+00   4.7462131e+00   5.8842320e+00  -3.7165969e-01   5.7155212e+00  -1.5447381e+00  -8.9280162e+00   3.0041509e+00   6.5303941e+00   4.1155909e+00   4.9687718e-01   6.0025201e+00   5.7292189e+00   6.1049083e+00   0.0000000e+00   3.0000000e+01   0.0000000e+00   0.0000000e+00
   2.5965356e+00   7.4036837e+00   5.3964761e+00   3.3642502e-01  -4.0113681e-01   1.0220591e+01   7.3912855e+00   4.1643538e+00   6.0411375e+00  -5.1619546e-01   6.4642270e+00  -1.6015166e+00  -8.9492387e+00   2.7053524e+00   6.6225841e+00   4.3277749e+00   2.4163446e-01   5.8221746e+00   5.9120466e+00   6.0878232e+00   0.0000000e+00   3.0000000e+01   0.0000000e+00   0.0000000e+00
   3.3550740e+00   7.5589211e+00   4.7562365e+00   1.3595112e+00  -4.9642689e-02   1.0379430e+01   7.3297081e+00   3.7474046e+00   6.3340689e+00  -7.2446783e-01   7.1753160e+00  -1.0662539e+00  -8.6072450e+00   2.3164934e+00   6.6041563e+00   4.5842303e+00   7.3164828e-01   5.9518093e+00   6.2854759e+00   6.1864883e+00   0.0000000e+00   3.0000000e+01   0.0000000e+00   0.0000000e+00
   4.1856742e+00   7.9969181e+00   4.2728397e+00   2.5732498e+00   7.8394680e-01   1.1133980e+01   7.6545676e+00   3.4322507e+00   6.4862730e+00  -1.0553216e+00   7.5466052e+00  -6.2257301e-01  -8.2713717e+00   1.8809310e+00   6.3794115e+00   4.7559251e+00   1.6202254e+00   6.3116411e+00   6.6687827e+00   6.1851227e+00   0.0000000e+00   3.0000000e+01   0.0000000e+00   0.0000000e+00
   4.9769858e+00   8.6243007e+00   3.9993669e+00   3.3132860e+00   1.6232450e+00   1.2108717e+01   8.1524638e+00   3.0095360e+00   6.4501800e+00  -1.6248948e+00   7.5870127e+00  -5.3479202e-01  -8.0801245e+00   1.3848220e+00   5.8847489e+00   4.7140487e+00   2.3994461e+00   6.7095144e+00   6.9160065e+00   5.8869637e+00   0.0000000e+00   3.0000000e+01   0.0000000e+00   0.0000000e+00
   5.7106119e+00   9.3351458e+00   3.9797307e+00   3.5775243e+00   2.2516913e+00   1.3199446e+01   8.6515370e+00   2.5196925e+00   6.3521140e+00  -2.0426463e+00   7.5676079e+00  -6.1644090e-01  -7.8812106e+00   1.0899725e+00   5.4201128e+00   4.6995251e+00   3.0748534e+00   7.2010441e+00   7.1917418e+00   5.4719095e+00   0.0000000e+00   3.0000000e+01   0.0000000e+00   0.0000000e+00
   6.2946798e+00   9.9100694e+00   4.1754894e+00   3.7672193e+00   2.6647337e+00   1.4227690e+01   9.0128532e+00   2.2525442e+00   6.4901096e+00  -1.9828616e+00   7.7684006e+00  -3.7806710e-01  -7.4864571e+00   1.2928289e+00   5.3845458e+00   5.0423051e+00   3.9071060e+00   7.9145938e+00   7.7276260e+00   5.2560567e+00   0.0000000e+00   3.0000000e+01   0.0000000e+00   0.0000000e+00
   6.5641220e+00   1.0088679e+01   4.3786795e+00   4.0496427e+00   2.8103292e+00   1.4806790e+01   9.1288711e+00   2.3405218e+00   6.9568907e+00  -1.5088356e+00   8.0361037e+00   3.9223449e-02  -7.0323446e+00   1.9725856e+00   5.8321809e+00   5.6131560e+00   4.7372153e+00   8.6555116e+00   8.4242800e+00   5.3217756e+00   0.0000000e+00   3.0000000e+01   0.0000000e+00   0.0000000e+00
   6.6192297e+00   9.9119859e+00   4.4649728e+00   4.2731137e+00   2.8867595e+00   1.4929124e+01   9.0382756e+00   2.6196112e+00   7.6402993e+00  -8.0483063e-01   8.0554323e+00   3.6770215e-01  -6.5476793e+00   2.9949536e+00   6.5233517e+00   5.7860680e+00   5.3593888e+00   9.2160977e+00   9.0212947e+00   5.4397696e+00   0.0000000e+00   3.0000000e+01   0.0000000e+00   0.0000000e+00
   6.6762465e+00   9.7024165e+00   4.4764617e+00   4.4730832e+00   3.1277638e+00   1.4796643e+01   8.7922278e+00   2.6578510e+00   8.3347233e+00   3.9359637e-02   7.6470631e+00   6.3636936e-01  -5.9456423e+00   4.0850640e+00   7.0077590e+00   4.7003515e+00   5.8071300e+00   9.4432849e+00   9.2100873e+00   5.1033151e+00   0.0000000e+00   3.0000000e+01   0.0000000e+00   0.0000000e+00
   6.7094265e+00   9.5897099e+00   4.4968272e+00   4.4584728e+00   3.3678479e+00   1.4378237e+01   8.3578618e+00   2.1328643e+00   8.7760666e+00   7.4874014e-01   6.9027343e+00   9.3915872e-01  -5.5529203e+00   4.7084126e+00   6.8836285e+00   2.7152846e+00   5.9208886e+00   9.1772552e+00   8.7362236e+00   3.9647185e+00   0.0000000e+00   3.0000000e+01   5.0000000e+01   0.0000000e+00
   6.5956257e+00   9.5572996e+00   4.6580456e+00   3.9693952e+00   3.3527484e+00   1.3711173e+01   7.8871091e+00   1.3260942e+00   8.7959990e+00   8.9412436e-01   6.0463972e+00   8.6312270e-01  -5.8246632e+00   4.5655222e+00   6.3483117e+00   5.1228973e-01   5.5356702e+00   8.5255146e+00   7.8262426e+00   2.4739281e+00   0.0000000e+00   3.0000000e+01   5.0000000e+01   0.0000000e+00
   6.2222851e+00   9.5427606e+00   5.0324040e+00   2.9946799e+00   2.8436060e+00   1.2976297e+01   7.6658664e+00   7.8831605e-01   8.4625854e+00   5.5096482e-01   5.4696072e+00   6.1385780e-02  -6.7817993e+00   3.8563074e+00   5.9074966e+00  -1.0738590e+00   4.6237466e+00   7.7924140e+00   7.0276215e+00   1.4662656e+00   0.0000000e+00   3.0000000e+01   5.0000000e+01   0.0000000e+00
   5.4939470e+00   9.4726579e+00   5.6149308e+00   1.5913316e+00   1.7460724e+00   1.2333357e+01   7.8827746e+00   7.8546827e-01   7.7964005e+00   5.0448865e-02   5.3324140e+00  -1.2856959e+00  -8.1508310e+00   2.9377920e+00   5.7279632e+00  -1.6842619e+00   3.2109585e+00   7.0740048e+00   6.6927726e+00   1.3276025e+00   0.0000000e+00   3.0000000e+01   5.0000000e+01   0.0000000e+00
   4.5086052e+00   9.2034431e+00   6.3020116e+00   1.9569332e-01   2.9073871e-01   1.1727784e+01   8.2985846e+00   1.1823454e+00   6.7019353e+00  -7.1249837e-01   5.2746853e+00  -2.9005428e+00  -9.7606265e+00   1.8270343e+00   5.4447201e+00  -1.5950466e+00   1.4131117e+00   6.2564454e+00   6.5623724e+00   1.6866751e+00   0.0000000e+00   3.0000000e+01   5.0000000e+01   0.0000000e+00
   3.4984589e+00   8.6612485e+00   6.9505168e+00  -1.0174335e+00  -1.0978020e+00   1.0990874e+01   8.4114200e+00   1.6921747e+00   5.3280042e+00  -1.7511145e+00   4.9943343e+00  -4.4809228e+00  -1.1430939e+01   4.5957779e-01   4.7263408e+00  -1.3156888e+00  -4.6777822e-01   5.2574363e+00   6.1311738e+00   1.9814654e+00   0.0000000e+00   3.0000000e+01   5.0000000e+01   0.0000000e+00
   2.6858886e+00   7.9904748e+00   7.5452926e+00  -2.2594861e+00  -1.9799048e+00   1.0135455e+01   8.0799013e+00   2.0860779e+00   3.9988911e+00  -2.6319440e+00   4.8114599e+00  -6.0353527e+00  -1.2956248e+01  -8.7082309e-01   3.8619799e+00  -1.0078347e+00  -2.0727640e+00   4.3091927e+00   5.4472288e+00   2.0060442e+00   0.0000000e+00   3.0000000e+01   5.0000000e+01   0.0000000e+00
   2.1825619e+00   7.5260624e+00   8.2783000e+00  -3.3513432e+00  -2.1892029e+00   9.3889213e+00   7.7102163e+00   2.3514256e+00   2.8885393e+00  -3.0470156e+00   5.0310067e+00  -7.4517897e+00  -1.4232976e+01  -1.6486684e+00   3.4143994e+00  -6.8714744e-01  -3.1801071e+00   3.7481688e+00   4.9710176e+00   1.8890322e+00   0.0000000e+00   3.0000000e+01   5.0000000e+01   0.0000000e+00
   1.8538939e+00   7.2993211e+00   9.0313543e+00  -4.0500522e+00  -2.1798135e+00   8.7143224e+00   7.4878792e+00   2.5562241e+00   2.0830016e+00  -3.0720431e+00   5.6140953e+00  -8.4615014e+00  -1.5116922e+01  -1.7062254e+00   3.4677233e+00  -4.5270739e-01  -3.8563667e+00   3.5534420e+00   4.7546829e+00   1.6985127e+00   0.0000000e+00   3.0000000e+01   5.0000000e+01   0.0000000e+00
   1.4801938e+00   6.9829889e+00   9.3970324e+00  -4.5232359e+00  -2.4912285e+00   7.9442130e+00   7.1876708e+00   2.7033752e+00   1.6913112e+00  -2.9162710e+00   6.2555334e+00  -8.7601679e+00  -1.5386340e+01  -1.1882420e+00   3.8219484e+00  -3.5942411e-01  -4.2199932e+00   3.5103134e+00   4.5438012e+00   1.5017756e+00   0.0000000e+00   3.0000000e+01   5.0000000e+01   0.0000000e+00
   1.1263811e+00   6.4970748e+00   9.2302891e+00  -4.8728141e+00  -3.0205343e+00   7.2322126e+00   6.7208340e+00   2.7019440e+00   1.8767255e+00  -2.5643826e+00   6.7729307e+00  -8.2770898e+00  -1.4889884e+01  -3.4452381e-01   4.2698911e+00  -3.5007941e-01  -4.1767845e+00   3.6488110e+00   4.2602233e+00   1.3809233e+00   0.0000000e+00   3.0000000e+01   5.0000000e+01   0.0000000e+00
   1.1605471e+00   6.1933064e+00   8.7738008e+00  -4.6576877e+00  -3.1525103e+00   6.9084176e+00   6.3454828e+00   2.6422183e+00   2.6674219e+00  -1.8757846e+00   7.1551085e+00  -7.4709773e+00  -1.3753429e+01   4.6541459e-01   4.6218638e+00  -4.2036440e-01  -3.6019638e+00   4.0164779e+00   4.0551078e+00   1.4146211e+00   0.0000000e+00   3.0000000e+01   5.0000000e+01   0.0000000e+00
   1.7229068e+00   6.2207789e+00   8.2751725e+00  -3.6833239e+00  -2.6275856e+00   7.0310422e+00   6.2469474e+00   2.7122389e+00   3.7727314e+00  -1.1069713e+00   7.3898960e+00  -6.3279602e+00  -1.2422894e+01   9.3286918e-01   4.6913425e+00  -6.3348355e-01  -2.6596802e+00   4.4425614e+00   3.9945392e+00   1.5462179e+00   0.0000000e+00   3.0000000e+01   5.0000000e+01   0.0000000e+00
   2.5456309e+00   6.4208101e+00   7.8880248e+00  -2.5036947e+00  -1.8563433e+00   7.4245761e+00   6.4601417e+00   2.9263724e+00   4.7557057e+00  -4.8986142e-01   7.3798945e+00  -4.5568821e+00  -1.1181905e+01   1.1187939e+00   4.4834933e+00  -9.8348124e-01  -1.6004662e+00   4.8215333e+00   4.1046702e+00   1.6871122e+00   0.0000000e+00   3.0000000e+01   5.0000000e+01   0.0000000e+00
   3.3009033e+00   6.7260689e+00   7.7803007e+00  -1.5026175e+00  -1.2837131e+00   7.9598236e+00   7.0155377e+00   3.2832970e+00   5.4552088e+00  -4.4694918e-02   7.2267305e+00  -2.5683302e+00  -9.9726406e+00   1.2830184e+00   4.1922365e+00  -1.2820050e+00  -6.0391596e-01   5.2415022e+00   4.3953826e+00   1.8926412e+00   0.0000000e+00   3.0000000e+01   5.0000000e+01   0.0000000e+00
   3.8307905e+00   7.0799158e+00   7.9751213e+00  -5.7284984e-01  -9.5542587e-01   8.5237986e+00   7.7775088e+00   3.7951660e+00   5.9558563e+00   3.3937096e-01   6.9404762e+00  -9.0061107e-01  -8.9110775e+00   1.5236372e+00   4.0323014e+00  -1.4175167e+00   1.8680070e-01   5.6143500e+00   4.7403580e+00   2.2522936e+00   0.0000000e+00   3.0000000e+01   5.0000000e+01   0.0000000e+00
   4.1984556e+00   7.3207499e+00   8.2508139e+00   3.3159530e-01  -5.9068769e-01   8.9852551e+00   8.3891550e+00   4.3867476e+00   6.4285197e+00   7.2710635e-01   6.6202660e+00   2.2780843e-01  -8.2010961e+00   1.7739517e+00   4.0487265e+00  -1.3569275e+00   8.4663943e-01   5.8274485e+00   5.0270196e+00   2.7534074e+00   0.0000000e+00   3.0000000e+01   5.0000000e+01   0.0000000e+00
   4.4955259e+00   7.2952832e+00   8.3174264e+00   9.8300019e-01  -7.5346369e-02   9.2238106e+00   8.5528822e+00   4.9015902e+00   6.8497307e+00   1.0084576e+00   6.4876937e+00   9.7125308e-01  -7.8228251e+00   2.0484494e+00   4.1796764e+00  -1.1395212e+00   1.5374318e+00   5.9507063e+00   5.2699187e+00   3.3121248e+00   0.0000000e+00   3.0000000e+01   5.0000000e+01   0.0000000e+00
   4.6846804e+00   6.9489370e+00   8.0700106e+00   1.4315187e+00   3.4892604e-01   9.2013810e+00   8.2837727e+00   5.3229164e+00   7.1053549e+00   1.3357223e+00   6.7438866e+00   1.6568475e+00  -7.4765250e+00   2.5056396e+00   4.5122368e+00  -6.9338047e-01   2.2452528e+00   6.1679275e+00   5.6149700e+00   3.9450403e+00   0.0000000e+00   3.0000000e+01   5.0000000e+01   0.0000000e+00
   4.6594302e+00   6.3622216e+00   7.5893953e+00   1.8079317e+00   4.3155384e-01   8.8604460e+00   7.7125999e+00   5.7293870e+00   7.1049757e+00   1.7494440e+00   7.2457321e+00   2.2636176e+00  -6.9766322e+00   3.1638983e+00   5.0311891e+00  -5.3641333e-02   2.7741038e+00   6.3390684e+00   6.0104424e+00   4.6665855e+00   0.0000000e+00   3.0000000e+01   5.0000000e+01   0.0000000e+00
   4.5418749e+00   5.7488283e+00   6.9720797e+00   1.9724543e+00   3.8033835e-01   8.3818395e+00   6.9638561e+00   6.0148507e+00   6.8882490e+00   1.9847599e+00   7.6788495e+00   2.7907811e+00  -6.2705998e+00   3.8077214e+00   5.4060927e+00   3.2583986e-01   3.1566604e+00   6.2832062e+00   6.2672488e+00   5.2787386e+00   0.0000000e+00   3.0000000e+01   5.0000000e+01   0.0000000e+00
   4.6581984e+00   5.4227514e+00   6.4333613e+00   2.1036515e+00   7.5133523e-01   8.1748320e+00   6.3272343e+00   6.1048122e+00   6.5327466e+00   1.8193831e+00   7.6210046e+00   3.3775864e+00  -5.4558934e+00   4.1633995e+00   5.3319723e+00   4.8190574e-01   3.6771838e+00   6.1980281e+00   6.3563673e+00   5.5913573e+00   0.0000000e+00   3.0000000e+01   5.0000000e+01   0.0000000e+00
   5.0647838e+00   5.4534043e+00   6.1440104e+00   2.2923513e+00   1.5558815e+00   8.2541648e+00   6.0301916e+00   6.1297516e+00   6.1273016e+00   1.2694830e+00   7.0930660e+00   4.2056763e+00  -4.7450546e+00   4.2103659e+00   4.9508632e+00   5.4188812e-01   4.3153546e+00   6.2926570e+00   6.4374098e+00   5.6549157e+00   0.0000000e+00   3.0000000e+01   5.0000000e+01   0.0000000e+00
   5.4969567e+00   5.6606889e+00   6.1119589e+00   2.2808362e+00   2.2834788e+00   8.4756294e+00   6.2170012e+00   6.2117838e+00   5.8774533e+00   9.0941507e-01   6.5921699e+00   5.2387363e+00  -4.1708515e+00   4.3294459e+00   4.8492255e+00   6.3191245e-01   4.8869419e+00   6.6555560e+00   6.8497954e+00   5.7448788e+00   0.0000000e+00   3.0000000e+01   5.0000000e+01   0.0000000e+00
   5.7006032e+00   5.8386218e+00   6.1606964e+00   1.8961072e+00   2.5319618e+00   8.7497797e+00   6.8335704e+00   6.3150317e+00   5.8374308e+00   1.1594328e+00   6.5058393e+00   5.8958315e+00  -3.7598712e+00   4.6898774e+00   5.3377225e+00   7.4277369e-01   5.1644141e+00   7.1817761e+00   7.6909018e+00   6.0936340e+00   0.0000000e+00   0.0000000e+00   5.0000000e+01   0.0000000e+00
   5.6960755e+00   5.9012407e+00   6.0778250e+00   1.3212335e+00   2.4056836e+00   9.1726475e+00   7.6725526e+00   6.3904613e+00   5.7716633e+00   1.7907967e+00   6.7848344e+00   5.5864195e+00  -3.5877118e+00   5.1660483e+00   6.2163586e+00   9.2340117e-01   5.1150308e+00   7.7672356e+00   8.6953779e+00   6.6766789e+00   0.0000000e+00   0.0000000e+00   5.0000000e+01   0.0000000e+00
   5.7345057e+00   6.0487526e+00   5.9267385e+00   1.0204588e+00   2.3778110e+00   9.9626808e+00   8.6159433e+00   6.5640262e+00   5.5727208e+00   2.5181104e+00   7.2850715e+00   4.7469772e+00  -3.4912354e+00   5.7320943e+00   7.2474517e+00   1.3123677e+00   5.0738261e+00   8.5323465e+00   9.6804313e+00   7.4478572e+00   0.0000000e+00   0.0000000e+00   5.0000000e+01   0.0000000e+00
   5.7979588e+00   6.2757807e+00   5.8005464e+00   9.0447924e-01   2.6589093e+00   1.0867875e+01   9.4115160e+00   6.8753073e+00   5.3149154e+00   3.2040886e+00   7.8866566e+00   4.5662070e+00  -3.2484364e+00   6.4888044e+00   8.2772817e+00   1.8537023e+00   5.2904890e+00   9.3414679e+00   1.0535179e+01   8.2790522e+00   0.0000000e+00   0.0000000e+00   5.0000000e+01   0.0000000e+00
   5.6372602e+00   6.2319069e+00   5.5668608e+00   7.4450423e-01   3.0932464e+00   1.1397227e+01   9.7272507e+00   7.1110827e+00   5.1558222e+00   3.7489922e+00   8.4531241e+00   5.0632069e+00  -2.8414515e+00   7.4699721e+00   9.1132702e+00   2.3218319e+00   5.7429626e+00   9.9475055e+00   1.1102046e+01   8.8426198e+00   0.0000000e+00   0.0000000e+00   5.0000000e+01   0.0000000e+00
   5.1885073e+00   5.7431610e+00   5.2258487e+00   4.6693813e-01   3.2796506e+00   1.1352929e+01   9.5621754e+00   7.1439841e+00   5.0839146e+00   4.2123968e+00   8.8587262e+00   5.2526174e+00  -2.6008179e+00   8.5172567e+00   9.7408351e+00   2.6614080e+00   6.1502829e+00   1.0333067e+01   1.1405515e+01   9.0555953e+00   0.0000000e+00   0.0000000e+00   5.0000000e+01   0.0000000e+00
   4.5583838e+00   4.9203565e+00   4.8791301e+00   3.6268748e-02   2.9039189e+00   1.0823982e+01   9.0540454e+00   7.0221380e+00   4.9614804e+00   4.6128540e+00   9.2503468e+00   4.6155461e+00  -2.9209016e+00   9.3087704e+00   1.0184678e+01   2.9816586e+00   6.0918598e+00   1.0457650e+01   1.1453993e+01   9.0302854e+00   0.0000000e+00   0.0000000e+00   5.0000000e+01   0.0000000e+00
   4.1091398e+00   4.2115442e+00   4.6548096e+00  -1.0812765e-01   2.4076690e+00   1.0282294e+01   8.5050978e+00   6.9070607e+00   4.9001845e+00   4.9101095e+00   9.6968367e+00   3.6715138e+00  -3.6372338e+00   9.6921020e+00   1.0417536e+01   3.3529856e+00   5.7236934e+00   1.0335268e+01   1.1264008e+01   8.9103157e+00   0.0000000e+00   0.0000000e+00   5.0000000e+01   0.0000000e+00
   4.0241118e+00   3.9925179e+00   4.7100175e+00   1.5392287e-01   2.2964311e+00   1.0174636e+01   8.2977195e+00   6.8716617e+00   4.8906590e+00   5.0684163e+00   9.9661075e+00   3.3763726e+00  -4.2352437e+00   9.7169972e+00   1.0396330e+01   3.7280473e+00   5.4868079e+00   1.0149928e+01   1.1028800e+01   8.7732398e+00   0.0000000e+00   0.0000000e+00   5.0000000e+01   0.0000000e+00
   3.9894226e+00   4.1784277e+00   5.0761582e+00   2.4444980e-01   2.4179796e+00   1.0480140e+01   8.5478173e+00   6.8938228e+00   4.5935571e+00   5.0813808e+00   9.8442293e+00   3.3660466e+00  -4.6191881e+00   9.5371156e+00   1.0198792e+01   3.9588647e+00   5.3886733e+00   1.0070483e+01   1.0992235e+01   8.6613960e+00   0.0000000e+00   0.0000000e+00   5.0000000e+01   0.0000000e+00
   3.6494235e+00   4.4148414e+00   5.5361088e+00  -2.9957927e-01   2.3254648e+00   1.0844040e+01   9.0618764e+00   7.0203603e+00   3.8206547e+00   4.8308344e+00   9.5915561e+00   2.7562226e+00  -5.1402440e+00   9.1507886e+00   9.9342424e+00   4.0132695e+00   5.1317714e+00   1.0107255e+01   1.1197058e+01   8.6413195e+00   0.0000000e+00   0.0000000e+00   5.0000000e+01   0.0000000e+00
   3.0755051e+00   4.5795051e+00   6.0839498e+00  -1.0922148e+00   1.9625668e+00   1.1101559e+01   9.8148166e+00   7.5296419e+00   2.7723741e+00   4.4949917e+00   9.5122849e+00   1.6836135e+00  -5.9963856e+00   8.5514763e+00   9.7712310e+00   4.0574519e+00   4.6083231e+00   1.0169742e+01   1.1646418e+01   8.9477217e+00   0.0000000e+00   0.0000000e+00   5.0000000e+01   0.0000000e+00
   2.6014561e+00   4.8724997e+00   6.8953514e+00  -1.5468064e+00   1.7166593e+00   1.1577729e+01   1.0990031e+01   8.6152361e+00   1.8416875e+00   4.3912668e+00   9.8035944e+00   7.0649923e-01  -6.8453561e+00   8.1068583e+00   9.9988255e+00   4.3676419e+00   4.1428448e+00   1.0377550e+01   1.2509838e+01   9.8108394e+00   0.0000000e+00   0.0000000e+00   5.0000000e+01   0.0000000e+00
   2.2837493e+00   5.3187595e+00   7.8049908e+00  -1.9400767e+00   1.7262831e+00   1.2334001e+01   1.2349560e+01   9.8891205e+00   1.1198351e+00   4.5625224e+00   1.0360623e+01   1.5225175e-01  -7.2879709e+00   8.1464533e+00   1.0643774e+01   5.0147089e+00   4.0546739e+00   1.0863006e+01   1.3635367e+01   1.1042990e+01   0.0000000e+00   0.0000000e+00   5.0000000e+01   0.0000000e+00
   1.9382123e+00   5.6363199e+00   8.4810475e+00  -2.7133773e+00   1.7032266e+00   1.2721181e+01   1.3268535e+01   1.0783348e+01   4.0142984e-01   4.8081031e+00   1.0820641e+01  -1.7812273e-01  -7.3867241e+00   8.4933782e+00   1.1337777e+01   5.7656537e+00   4.1650521e+00   1.1363863e+01   1.4470255e+01   1.2144262e+01   0.0000000e+00   0.0000000e+00   5.0000000e+01   0.0000000e+00
   1.4797039e+00   5.6420902e+00   8.7933432e+00  -3.6269948e+00   1.4351369e+00   1.2255667e+01   1.3525361e+01   1.1117942e+01  -4.7799854e-01   4.6827620e+00   1.1094248e+01  -9.3611511e-01  -7.5274423e+00   8.7840548e+00   1.1778058e+01   6.3263987e+00   4.0284644e+00   1.1388527e+01   1.4760319e+01   1.2823176e+01   0.0000000e+00   0.0000000e+00   5.0000000e+01   0.0000000e+00
   1.1098328e+00   5.4712425e+00   8.7112388e+00  -4.0773307e+00   1.1524601e+00   1.1311949e+01   1.3377794e+01   1.0959570e+01  -1.2810878e+00   4.0693657e+00   1.1388056e+01  -1.8638281e+00  -7.6643747e+00   8.9617767e+00   1.1934924e+01   6.5452547e+00   3.6732726e+00   1.0941114e+01   1.4685865e+01   1.2998505e+01   0.0000000e+00   0.0000000e+00   5.0000000e+01   0.0000000e+00
   1.0095192e+00   5.2917237e+00   8.2167117e+00  -4.0755918e+00   9.9974439e-01   1.0398801e+01   1.2988790e+01   1.0339245e+01  -1.6391279e+00   3.4575785e+00   1.1582371e+01  -2.0764124e+00  -7.4631299e+00   9.0177879e+00   1.1756327e+01   6.3546168e+00   3.3887137e+00   1.0371853e+01   1.4319469e+01   1.2635422e+01   0.0000000e+00   0.0000000e+00   5.0000000e+01   0.0000000e+00
   1.0153208e+00   5.0750344e+00   7.4176139e+00  -4.4064734e+00   5.7709255e-01   9.4484659e+00   1.2321860e+01   9.3236342e+00  -1.6248380e+00   2.9740875e+00   1.1430500e+01  -1.9794166e+00  -7.1261143e+00   8.6126104e+00   1.1049518e+01   5.7890092e+00   2.9599509e+00   9.6198602e+00   1.3527731e+01   1.1775963e+01   0.0000000e+00   0.0000000e+00   5.0000000e+01   0.0000000e+00
   8.7204525e-01   4.7529259e+00   6.6644092e+00  -5.3369836e+00  -4.1724718e-01   8.3028398e+00   1.1529177e+01   8.2260622e+00  -1.6307780e+00   2.4045461e+00   1.0974975e+01  -2.5117901e+00  -7.2366535e+00   7.6367043e+00   9.9714710e+00   5.0940938e+00   2.0301277e+00   8.4699889e+00   1.2443221e+01   1.0734170e+01   0.0000000e+00   0.0000000e+00   5.0000000e+01   0.0000000e+00
   5.0946987e-01   4.2835823e+00   6.1853539e+00  -6.4866374e+00  -1.7662129e+00   7.1043099e+00   1.0898286e+01   7.3451329e+00  -1.8572024e+00   1.6535263e+00   1.0416828e+01  -3.5057561e+00  -7.9360488e+00   6.4199181e+00   9.0488008e+00   4.6208773e+00   7.2574611e-01   7.0493907e+00   1.1556709e+01   9.9388958e+00   0.0000000e+00   0.0000000e+00   5.0000000e+01   0.0000000e+00
   6.8154443e-02   3.6435636e+00   5.8327275e+00  -7.4698274e+00  -3.1600947e+00   6.0497486e+00   1.0469702e+01   6.6672329e+00  -2.1505582e+00   6.5070995e-01   9.8214394e+00  -4.2457012e+00  -8.8494949e+00   5.2436188e+00   8.5000165e+00   4.4383221e+00  -5.4206099e-01   5.6740896e+00   1.1132632e+01   9.4732330e+00   0.0000000e+00   0.0000000e+00   5.0000000e+01   0.0000000e+00
  -3.2096100e-01   2.9611919e+00   5.3832451e+00  -8.1622082e+00  -4.5079165e+00   5.2863998e+00   1.0097061e+01   6.0482283e+00  -2.1820992e+00  -3.6545629e-01   9.3427693e+00  -4.4050673e+00  -9.4729415e+00   4.3049046e+00   8.1884394e+00   4.3743236e+00  -1.5061620e+00   4.6890161e+00   1.1040504e+01   9.1351454e+00   0.0000000e+00   0.0000000e+00   5.0000000e+01   0.0000000e+00
  -5.1756685e-01   2.5790441e+00   4.8548121e+00  -8.2301252e+00  -5.4225256e+00   5.1038248e+00   9.8136310e+00   5.5938376e+00  -1.8046326e+00  -9.6849085e-01   9.1456397e+00  -4.1531433e+00  -9.4927485e+00   3.9717960e+00   8.1697831e+00   4.3717078e+00  -1.8553118e+00   4.4423218e+00   1.1210846e+01   8.9159887e+00   0.0000000e+00   0.0000000e+00   5.0000000e+01   0.0000000e+00
  -3.9081290e-01   2.5629277e+00   4.1681580e+00  -7.4988993e+00  -5.3534006e+00   5.5082171e+00   9.4530371e+00   5.3082436e+00  -1.2182188e+00  -9.9493603e-01   9.1082531e+00  -3.6216508e+00  -9.0035214e+00   4.3736735e+00   8.3876381e+00   4.3515944e+00  -1.4225530e+00   4.9434346e+00   1.1435226e+01   8.7104826e+00   0.0000000e+00   0.0000000e+00   5.0000000e+01   0.0000000e+00
   2.5067637e-02   2.6616450e+00   3.2275519e+00  -6.5301202e+00  -4.3441744e+00   6.0364814e+00   8.7777256e+00   4.9578786e+00  -6.0785165e-01  -5.3423189e-01   8.9562362e+00  -2.6517456e+00  -8.1117593e+00   5.3420876e+00   8.6243892e+00   4.1802286e+00  -3.7392060e-01   5.8871918e+00   1.1451813e+01   8.3289154e+00   0.0000000e+00   0.0000000e+00   5.0000000e+01   0.0000000e+00
   4.8130991e-01   2.7233352e+00   2.2729893e+00  -5.6940490e+00  -2.9691600e+00   6.3583497e+00   7.9899796e+00   4.5197660e+00  -2.3765723e-02   2.0884050e-02   8.6497935e+00  -1.6590430e+00  -6.8610770e+00   6.6108795e+00   8.7396030e+00   3.8717978e+00   9.5383026e-01   7.0830006e+00   1.1324660e+01   7.7930124e+00   0.0000000e+00   0.0000000e+00   5.0000000e+01   0.0000000e+00
   8.3207501e-01   2.8604837e+00   1.6164429e+00  -4.8120905e+00  -1.6258058e+00   6.6059190e+00   7.4913784e+00   4.1482615e+00   5.3460329e-01   3.2749731e-01   8.3972239e+00  -6.5657075e-01  -5.3248523e+00   7.8799027e+00   8.7397980e+00   3.5301350e+00   2.3396012e+00   8.4760127e+00   1.1272170e+01   7.2717984e+00   0.0000000e+00   0.0000000e+00   5.0000000e+01   0.0000000e+00
   1.2046704e+00   3.2184756e+00   1.3233561e+00  -3.8828199e+00  -4.0174421e-01   6.9153660e+00   7.3533800e+00   3.9421107e+00   9.7577653e-01   3.8218633e-01   8.2405586e+00   3.9891436e-01  -3.8085305e+00   8.8299515e+00   8.6420558e+00   3.2353210e+00   3.5466675e+00   9.7894303e+00   1.1300229e+01   6.8564267e+00   0.0000000e+00   0.0000000e+00   5.0000000e+01   0.0000000e+00
   1.7166146e+00   3.7981995e+00   1.3288213e+00  -3.1708566e+00   7.0703192e-01   7.2367267e+00   7.4155311e+00   3.9512817e+00   1.1442294e+00   3.5365777e-01   8.1169564e+00   1.0739802e+00  -2.7262907e+00   9.2799388e+00   8.3985714e+00   2.9614802e+00   4.3345091e+00   1.0713316e+01   1.1251024e+01   6.5176312e+00   0.0000000e+00   0.0000000e+00   5.0000000e+01   0.0000000e+00
   2.3494177e+00   4.4253224e+00   1.4946657e+00  -2.6252498e+00   1.7394016e+00   7.5100363e+00   7.5100178e+00   4.1000354e+00   1.0781565e+00   3.7953508e-01   8.0449837e+00   1.4038189e+00  -2.0946964e+00   9.2135788e+00   7.9402658e+00   2.6875198e+00   4.7696955e+00   1.1213136e+01   1.0999493e+01   6.1683776e+00   0.0000000e+00   0.0000000e+00   5.0000000e+01   0.0000000e+00
   2.8133295e+00   4.7811725e+00   1.6671210e+00  -2.3254027e+00   2.2959379e+00   7.5193033e+00   7.5765986e+00   4.1765842e+00   7.9666961e-01   3.8654000e-01   7.8422850e+00   1.4199147e+00  -1.8922638e+00   8.6196346e+00   7.2235556e+00   2.3317414e+00   4.7099833e+00   1.1130094e+01   1.0546789e+01   5.7340216e+00   0.0000000e+00   0.0000000e+00   5.0000000e+01   0.0000000e+00
   2.8459711e+00   4.8090740e+00   1.8532889e+00  -2.5912837e+00   1.9255649e+00   7.2609937e+00   7.7730706e+00   4.0608413e+00   3.1129965e-01   2.7641539e-01   7.4407794e+00   9.5619805e-01  -2.0510525e+00   7.8420227e+00   6.4638001e+00   1.9506390e+00   3.9990880e+00   1.0473201e+01   1.0165735e+01   5.2460204e+00   0.0000000e+00   0.0000000e+00   5.0000000e+01   0.0000000e+00
   2.6219483e+00   4.7837051e+00   2.0988498e+00  -3.1910767e+00   1.1169232e+00   7.2180494e+00   8.2150742e+00   3.7568551e+00  -3.0401400e-01   8.6147258e-02   6.9397426e+00   3.0823518e-01  -2.3577906e+00   7.4415245e+00   5.9339377e+00   1.7131728e+00   3.1852196e+00   9.7768566e+00   1.0097027e+01   4.8084432e+00   0.0000000e+00   0.0000000e+00   5.0000000e+01   0.0000000e+00
   2.4250772e+00   4.8176052e+00   2.2883508e+00  -3.4780765e+00   8.3182730e-01   7.6704151e+00   8.6460613e+00   3.2322267e+00  -1.0794756e+00  -1.1935950e-01   6.5147675e+00  -1.1490137e-01  -2.6817381e+00   7.5091085e+00   5.6158389e+00   1.6906109e+00   2.9163864e+00   9.5008741e+00   1.0167827e+01   4.4112517e+00   0.0000000e+00   0.0000000e+00   5.0000000e+01   0.0000000e+00
   2.2354574e+00   4.8001534e+00   2.3924570e+00  -3.3123197e+00   1.3150763e+00   8.2998045e+00   8.7185104e+00   2.4943484e+00  -2.0352205e+00  -2.6754003e-01   6.1814459e+00  -2.9616190e-01  -2.8908198e+00   7.7764718e+00   5.3535294e+00   1.6979719e+00   3.2161792e+00   9.5201455e+00   1.0012026e+01   3.9523940e+00   0.0000000e+00   0.0000000e+00   5.0000000e+01   0.0000000e+00
   1.7965429e+00   4.6537435e+00   2.5728143e+00  -3.3595038e+00   1.9374311e+00   8.6464890e+00   8.4540414e+00   1.7954123e+00  -3.0260506e+00  -3.9532906e-01   5.8958915e+00  -4.5640334e-01  -2.9640624e+00   7.9158915e+00   5.0403425e+00   1.5833149e+00   3.5955069e+00   9.4576656e+00   9.5855908e+00   3.5198715e+00   0.0000000e+00   0.0000000e+00   5.0000000e+01   0.0000000e+00
   1.1207687e+00   4.4815593e+00   3.0094760e+00  -3.8000988e+00   2.1784799e+00   8.4989125e+00   8.0939851e+00   1.4615048e+00  -3.8461232e+00  -5.2699878e-01   5.5819777e+00  -1.0268254e+00  -3.1660092e+00   7.6642958e+00   4.5944787e+00   1.4157535e+00   3.6759321e+00   9.2124067e+00   9.0775244e+00   3.2765305e+00   0.0000000e+00   0.0000000e+00   5.0000000e+01   0.0000000e+00
   4.8787584e-01   4.3844942e+00   3.7221971e+00  -4.2759125e+00   1.8532429e+00   7.8148126e+00   7.7128935e+00   1.6304001e+00  -4.5783537e+00  -8.1154382e-01   5.0935893e+00  -2.1717680e+00  -3.8048001e+00   6.8812177e+00   3.9429669e+00   1.2857425e+00   3.2340577e+00   8.6871312e+00   8.4988672e+00   3.2317230e+00   0.0000000e+00   0.0000000e+00   5.0000000e+01   0.0000000e+00
   9.0183727e-02   4.3874918e+00   4.6280193e+00  -4.7818451e+00   1.0001613e+00   6.7224751e+00   7.3580415e+00   2.1462217e+00  -5.4923468e+00  -1.3505532e+00   4.4812266e+00  -3.4722069e+00  -4.8188458e+00   5.6512536e+00   3.1100306e+00   1.1729804e+00   2.2141669e+00   7.6910287e+00   7.7692930e+00   3.2887994e+00   0.0000000e+00   0.0000000e+00   5.0000000e+01   0.0000000e+00
   1.0912445e-01   4.5916239e+00   5.6616926e+00  -5.1207511e+00   2.4405810e-01   5.6141977e+00   7.0907564e+00   2.6363304e+00  -6.6102316e+00  -2.2371632e+00   3.7927088e+00  -4.3772227e+00  -5.7774626e+00   4.1826657e+00   2.0670594e+00   9.6762659e-01   1.0752355e+00   6.3420341e+00   6.8648684e+00   3.2004061e+00   0.0000000e+00   0.0000000e+00   5.0000000e+01   0.0000000e+00
   4.9060450e-01   4.9658235e+00   6.6807724e+00  -5.2136350e+00   8.6939361e-02   4.8337239e+00   6.8950654e+00   2.9508862e+00  -7.7094326e+00  -3.3402553e+00   3.0250836e+00  -4.8232784e+00  -6.5965389e+00   2.6968171e+00   9.6007558e-01   7.3159763e-01   2.3582815e-01   5.0353697e+00   5.9374341e+00   2.9505173e+00   0.0000000e+00   0.0000000e+00   5.0000000e+01   0.0000000e+00
   8.6469263e-01   5.2709687e+00   7.4719616e+00  -5.3311696e+00   2.3504131e-01   4.4509723e+00   6.8028576e+00   3.2466989e+00  -8.4509541e+00  -4.3308899e+00   2.4483004e+00  -5.2621123e+00  -7.4061694e+00   1.4752486e+00   2.1381691e-01   7.9059306e-01  -3.5446648e-01   4.1056398e+00   5.2790346e+00   2.8502834e+00   0.0000000e+00   0.0000000e+00   5.0000000e+01   0.0000000e+00
   1.1010380e+00   5.4078994e+00   7.9748386e+00  -5.3606095e+00   2.4342603e-01   4.4026584e+00   6.9058411e+00   3.5813847e+00  -8.6188658e+00  -4.9777872e+00   2.2722969e+00  -5.7601139e+00  -8.0175251e+00   8.2569509e-01   9.9206455e-02   1.2527808e+00  -8.2241405e-01   3.6480808e+00   5.0208194e+00   3.0687919e+00   0.0000000e+00   0.0000000e+00   5.0000000e+01   0.0000000e+00
   1.2847907e+00   5.3966918e+00   8.1529465e+00  -5.2276245e+00  -5.9369032e-04   4.4974468e+00   7.0217230e+00   3.7868175e+00  -8.3228282e+00  -5.2196704e+00   2.3535445e+00  -5.8730040e+00  -8.1486598e+00   8.8614961e-01   5.3157701e-01   1.8735040e+00  -1.1821642e+00   3.5306309e+00   4.9658253e+00   3.4486426e+00   0.0000000e+00   0.0000000e+00   5.0000000e+01   0.0000000e+00
   1.4382137e+00   5.2890975e+00   8.0227121e+00  -5.1598356e+00  -2.7864647e-01   4.6103931e+00   6.8955391e+00   3.8159518e+00  -7.7938369e+00  -5.1855398e+00   2.5340633e+00  -5.7446629e+00  -7.8724806e+00   1.5433227e+00   1.2490086e+00   2.4222837e+00  -1.2975851e+00   3.6125045e+00   4.8585541e+00   3.8260503e+00   0.0000000e+00   0.0000000e+00   5.0000000e+01   0.0000000e+00
   1.6862725e+00   5.2518060e+00   7.8000585e+00  -5.1078094e+00  -1.1748901e-01   4.9360709e+00   6.6208186e+00   3.9050002e+00  -7.1349474e+00  -4.9477707e+00   2.8575029e+00  -5.4966023e+00  -7.3368587e+00   2.5541344e+00   1.9674966e+00   2.9198739e+00  -8.6168278e-01   3.9909141e+00   4.7118253e+00   4.2068353e+00   0.0000000e+00   0.0000000e+00   5.0000000e+01   0.0000000e+00
   2.2589708e+00   5.4617932e+00   7.6658523e+00  -4.7342034e+00   8.2259684e-01   5.6383436e+00   6.3947602e+00   4.1514821e+00  -6.2987777e+00  -4.5772299e+00   3.2817699e+00  -4.6380377e+00  -6.4696599e+00   3.5388346e+00   2.4114917e+00   3.3154770e+00   3.1612087e-01   4.7253856e+00   4.5390808e+00   4.5450006e+00   0.0000000e+00   0.0000000e+00   5.0000000e+01   0.0000000e+00
   2.9980834e+00   5.7432521e+00   7.4952463e+00  -4.2234858e+00   2.0721962e+00   6.2587832e+00   6.0784132e+00   4.3398360e+00  -5.3499541e+00  -4.2001323e+00   3.7189790e+00  -3.2443510e+00  -5.4222301e+00   4.0568129e+00   2.4251878e+00   3.4723429e+00   1.7783509e+00   5.4588236e+00   4.1409839e+00   4.6967414e+00   0.0000000e+00   0.0000000e+00   5.0000000e+01   0.0000000e+00
   3.5237421e+00   5.8022795e+00   7.1587224e+00  -4.0426756e+00   2.7424627e+00   6.2295893e+00   5.5018740e+00   4.3678944e+00  -4.6124102e+00  -3.9270720e+00   4.1415462e+00  -1.7937436e+00  -4.6742332e+00   3.9932226e+00   2.1872187e+00   3.3962316e+00   2.7556668e+00   5.7153844e+00   3.4700421e+00   4.7178934e+00   0.0000000e+00   0.0000000e+00   5.0000000e+01   0.0000000e+00
   3.7993328e+00   5.6782564e+00   6.7604047e+00  -4.1239744e+00   2.6131428e+00   5.5947822e+00   4.7499997e+00   4.3732992e+00  -4.2595535e+00  -3.8071040e+00   4.5183912e+00  -9.0085685e-01  -4.4982622e+00   3.5573451e+00   1.9543526e+00   3.3298423e+00   2.9320334e+00   5.3831130e+00   2.6978074e+00   4.7466522e+00   0.0000000e+00   0.0000000e+00   5.0000000e+01   0.0000000e+00
   3.9068078e+00   5.5004213e+00   6.3528771e+00  -4.3453990e+00   2.0563069e+00   4.6745952e+00   3.9527546e+00   4.3832566e+00  -4.1759206e+00  -3.7589963e+00   4.8280823e+00  -8.5535105e-01  -4.8025204e+00   2.9506783e+00   1.6945169e+00   3.3489650e+00   2.5178960e+00   4.6776186e+00   1.8965295e+00   4.7322783e+00   0.0000000e+00   0.0000000e+00   5.0000000e+01   0.0000000e+00
   3.8907348e+00   5.3721597e+00   6.0380278e+00  -4.7633551e+00   1.4392096e+00   3.7795435e+00   3.3431708e+00   4.4511220e+00  -4.2475207e+00  -3.7280423e+00   5.0355145e+00  -1.4226582e+00  -5.3850391e+00   2.2914627e+00   1.3460812e+00   3.4505813e+00   1.9081794e+00   3.8362915e+00   1.1986385e+00   4.7023383e+00   0.0000000e+00   0.0000000e+00   5.0000000e+01   0.0000000e+00
   3.7611437e+00   5.3139909e+00   5.9554597e+00  -5.3732316e+00   7.8925898e-01   3.0341568e+00   3.1257510e+00   4.7521424e+00  -4.3552168e+00  -3.6556139e+00   5.0359425e+00  -1.9727402e+00  -6.0587423e+00   1.6864141e+00   1.0037937e+00   3.6216729e+00   1.2172294e+00   2.9463757e+00   7.9512448e-01   4.7964719e+00   0.0000000e+00   0.0000000e+00   5.0000000e+01   0.0000000e+00
   3.5439270e+00   5.2683786e+00   6.0020940e+00  -5.9480701e+00   4.6495555e-02   2.4623509e+00   3.1825719e+00   5.1913708e+00  -4.3211488e+00  -3.3540788e+00   4.7039792e+00  -1.9089241e+00  -6.6603891e+00   1.2781871e+00   7.3371800e-01   3.7317419e+00   3.7148229e-01   2.0647559e+00   6.7989419e-01   4.9186203e+00   0.0000000e+00   0.0000000e+00   5.0000000e+01   0.0000000e+00
   3.3940029e+00   5.2921285e+00   5.9677141e+00  -6.1330583e+00  -5.3089708e-01   2.1782730e+00   3.2073772e+00   5.4391141e+00  -4.0365829e+00  -2.8355443e+00   4.1244479e+00  -1.5811285e+00  -7.0727353e+00   1.1690405e+00   4.9897391e-01   3.6327302e+00  -3.9844095e-01   1.3640989e+00   6.7850160e-01   4.8209176e+00   0.0000000e+00   0.0000000e+00   5.0000000e+01   0.0000000e+00
   3.5206721e+00   5.5151155e+00   5.8159851e+00  -5.9403897e+00  -5.5014719e-01   2.3163477e+00   3.0474932e+00   5.3705861e+00  -3.6563360e+00  -2.5314270e+00   3.4110512e+00  -1.5566014e+00  -7.3114849e+00   1.2849419e+00   1.8700270e-01   3.3030075e+00  -7.3482918e-01   1.0234837e+00   6.8467441e-01   4.4033043e+00   0.0000000e+00   0.0000000e+00   5.0000000e+01   0.0000000e+00
   3.9817877e+00   5.9039021e+00   5.5517111e+00  -5.3448132e+00   6.4141400e-02   2.8315543e+00   2.7551323e+00   5.0593109e+00  -3.2763808e+00  -2.5465888e+00   2.5874938e+00  -1.3805998e+00  -7.3869062e+00   1.4701184e+00  -2.7397785e-01   2.8307998e+00  -5.2870976e-01   1.1559543e+00   7.4181667e-01   3.7486531e+00   0.0000000e+00   0.0000000e+00   5.0000000e+01   0.0000000e+00
   4.4976551e+00   6.1710784e+00   5.0917744e+00  -4.7019938e+00   6.7896770e-01   3.3359646e+00   2.4062135e+00   4.6299846e+00  -2.7835657e+00  -2.6218388e+00   1.7770902e+00  -3.1167348e-01  -7.3803186e+00   1.5126767e+00  -7.9607788e-01   2.2780188e+00  -2.4227634e-01   1.6031090e+00   8.7735824e-01   3.0197714e+00   0.0000000e+00   0.0000000e+00   5.0000000e+01   0.0000000e+00
   4.7728969e+00   6.0581360e+00   4.4611852e+00  -4.5367999e+00   5.9012054e-01   3.3755232e+00   2.0443211e+00   4.2029099e+00  -2.2579780e+00  -2.8225945e+00   1.1488655e+00   7.8388337e-01  -7.5442954e+00   1.2303810e+00  -1.2392313e+00   1.6513704e+00  -5.5817531e-01   1.9431751e+00   1.0644834e+00   2.3593278e+00   0.0000000e+00   0.0000000e+00   5.0000000e+01   0.0000000e+00
   4.7102597e+00   5.5326529e+00   3.7582322e+00  -4.9464066e+00  -2.1793835e-01   2.7964241e+00   1.6172281e+00   3.8270055e+00  -1.8590562e+00  -3.1340243e+00   8.1963442e-01   7.8149578e-01  -7.8920285e+00   6.8798977e-01  -1.5835141e+00   1.0531402e+00  -1.6025150e+00   1.8027755e+00   1.1700341e+00   1.8076200e+00   0.0000000e+00   0.0000000e+00   5.0000000e+01   0.0000000e+00
   4.3643338e+00   4.7434736e+00   3.0974152e+00  -5.6542676e+00  -1.2550191e+00   1.7800962e+00   1.0344679e+00   3.4706489e+00  -1.6143040e+00  -3.2644624e+00   8.7676431e-01   3.2358015e-02  -8.2400881e+00   9.6509250e-02  -1.8620475e+00   6.4551276e-01  -2.9082152e+00   1.1713454e+00   1.0068810e+00   1.3649054e+00   0.0000000e+00   0.0000000e+00   5.0000000e+01   0.0000000e+00
   3.8828794e+00   3.9022897e+00   2.5545957e+00  -6.3101044e+00  -2.0601666e+00   6.7800266e-01   3.5395789e-01   3.1026939e+00  -1.5393637e+00  -3.2387639e+00   1.1292062e+00  -6.4030611e-01  -8.4293214e+00  -4.0534632e-01  -2.0593429e+00   5.0274808e-01  -3.9583126e+00   3.7091922e-01   6.4600086e-01   1.0581256e+00   0.0000000e+00   0.0000000e+00   5.0000000e+01   0.0000000e+00
   3.4470649e+00   3.2487573e+00   2.2665709e+00  -6.8882478e+00  -2.5585094e+00  -1.6600747e-01  -1.1519127e-01   2.8734113e+00  -1.5357296e+00  -3.1781500e+00   1.3948534e+00  -9.7920569e-01  -8.3580210e+00  -6.3098678e-01  -2.0136352e+00   6.4506151e-01  -4.5484601e+00  -2.6063643e-01   4.6040481e-01   1.0071696e+00   0.0000000e+00   0.0000000e+00   5.0000000e+01   0.0000000e+00
   3.1582341e+00   2.9579632e+00   2.3550267e+00  -7.4460026e+00  -2.9368756e+00  -5.2618879e-01  -1.1365735e-01   2.9344580e+00  -1.5020546e+00  -3.0152808e+00   1.7414473e+00  -1.1410543e+00  -8.0115904e+00  -4.1197488e-01  -1.6028911e+00   9.1672371e-01  -4.7666733e+00  -5.7975455e-01   7.0290617e-01   1.2425815e+00   0.0000000e+00   0.0000000e+00   5.0000000e+01   0.0000000e+00
   3.0061619e+00   3.1151983e+00   2.7694418e+00  -8.1178047e+00  -3.2785760e+00  -3.3931443e-01   2.9493538e-01   3.1919469e+00  -1.4705136e+00  -2.7540666e+00   2.2609550e+00  -1.4382558e+00  -7.5713496e+00   1.5425502e-01  -9.2843009e-01   1.1147267e+00  -4.8119115e+00  -5.5556403e-01   1.2722584e+00   1.5882075e+00   0.0000000e+00   0.0000000e+00   5.0000000e+01   0.0000000e+00
   3.0170696e+00   3.7132332e+00   3.2926536e+00  -8.7566833e+00  -3.3480739e+00   3.5223875e-01   8.0471731e-01   3.3748775e+00  -1.5282536e+00  -2.5927541e+00   2.7371252e+00  -1.7041408e+00  -7.1175989e+00   8.2429325e-01  -3.4188084e-01   1.0873456e+00  -4.6720501e+00  -1.5255310e-01   1.8595540e+00   1.7231232e+00   0.0000000e+00   0.0000000e+00   5.0000000e+01   0.0000000e+00
   3.2561847e+00   4.6051095e+00   3.7007108e+00  -8.8808455e+00  -2.8242945e+00   1.5679714e+00   1.2526179e+00   3.3333898e+00  -1.5878963e+00  -2.6154171e+00   2.8867895e+00  -1.4545226e+00  -6.3291817e+00   1.5502750e+00  -1.5184649e-01   8.0367586e-01  -3.9564012e+00   8.0679574e-01   2.2541115e+00   1.5210617e+00   0.0000000e+00   0.0000000e+00   5.0000000e+01   0.0000000e+00
   3.7090392e+00   5.5332477e+00   3.9192282e+00  -8.3425265e+00  -1.7411381e+00   3.2059466e+00   1.6483511e+00   3.1671395e+00  -1.4164738e+00  -2.6174172e+00   2.7044264e+00  -7.1610229e-01  -4.9356185e+00   2.4218602e+00  -2.8792085e-01   4.3757251e-01  -2.4191362e+00   2.3799344e+00   2.4831162e+00   1.1759456e+00   0.0000000e+00   0.0000000e+00   5.0000000e+01   0.0000000e+00
   4.1658440e+00   6.2107823e+00   3.9516584e+00  -7.7067729e+00  -5.9536146e-01   4.8630475e+00   2.0051385e+00   2.9703805e+00  -1.0230211e+00  -2.3505657e+00   2.3080304e+00   3.3133899e-01  -3.2381343e+00   3.3541134e+00  -4.4250392e-01   1.4610973e-01  -4.2242163e-01   4.2562108e+00   2.7169068e+00   9.2358385e-01   0.0000000e+00   0.0000000e+00   5.0000000e+01   0.0000000e+00
   4.3137471e+00   6.4943519e+00   3.8821995e+00  -7.4718478e+00   1.5362682e-02   6.1008643e+00   2.3209157e+00   2.7605096e+00  -6.2997706e-01  -1.8312672e+00   1.9580430e+00   1.3404868e+00  -1.7577330e+00   4.0788742e+00  -4.3514938e-01  -1.8306022e-02   1.3260959e+00   6.0022568e+00   3.0551396e+00   8.5390218e-01   0.0000000e+00   0.0000000e+00   5.0000000e+01   0.0000000e+00
   4.1367403e+00   6.4765479e+00   3.8014576e+00  -7.4461060e+00  -6.7159891e-02   6.7222590e+00   2.4689296e+00   2.4389466e+00  -2.3788319e-01  -1.2288569e+00   1.8759023e+00   2.0353596e+00  -7.0235753e-01   4.5145480e+00  -3.2312051e-01  -1.8530188e-01   2.3769506e+00   7.2632372e+00   3.2954982e+00   7.6654937e-01   0.0000000e+00   0.0000000e+00   5.0000000e+01   0.0000000e+00
   3.9859891e+00   6.3285036e+00   3.5431640e+00  -7.3409696e+00  -4.1264613e-01   6.8363341e+00   2.2026708e+00   1.7873967e+00   1.9726455e-01  -7.6914825e-01   1.8355894e+00   2.4719638e+00   1.1804213e-02   4.7595027e+00  -3.3848200e-01  -6.1504213e-01   2.8473291e+00   7.7984783e+00   3.1044661e+00   3.0087713e-01   0.0000000e+00   0.0000000e+00   5.0000000e+01   0.0000000e+00
   4.1451073e+00   6.1193569e+00   2.9576995e+00  -7.1659613e+00  -5.6047443e-01   6.6499624e+00   1.4686225e+00   8.1626162e-01   5.8363302e-01  -4.9408994e-01   1.5413441e+00   2.7431837e+00   5.3048892e-01   4.8315953e+00  -6.9512371e-01  -1.3462238e+00   3.0812739e+00   7.7050271e+00   2.4410591e+00  -5.8293853e-01   0.0000000e+00   0.0000000e+00   5.0000000e+01   0.0000000e+00
   4.4985075e+00   5.8471799e+00   2.1815401e+00  -6.8358362e+00  -4.7317526e-01   6.3270257e+00   5.9281393e-01  -1.4679352e-01   7.6617713e-01  -3.4526869e-01   8.4913605e-01   2.9667996e+00   9.1896595e-01   4.7602370e+00  -1.3128689e+00  -2.2247006e+00   3.2332074e+00   7.3543917e+00   1.7284135e+00  -1.5897278e+00   0.0000000e+00   0.0000000e+00   5.0000000e+01   0.0000000e+00
   4.6179830e+00   5.4987817e+00   1.4659295e+00  -6.3715310e+00  -4.6044656e-01   5.9692345e+00  -1.7404526e-02  -8.5961870e-01   7.1448618e-01  -3.4184235e-01  -1.1358746e-01   3.3481985e+00   1.2229070e+00   4.6554192e+00  -1.8609855e+00  -3.0435822e+00   3.2762922e+00   7.1037869e+00   1.4453648e+00  -2.3958286e+00   0.0000000e+00   0.0000000e+00   5.0000000e+01   0.0000000e+00
   4.2261124e+00   4.9924654e+00   9.0687011e-01  -6.1522892e+00  -8.3019199e-01   5.4749565e+00  -3.2908871e-01  -1.3449890e+00   5.0061284e-01  -5.5778987e-01  -1.0126468e+00   3.5959480e+00   1.4003170e+00   4.5212918e+00  -2.0873861e+00  -3.5992149e+00   3.0252797e+00   6.8993583e+00   1.6091247e+00  -2.8699911e+00   0.0000000e+00   0.0000000e+00   5.0000000e+01   0.0000000e+00
   3.6173450e+00   4.4302249e+00   5.1370551e-01  -6.2757667e+00  -1.3709054e+00   4.8721100e+00  -4.9569275e-01  -1.6706440e+00   1.6637728e-01  -9.8736594e-01  -1.7388254e+00   3.5724763e+00   1.4144134e+00   4.3113978e+00  -2.0639036e+00  -3.8625035e+00   2.5427211e+00   6.5512286e+00   1.9429751e+00  -3.1133322e+00   0.0000000e+00   0.0000000e+00   5.0000000e+01   0.0000000e+00
   3.3146100e+00   4.1374748e+00   3.3114067e-01  -6.4902761e+00  -1.3619133e+00   4.6134139e+00  -5.1850284e-01  -1.8345694e+00  -2.1599354e-01  -1.3596386e+00  -2.3699571e+00   3.7347078e+00   1.4466713e+00   4.1515703e+00  -1.9570173e+00  -3.8392252e+00   2.3628187e+00   6.3335007e+00   2.4172893e+00  -3.2020246e+00   0.0000000e+00   0.0000000e+00   5.0000000e+01   0.0000000e+00
   3.3761837e+00   4.1402310e+00   2.6464325e-01  -6.5542455e+00  -6.0212423e-01   4.8536276e+00  -4.5928532e-01  -1.9081896e+00  -5.4923577e-01  -1.4022159e+00  -2.8166483e+00   4.1079318e+00   1.5696669e+00   4.1589848e+00  -1.7948256e+00  -3.6243660e+00   2.7024186e+00   6.4846066e+00   3.0107298e+00  -3.1608527e+00   0.0000000e+00   0.0000000e+00   5.0000000e+01   0.0000000e+00
   3.4242308e+00   4.1125501e+00   1.9256035e-01  -6.4331824e+00   1.6789212e-01   5.0985480e+00  -5.5291785e-01  -1.9847965e+00  -8.1353807e-01  -1.1943173e+00  -3.1369415e+00   4.1256400e+00   1.6491262e+00   4.1700972e+00  -1.6440850e+00  -3.4501624e+00   3.0825462e+00   6.6320537e+00   3.3733551e+00  -3.0642512e+00   0.0000000e+00   0.0000000e+00   5.0000000e+01   0.0000000e+00
   3.2964625e+00   3.8466326e+00   1.1148480e-01  -6.0437749e+00   4.6035344e-01   5.0605847e+00  -8.5902896e-01  -2.1233680e+00  -9.4839555e-01  -8.5639535e-01  -3.3607634e+00   3.7034161e+00   1.7847618e+00   4.1745167e+00  -1.4911072e+00  -3.3111460e+00   3.2539481e+00   6.5602865e+00   3.3717423e+00  -2.9473071e+00   0.0000000e+00   0.0000000e+00   5.0000000e+01   0.0000000e+00
   3.2443532e+00   3.5335290e+00   6.4310652e-02  -5.5439087e+00   7.3120173e-01   5.1599887e+00  -1.1302972e+00  -2.3594418e+00  -8.4966213e-01  -3.0877310e-01  -3.2667665e+00   3.6067082e+00   2.4088641e+00   4.4933065e+00  -1.2012043e+00  -3.0858829e+00   3.6754968e+00   6.6753075e+00   3.3199995e+00  -2.8799115e+00   0.0000000e+00   0.0000000e+00   5.0000000e+01   0.0000000e+00
   3.4387973e+00   3.4242047e+00   3.6292808e-02  -5.2375308e+00   1.4884732e+00   5.6903230e+00  -1.1985820e+00  -2.6961609e+00  -5.6838206e-01   4.7688955e-01  -2.7436043e+00   4.1207184e+00   3.4802680e+00   5.1492319e+00  -7.9239309e-01  -2.8128731e+00   4.5136559e+00   7.2498339e+00   3.4477117e+00  -2.9547271e+00   0.0000000e+00   0.0000000e+00   5.0000000e+01   0.0000000e+00
   3.6850080e+00   3.5026411e+00  -5.5085947e-02  -5.1870205e+00   2.4674508e+00   6.3765659e+00  -1.0807953e+00  -3.1332167e+00  -4.9029086e-01   1.1737775e+00  -2.1196883e+00   4.5295457e+00   4.3134807e+00   5.7766047e+00  -4.0313624e-01  -2.6290733e+00   5.1363744e+00   7.8907192e+00   3.7580480e+00  -3.2044508e+00   0.0000000e+00   0.0000000e+00   5.0000000e+01   0.0000000e+00
   3.7663063e+00   3.6852297e+00  -1.4041043e-01  -5.4665145e+00   3.0150761e+00   6.8899868e+00  -6.9081722e-01  -3.5500985e+00  -8.3436136e-01   1.4459930e+00  -1.5529380e+00   4.2191127e+00   4.4796714e+00   6.1349576e+00  -3.5916392e-02  -2.5765050e+00   5.0040686e+00   8.2063138e+00   4.3051938e+00  -3.4985725e+00   0.0000000e+00   0.0000000e+00   5.0000000e+01   0.0000000e+00
   3.7492958e+00   4.0421287e+00   4.5016483e-02  -5.9665092e+00   2.9136652e+00   7.3382661e+00   1.7126742e-01  -3.6895677e+00  -1.3459947e+00   1.3290808e+00  -8.7771503e-01   3.4323061e+00   4.2021727e+00   6.3621187e+00   4.7741677e-01  -2.4703270e+00   4.3725070e+00   8.3941706e+00   5.2723889e+00  -3.5120569e+00   0.0000000e+00   0.0000000e+00   5.0000000e+01   0.0000000e+00
   3.7283929e+00   4.5651408e+00   5.3718801e-01  -6.8140862e+00   2.4740753e+00   7.9564287e+00   1.4144815e+00  -3.5446726e+00  -1.8010651e+00   1.1948728e+00  -9.4792976e-02   2.6367034e+00   3.8373747e+00   6.6954574e+00   1.1911347e+00  -2.2116220e+00   3.7561118e+00   8.7608743e+00   6.6355305e+00  -3.1250808e+00   0.0000000e+00   0.0000000e+00   5.0000000e+01   0.0000000e+00
   3.6846415e+00   5.1750788e+00   1.0812299e+00  -8.1842191e+00   2.2802931e+00   8.8765275e+00   2.7327507e+00  -3.2687666e+00  -2.1909608e+00   1.3814588e+00   4.8825721e-01   1.8638174e+00   3.6121969e+00   7.2733732e+00   2.0145701e+00  -1.8776226e+00   3.4758225e+00   9.3958119e+00   8.2276859e+00  -2.4912246e+00   0.0000000e+00   0.0000000e+00   5.0000000e+01   0.0000000e+00
   3.6682350e+00   5.8753897e+00   1.4340368e+00  -9.3397771e+00   2.7148513e+00   1.0047998e+01   3.9474904e+00  -2.9182965e+00  -2.3511713e+00   1.8588094e+00   9.1947722e-01   1.1979101e+00   3.7363948e+00   8.0549950e+00   2.8165432e+00  -1.5311479e+00   3.7081561e+00   1.0377074e+01   9.9089645e+00  -1.7430687e+00   0.0000000e+00   0.0000000e+00   5.0000000e+01   0.0000000e+00
   3.8382149e+00   6.6773266e+00   1.5825362e+00  -9.3905622e+00   3.6366254e+00   1.1263999e+01   5.0751737e+00  -2.4892765e+00  -2.1255841e+00   2.3398989e+00   1.3925245e+00   8.9846719e-01   4.3266055e+00   8.8982855e+00   3.5555359e+00  -1.1432758e+00   4.4073383e+00   1.1610967e+01   1.1594651e+01  -8.6730105e-01   0.0000000e+00   0.0000000e+00   5.0000000e+01   0.0000000e+00
   4.1611066e+00   7.4504086e+00   1.6656316e+00  -8.7001522e+00   4.5767569e+00   1.2347521e+01   6.1320224e+00  -1.9795715e+00  -1.5227450e+00   2.7146123e+00   1.9576888e+00   1.0672344e+00   5.2827325e+00   9.7550038e+00   4.2830721e+00  -6.0802134e-01   5.3745850e+00   1.2889649e+01   1.3174112e+01   1.5981260e-01   0.0000000e+00   0.0000000e+00   5.0000000e+01   0.0000000e+00
   4.3447571e+00   7.9221620e+00   1.7372266e+00  -8.2440388e+00   5.1053181e+00   1.3046231e+01   6.8993969e+00  -1.4209598e+00  -6.8876423e-01   3.0810596e+00   2.4979080e+00   1.8197047e+00   6.2826871e+00   1.0535613e+01   4.9518303e+00  -1.3708786e-02   6.3288502e+00   1.3917022e+01   1.4323456e+01   1.2129105e+00   0.0000000e+00   0.0000000e+00   5.0000000e+01   0.0000000e+00
   4.1740697e+00   7.9178531e+00   1.6746612e+00  -8.3294112e+00   5.0865652e+00   1.3116343e+01   7.1149038e+00  -8.8728898e-01   3.8138720e-02   3.3165908e+00   2.8375442e+00   2.3592043e+00   6.9344934e+00   1.1072444e+01   5.4608324e+00   4.0674053e-01   6.9886951e+00   1.4500828e+01   1.4841702e+01   2.0803626e+00   1.0000000e+03   0.0000000e+00   5.0000000e+01   0.0000000e+00
   3.8422385e+00   7.5750669e+00   1.3640284e+00  -8.4517735e+00   4.7440719e+00   1.2671305e+01   6.8117184e+00  -4.8238003e-01   3.9439198e-01   3.3658005e+00   2.7827296e+00   2.0535171e+00   7.2305288e+00   1.1354714e+01   5.7571445e+00   5.7351234e-01   7.3333067e+00   1.4754860e+01   1.4912699e+01   2.5795975e+00   1.0000000e+03   0.0000000e+00   5.0000000e+01   0.0000000e+00
