nt = 720
nc = 24
channels = F7 T3 T5 Fp1 F3 C3 P3 O1 F8 T4 T6 Fp2 F4 C4 P4 O2 Fz Cz Pz Oz TR SOn Occ RAp
ne = 20
type = N
fsmp = 120.0000000000
band = 0.1 0.2 44 58 0
orig.file = s3_bl1
orig.nt = 281334
orig.sample_range = 163293 166888
orig.fsmp = 600
orig.subject = 3
orig.run = 30
   5.7153508e+00   5.6624050e-01   4.5453547e+00   2.9092009e+01   1.3169227e+01   1.4499903e+01   1.3789449e+01   1.5133108e-01   7.5848390e+00   4.5790872e+00   4.7731401e+00   1.9477769e+01   1.2636535e+01  -8.8358491e+00   1.5108839e+01   3.9235545e+00   9.9199584e+00   3.0894561e+01   1.4673295e+01   4.8917749e+00   0.0000000e+00   0.0000000e+00   0.0000000e+00   0.0000000e+00
   3.6184179e+00   3.7314870e-01   4.5609197e+00   3.2413660e+01   1.2406192e+01   1.4923821e+01   1.5219921e+01  -5.2677559e-01   8.2825465e+00   5.8497999e+00   5.6580725e+00   1.6967853e+01   1.1481712e+01  -1.0649543e+01   1.6614733e+01   3.2395885e+00   9.7771307e+00   3.3327665e+01   1.5183921e+01   5.7113919e+00   0.0000000e+00   0.0000000e+00   0.0000000e+00   0.0000000e+00
   2.6171467e+00   5.6896685e-01   4.3616745e+00   3.4591095e+01   1.1852341e+01   1.4867957e+01   1.4991867e+01  -2.0701951e+00   9.3875990e+00   7.4095721e+00   6.5804346e+00   1.5801076e+01   1.0713861e+01  -1.2084536e+01   1.6493108e+01   2.1231785e+00   9.8719620e+00   3.5254601e+01   1.3839806e+01   5.1020031e+00   0.0000000e+00   0.0000000e+00   0.0000000e+00   0.0000000e+00
   1.2092032e+00   3.2972255e-01   3.7528525e+00   3.5281676e+01   1.0271980e+01   1.2941560e+01   1.2346828e+01  -4.6683020e+00   9.8025920e+00   8.3163337e+00   6.8323491e+00   1.4536268e+01   9.4043770e+00  -1.4638781e+01   1.4145432e+01   1.9478598e-01   8.9478568e+00   3.5960286e+01   1.0001987e+01   3.0503043e+00   0.0000000e+00   0.0000000e+00   0.0000000e+00   0.0000000e+00
  -1.3803066e+00  -5.4272956e-01   2.7049714e+00   3.4672827e+01   7.4408982e+00   8.9849885e+00   8.1255380e+00  -7.9035434e+00   9.0546364e+00   7.9150827e+00   5.8996036e+00   1.2389887e+01   7.1244458e+00  -1.8696685e+01   9.9025764e+00  -2.6393623e+00   6.4250029e+00   3.4989407e+01   4.2202694e+00   1.8177272e-01   0.0000000e+00   0.0000000e+00   0.0000000e+00   0.0000000e+00
  -4.1833971e+00  -1.4860088e+00   1.3485058e+00   3.3154001e+01   4.2360510e+00   4.3921845e+00   3.9038809e+00  -1.0966005e+01   7.5776244e+00   6.2986878e+00   3.9655568e+00   9.7836665e+00   4.1879347e+00  -2.3015164e+01   5.1019191e+00  -5.6733035e+00   3.0021476e+00   3.3180582e+01  -1.8081998e+00  -2.5688898e+00   0.0000000e+00   0.0000000e+00   0.0000000e+00   0.0000000e+00
  -5.9270088e+00  -1.6811963e+00  -2.8329544e-01   3.1279558e+01   1.5843786e+00   7.1441890e-01   7.7858262e-01  -1.3183043e+01   6.0106500e+00   4.3571148e+00   1.8171600e+00   7.6123067e+00   1.5928203e+00  -2.6013495e+01   1.3228546e+00  -8.0837740e+00  -3.5876096e-02   3.1857639e+01  -6.3292706e+00  -4.4358722e+00   0.0000000e+00   0.0000000e+00   0.0000000e+00   0.0000000e+00
  -6.8317410e+00  -1.1859917e+00  -2.3077179e+00   2.9698726e+01  -1.5945902e-02  -1.6215612e+00  -8.6932176e-01  -1.4315614e+01   4.6166892e+00   2.7053211e+00   6.6072207e-02   6.0719494e+00  -3.6464803e-02  -2.7552730e+01  -6.2245148e-01  -9.7451581e+00  -2.1324992e+00   3.1227468e+01  -8.6717030e+00  -5.0543582e+00   0.0000000e+00   0.0000000e+00   0.0000000e+00   0.0000000e+00
  -7.4545592e+00  -5.1682897e-01  -4.1637777e+00   2.8701421e+01  -4.7168097e-01  -2.7402879e+00  -1.0045608e+00  -1.4422827e+01   3.6250405e+00   1.5196280e+00  -1.1084692e+00   4.7696344e+00  -1.0646466e+00  -2.8295972e+01  -7.8767298e-01  -1.0759659e+01  -3.3997070e+00   3.0856259e+01  -8.8405765e+00  -4.4912202e+00   0.0000000e+00   0.0000000e+00   0.0000000e+00   0.0000000e+00
  -6.9800771e+00   3.9511353e-01  -5.0004492e+00   2.8313152e+01   1.5469731e-01  -2.3776792e+00   6.0865988e-01  -1.3522983e+01   3.1846000e+00   1.1278182e+00  -1.5170461e+00   3.9751942e+00  -1.8419122e+00  -2.8200871e+01   5.2505882e-01  -1.0963535e+01  -3.6557277e+00   3.1077768e+01  -6.8327623e+00  -2.8770864e+00   0.0000000e+00   0.0000000e+00   0.0000000e+00   0.0000000e+00
  -5.4049626e+00   1.6998073e+00  -4.4793698e+00   2.7947015e+01   1.5421057e+00  -6.5737383e-01   3.6921474e+00  -1.1894941e+01   3.0415864e+00   1.3253909e+00  -1.4744243e+00   4.0186272e+00  -2.2571034e+00  -2.7268345e+01   2.6870645e+00  -1.0385368e+01  -3.0362618e+00   3.2131733e+01  -3.2376202e+00  -4.6509634e-01   0.0000000e+00   0.0000000e+00   0.0000000e+00   0.0000000e+00
  -3.9096276e+00   3.0433714e+00  -2.9340649e+00   2.7315684e+01   3.0591872e+00   1.6095269e+00   7.1502620e+00  -1.0220356e+01   3.0242591e+00   1.3447258e+00  -1.7686233e+00   4.4132516e+00  -2.0894397e+00  -2.5996018e+01   4.7130678e+00  -9.5157158e+00  -2.1711504e+00   3.3254291e+01   6.4169775e-01   2.0348731e+00   0.0000000e+00   0.0000000e+00   0.0000000e+00   0.0000000e+00
  -2.9869501e+00   4.1632575e+00  -9.9493982e-01   2.6861441e+01   4.3944617e+00   3.6341510e+00   9.9406201e+00  -9.3476741e+00   3.0885482e+00   8.3450097e-01  -2.7038354e+00   4.4094805e+00  -1.5992653e+00  -2.4748911e+01   5.5773247e+00  -9.1912528e+00  -1.4181781e+00   3.3670649e+01   3.2674022e+00   3.6110953e+00   0.0000000e+00   0.0000000e+00   0.0000000e+00   0.0000000e+00
  -2.4555459e+00   4.8614241e+00   7.1186937e-01   2.6361968e+01   5.0660044e+00   4.8405152e+00   1.1295888e+01  -9.8346914e+00   2.8530829e+00  -8.5119319e-02  -4.0408478e+00   3.8438160e+00  -1.6462451e+00  -2.3971310e+01   4.5817782e+00  -1.0125005e+01  -1.0895114e+00   3.3387351e+01   3.4429530e+00   3.3942991e+00   0.0000000e+00   0.0000000e+00   0.0000000e+00   0.0000000e+00
  -2.3927589e+00   4.7846595e+00   1.8370623e+00   2.5334800e+01   4.4949976e+00   4.7142629e+00   1.1072116e+01  -1.1374170e+01   2.0087621e+00  -1.2486513e+00  -5.3901259e+00   2.9508211e+00  -2.7666385e+00  -2.4296898e+01   1.9387472e+00  -1.1985051e+01  -1.5835267e+00   3.2652968e+01   9.9163738e-01   1.3206704e+00   0.0000000e+00   0.0000000e+00   0.0000000e+00   0.0000000e+00
  -3.0135139e+00   3.9608896e+00   2.6711035e+00   2.3919009e+01   2.8490486e+00   2.9794516e+00   9.7246834e+00  -1.3104041e+01   5.8958381e-01  -2.5646432e+00  -6.4949220e+00   1.7240151e+00  -4.8361986e+00  -2.6344323e+01  -1.4287541e+00  -1.4003370e+01  -3.1880054e+00   3.1149160e+01  -3.3633700e+00  -1.8546170e+00   0.0000000e+00   0.0000000e+00   0.0000000e+00   0.0000000e+00
  -4.3984874e+00   2.8552636e+00   3.6081693e+00   2.2555655e+01   6.0945761e-01  -2.0466537e-02   7.8557678e+00  -1.4536907e+01  -1.1963271e+00  -4.0092635e+00  -7.2127703e+00   2.4555634e-01  -7.3758319e+00  -2.9940218e+01  -4.4990787e+00  -1.5647710e+01  -5.7849508e+00   2.8515149e+01  -8.2720073e+00  -5.1233944e+00   0.0000000e+00   0.0000000e+00   0.0000000e+00   0.0000000e+00
  -6.2513542e+00   1.9819650e+00   4.3542858e+00   2.1606246e+01  -1.9652297e+00  -3.3126894e+00   6.2173409e+00  -1.5389403e+01  -2.9555479e+00  -5.4563615e+00  -7.5006509e+00  -1.4199731e+00  -9.7095941e+00  -3.3692059e+01  -6.4664337e+00  -1.6422248e+01  -8.6504164e+00   2.5381780e+01  -1.2149691e+01  -7.4242021e+00   0.0000000e+00   0.0000000e+00   0.0000000e+00   0.0000000e+00
  -7.8616319e+00   1.4033135e+00   4.4871988e+00   2.1129090e+01  -4.4738882e+00  -5.9121011e+00   5.3887838e+00  -1.5399674e+01  -4.4300248e+00  -6.6397033e+00  -7.4774751e+00  -2.8539454e+00  -1.1391346e+01  -3.6429924e+01  -7.0311092e+00  -1.6042738e+01  -1.0995102e+01   2.2639091e+01  -1.3970616e+01  -8.0959599e+00   0.0000000e+00   0.0000000e+00   0.0000000e+00   0.0000000e+00
  -9.2781368e+00   7.1488526e-01   4.1601012e+00   2.0722028e+01  -6.3991592e+00  -7.6083000e+00   5.4092327e+00  -1.4852097e+01  -5.7375091e+00  -7.6172503e+00  -7.5424059e+00  -3.7402538e+00  -1.2613094e+01  -3.8267122e+01  -6.6321095e+00  -1.4872225e+01  -1.2781593e+01   2.0046342e+01  -1.3901719e+01  -7.5908328e+00   0.0000000e+00   0.0000000e+00   0.0000000e+00   0.0000000e+00
  -1.0635943e+01  -2.7311066e-01   3.7019269e+00   2.0319628e+01  -7.7314869e+00  -8.5683542e+00   6.0431821e+00  -1.4050094e+01  -7.0129658e+00  -8.6423142e+00  -8.0160368e+00  -4.3610058e+00  -1.3801141e+01  -3.9687151e+01  -5.9926636e+00  -1.3577742e+01  -1.4387460e+01   1.7082767e+01  -1.2699282e+01  -6.7414938e+00   0.0000000e+00   0.0000000e+00   0.0000000e+00   0.0000000e+00
  -1.1464551e+01  -8.6587082e-01   3.2985692e+00   2.0351194e+01  -8.5992735e+00  -8.5307442e+00   7.1509709e+00  -1.2928392e+01  -7.7776051e+00  -9.4621439e+00  -8.7260017e+00  -4.9147332e+00  -1.4890107e+01  -4.0616778e+01  -5.4672827e+00  -1.2446582e+01  -1.5655876e+01   1.4305889e+01  -1.0692004e+01  -5.7980474e+00   0.0000000e+00   0.0000000e+00   0.0000000e+00   0.0000000e+00
  -1.1727200e+01  -6.2919734e-01   3.0909589e+00   2.0795103e+01  -8.9993202e+00  -7.5274537e+00   8.2663502e+00  -1.1912401e+01  -7.7395920e+00  -9.8779139e+00  -9.5031731e+00  -5.4612474e+00  -1.5667749e+01  -4.1133718e+01  -5.4022251e+00  -1.1763592e+01  -1.6428884e+01   1.2211629e+01  -8.4691139e+00  -5.2256335e+00   0.0000000e+00   0.0000000e+00   0.0000000e+00   0.0000000e+00
  -1.1664081e+01   1.6330381e-01   3.1879154e+00   2.1185349e+01  -9.1823140e+00  -6.2833922e+00   8.5422593e+00  -1.1765886e+01  -7.7732612e+00  -1.0055420e+01  -1.0493096e+01  -5.7906858e+00  -1.6190711e+01  -4.1586993e+01  -6.3346192e+00  -1.2058838e+01  -1.7027435e+01   1.0211325e+01  -7.1586699e+00  -5.8803706e+00   0.0000000e+00   0.0000000e+00   0.0000000e+00   0.0000000e+00
  -1.1596405e+01   1.0057872e+00   3.4002580e+00   2.0975021e+01  -9.6793779e+00  -5.5352300e+00   7.3886366e+00  -1.2805154e+01  -8.6391203e+00  -1.0290894e+01  -1.1891366e+01  -6.1606452e+00  -1.7021621e+01  -4.2253446e+01  -8.6749170e+00  -1.3704402e+01  -1.7982899e+01   7.5082085e+00  -7.5332564e+00  -8.0617165e+00   0.0000000e+00   0.0000000e+00   0.0000000e+00   0.0000000e+00
  -1.1611844e+01   1.7126381e+00   3.4910860e+00   2.0467492e+01  -1.0622888e+01  -5.3934747e+00   4.9406803e+00  -1.4655797e+01  -9.9533969e+00  -1.0682070e+01  -1.3124908e+01  -6.9496688e+00  -1.8243838e+01  -4.2886883e+01  -1.1949637e+01  -1.6257924e+01  -1.9256398e+01   4.4808609e+00  -9.4922204e+00  -1.0968004e+01   0.0000000e+00   0.0000000e+00   0.0000000e+00   0.0000000e+00
  -1.1541119e+01   2.3059478e+00   3.4506722e+00   2.0572068e+01  -1.1484777e+01  -5.5796824e+00   1.8804632e+00  -1.6491878e+01  -1.1100624e+01  -1.0797851e+01  -1.3369982e+01  -7.5264169e+00  -1.9208696e+01  -4.3050783e+01  -1.4981003e+01  -1.8683547e+01  -2.0202025e+01   2.1373811e+00  -1.2040927e+01  -1.3567766e+01   0.0000000e+00   0.0000000e+00   0.0000000e+00   0.0000000e+00
  -1.1608402e+01   2.5823606e+00   3.3327607e+00   2.1249868e+01  -1.1930694e+01  -6.1145444e+00  -1.3559074e+00  -1.7785961e+01  -1.2079887e+01  -1.0451562e+01  -1.2727944e+01  -7.3223951e+00  -1.9684514e+01  -4.3099477e+01  -1.6987258e+01  -2.0223591e+01  -2.0615823e+01   4.3565195e-01  -1.4162876e+01  -1.5573862e+01   0.0000000e+00   0.0000000e+00   0.0000000e+00   0.0000000e+00
  -1.1836185e+01   2.5910125e+00   3.1191306e+00   2.2229479e+01  -1.2250515e+01  -6.8099730e+00  -4.4727270e+00  -1.8266663e+01  -1.3031944e+01  -9.7393023e+00  -1.1518560e+01  -6.5615668e+00  -1.9641313e+01  -4.3198630e+01  -1.7512026e+01  -2.0302181e+01  -2.0668437e+01  -1.0063740e+00  -1.5341128e+01  -1.6568920e+01   0.0000000e+00   0.0000000e+00   0.0000000e+00   0.0000000e+00
  -1.2433430e+01   2.1341888e+00   2.5448493e+00   2.3167781e+01  -1.3008989e+01  -7.4657725e+00  -7.1863426e+00  -1.8145180e+01  -1.3922953e+01  -8.9348754e+00  -1.0288691e+01  -6.0945124e+00  -1.9381260e+01  -4.3069075e+01  -1.6666774e+01  -1.9091187e+01  -2.0724504e+01  -2.1421409e+00  -1.5535525e+01  -1.6104723e+01   0.0000000e+00   0.0000000e+00   0.0000000e+00   0.0000000e+00
  -1.3511430e+01   1.0005075e+00   1.4740549e+00   2.3356594e+01  -1.4215230e+01  -8.0537830e+00  -9.2096211e+00  -1.7519411e+01  -1.4529222e+01  -8.2901545e+00  -9.6185493e+00  -6.1834963e+00  -1.9147446e+01  -4.2490200e+01  -1.4966690e+01  -1.7422777e+01  -2.0950927e+01  -2.8744730e+00  -1.4689039e+01  -1.4273938e+01   0.0000000e+00   0.0000000e+00   0.0000000e+00   0.0000000e+00
  -1.4616776e+01  -7.1160542e-01   2.1152649e-01   2.2658456e+01  -1.5496502e+01  -8.5658613e+00  -1.0664022e+01  -1.6555712e+01  -1.4673807e+01  -7.9209389e+00  -9.5754677e+00  -6.0479029e+00  -1.8690704e+01  -4.1537598e+01  -1.2865624e+01  -1.5946167e+01  -2.1293797e+01  -3.6021257e+00  -1.3018430e+01  -1.1754093e+01   0.0000000e+00   0.0000000e+00   0.0000000e+00   0.0000000e+00
  -1.5496866e+01  -2.3262809e+00  -7.2556620e-01   2.1737079e+01  -1.6518531e+01  -8.8126970e+00  -1.1832971e+01  -1.5742126e+01  -1.4461462e+01  -7.8476468e+00  -9.9281153e+00  -5.5338373e+00  -1.7792941e+01  -4.0283054e+01  -1.0710878e+01  -1.4850060e+01  -2.1513464e+01  -4.6624867e+00  -1.0852798e+01  -9.3016231e+00   0.0000000e+00   0.0000000e+00   0.0000000e+00   0.0000000e+00
  -1.5679184e+01  -2.6887134e+00  -7.4583375e-01   2.1585242e+01  -1.6519740e+01  -8.0446309e+00  -1.2192278e+01  -1.4743640e+01  -1.3542862e+01  -7.4837670e+00  -1.0174647e+01  -4.8575059e+00  -1.6264219e+01  -3.8305321e+01  -8.5001987e+00  -1.3819471e+01  -2.0809026e+01  -5.1967236e+00  -7.9494955e+00  -6.8833702e+00   0.0000000e+00   0.0000000e+00   0.0000000e+00   0.0000000e+00
  -1.4876059e+01  -1.7831561e+00   2.0019684e-02   2.2338913e+01  -1.5216807e+01  -6.1903686e+00  -1.1552742e+01  -1.3301293e+01  -1.1681635e+01  -6.4344096e+00  -1.0093857e+01  -3.8979761e+00  -1.4245733e+01  -3.5733161e+01  -6.4547388e+00  -1.2657198e+01  -1.8994068e+01  -4.5548430e+00  -4.6835714e+00  -4.3666060e+00   0.0000000e+00   0.0000000e+00   0.0000000e+00   0.0000000e+00
  -1.3604445e+01  -9.7090728e-01   5.9646304e-01   2.3040514e+01  -1.3703583e+01  -4.4919130e+00  -1.0965887e+01  -1.2305901e+01  -9.5146748e+00  -5.2950605e+00  -1.0065400e+01  -2.8625180e+00  -1.2418280e+01  -3.3946864e+01  -5.4657849e+00  -1.1851942e+01  -1.7149407e+01  -3.7912959e+00  -2.5484741e+00  -2.4687475e+00   0.0000000e+00   0.0000000e+00   0.0000000e+00   0.0000000e+00
  -1.2764206e+01  -1.1823262e+00   4.9819189e-01   2.2750301e+01  -1.3067029e+01  -4.0691441e+00  -1.1636031e+01  -1.2684485e+01  -7.9975770e+00  -4.8466584e+00  -1.0301023e+01  -2.1712700e+00  -1.1546008e+01  -3.4101609e+01  -6.2022596e+00  -1.1995584e+01  -1.6204081e+01  -4.1557272e+00  -2.6119295e+00  -2.1157033e+00   0.0000000e+00   0.0000000e+00   0.0000000e+00   0.0000000e+00
  -1.2572407e+01  -1.8441586e+00  -6.0602910e-02   2.1581467e+01  -1.3401335e+01  -4.7916223e+00  -1.3731112e+01  -1.4183565e+01  -7.5371613e+00  -5.0309612e+00  -1.0397601e+01  -2.2016587e+00  -1.1733401e+01  -3.5685949e+01  -8.1841070e+00  -1.2931100e+01  -1.6060311e+01  -5.2927832e+00  -4.6477862e+00  -3.2237991e+00   0.0000000e+00   0.0000000e+00   0.0000000e+00   0.0000000e+00
  -1.2289071e+01  -2.0610660e+00  -8.6440819e-01   2.0380038e+01  -1.4104741e+01  -5.9000870e+00  -1.6407310e+01  -1.5804182e+01  -7.8110846e+00  -5.1696569e+00  -9.8176680e+00  -2.8862747e+00  -1.2265133e+01  -3.7616976e+01  -1.0150411e+01  -1.3901705e+01  -1.6165763e+01  -6.1560271e+00  -7.5555022e+00  -4.7288718e+00   0.0000000e+00   0.0000000e+00   0.0000000e+00   0.0000000e+00
  -1.1697784e+01  -1.8472689e+00  -1.7880289e+00   1.9655767e+01  -1.4609770e+01  -6.8812556e+00  -1.8659981e+01  -1.6882895e+01  -8.3459034e+00  -4.9512329e+00  -8.7072969e+00  -3.4674226e+00  -1.2380570e+01  -3.9460403e+01  -1.1259980e+01  -1.4488355e+01  -1.6254693e+01  -6.6703779e+00  -1.0260009e+01  -5.8811009e+00   0.0000000e+00   0.0000000e+00   0.0000000e+00   0.0000000e+00
  -1.1109499e+01  -1.5945691e+00  -2.4420467e+00   1.9087164e+01  -1.4612694e+01  -7.3298838e+00  -1.9742069e+01  -1.7223769e+01  -8.6133687e+00  -4.5373912e+00  -7.6462846e+00  -3.5041621e+00  -1.1865789e+01  -4.0742020e+01  -1.1296638e+01  -1.4656473e+01  -1.6190638e+01  -7.2095623e+00  -1.2143094e+01  -6.6830951e+00   0.0000000e+00   0.0000000e+00   0.0000000e+00   0.0000000e+00
  -1.0623819e+01  -1.2988437e+00  -2.4746960e+00   1.8318547e+01  -1.4039363e+01  -6.9204941e+00  -1.9396199e+01  -1.6630629e+01  -8.3484451e+00  -4.0142362e+00  -6.8141941e+00  -3.0300130e+00  -1.0876304e+01  -4.0868657e+01  -1.0197353e+01  -1.4284484e+01  -1.5720597e+01  -7.5001679e+00  -1.2876684e+01  -7.1791987e+00   0.0000000e+00   0.0000000e+00   0.0000000e+00   0.0000000e+00
  -1.0401653e+01  -8.0675413e-01  -1.8973359e+00   1.7790290e+01  -1.3131476e+01  -5.8415954e+00  -1.7929664e+01  -1.5117177e+01  -7.4520023e+00  -3.1383848e+00  -6.1823655e+00  -2.0654297e+00  -9.4891790e+00  -3.9884217e+01  -8.0019048e+00  -1.3459766e+01  -1.4734647e+01  -7.1129500e+00  -1.2353194e+01  -7.0582309e+00   0.0000000e+00   0.0000000e+00   0.0000000e+00   0.0000000e+00
  -1.0774821e+01  -4.7734017e-01  -1.2277116e+00   1.7522945e+01  -1.2305296e+01  -4.7860036e+00  -1.6172638e+01  -1.3251628e+01  -6.0018961e+00  -1.8801778e+00  -5.8389063e+00  -1.4536816e+00  -8.0012137e+00  -3.8453922e+01  -5.1541541e+00  -1.2472023e+01  -1.3640820e+01  -6.5559642e+00  -1.0671455e+01  -6.0048675e+00   0.0000000e+00   0.0000000e+00   0.0000000e+00   0.0000000e+00
  -1.1314185e+01  -2.6492101e-01  -6.9685075e-01   1.7200141e+01  -1.1427305e+01  -3.8228454e+00  -1.4340131e+01  -1.1440713e+01  -4.1897960e+00  -4.5691338e-01  -5.5471860e+00  -1.6981958e+00  -6.5492726e+00  -3.6867320e+01  -2.1637567e+00  -1.1504627e+01  -1.2765523e+01  -6.3172230e+00  -8.2223017e+00  -3.9375350e+00   0.0000000e+00   0.0000000e+00   0.0000000e+00   0.0000000e+00
  -1.1362835e+01   2.2704212e-01  -4.5068513e-01   1.6647022e+01  -1.0316539e+01  -2.5682770e+00  -1.2313735e+01  -9.9890215e+00  -2.4243759e+00   9.2139450e-01  -5.2035958e+00  -1.9873249e+00  -5.3231346e+00  -3.5061023e+01   4.8296356e-01  -1.0889435e+01  -1.1964880e+01  -5.9641159e+00  -5.6683628e+00  -1.4552530e+00   0.0000000e+00   0.0000000e+00   0.0000000e+00   0.0000000e+00
  -1.0797660e+01   1.2338181e+00  -7.1610391e-01   1.6177605e+01  -9.1417510e+00  -1.1384720e+00  -1.0617358e+01  -9.4731054e+00  -1.2550849e+00   2.1994234e+00  -5.1021524e+00  -1.6949591e+00  -4.3444825e+00  -3.3335474e+01   2.1319765e+00  -1.0940194e+01  -1.1057073e+01  -5.0160811e+00  -3.6900101e+00   4.1143351e-01   0.0000000e+00   0.0000000e+00   0.0000000e+00   0.0000000e+00
  -9.4803735e+00   2.7060711e+00  -1.3102984e+00   1.6405639e+01  -7.9607661e+00   1.4591177e-01  -9.9164454e+00  -1.0222025e+01  -4.4799820e-01   3.4231225e+00  -5.0815221e+00  -7.9482765e-01  -3.3860461e+00  -3.2030644e+01   2.4982930e+00  -1.1530640e+01  -1.0008387e+01  -3.7011630e+00  -2.8073748e+00   1.0641585e+00   0.0000000e+00   0.0000000e+00   0.0000000e+00   0.0000000e+00
  -7.3576830e+00   4.2931771e+00  -1.8767606e+00   1.7694600e+01  -6.6150755e+00   1.2011046e+00  -1.0164903e+01  -1.1530389e+01   3.9862291e-01   4.5883608e+00  -4.6689452e+00   3.7270692e-01  -2.2627850e+00  -3.1169036e+01   1.8088596e+00  -1.2427653e+01  -8.7796399e+00  -2.3877144e+00  -3.0733226e+00   8.4788787e-01   0.0000000e+00   0.0000000e+00   0.0000000e+00   0.0000000e+00
  -5.2817290e+00   5.7157102e+00  -2.4263855e+00   1.9272958e+01  -5.0415739e+00   1.9856035e+00  -1.0884660e+01  -1.2638020e+01   1.0561982e+00   5.3111579e+00  -4.2339257e+00   1.2766185e+00  -1.1972151e+00  -3.0780420e+01   2.2172896e-01  -1.3845110e+01  -7.3516424e+00  -1.0551803e+00  -4.4807355e+00   1.1580824e-01   0.0000000e+00   0.0000000e+00   0.0000000e+00   0.0000000e+00
  -4.2805453e+00   6.5150680e+00  -3.0478722e+00   1.9969135e+01  -3.1994578e+00   2.3687174e+00  -1.1675147e+01  -1.3719401e+01   1.1857572e+00   5.2348408e+00  -4.3720466e+00   1.9046244e+00  -4.8933021e-01  -3.0872616e+01  -1.8690202e+00  -1.5537570e+01  -5.9021173e+00   3.7616657e-01  -6.6568881e+00  -1.1100696e+00   0.0000000e+00   0.0000000e+00   0.0000000e+00   0.0000000e+00
  -4.0294914e+00   6.5362570e+00  -3.4692204e+00   1.9928409e+01  -1.1037908e+00   2.3301043e+00  -1.2086185e+01  -1.4668807e+01   8.1480640e-01   4.5818264e+00  -5.0849582e+00   2.3598519e+00   4.4134636e-02  -3.1179074e+01  -3.7467360e+00  -1.6826034e+01  -4.6651289e+00   1.6083680e+00  -8.9452604e+00  -2.4775656e+00   0.0000000e+00   0.0000000e+00   0.0000000e+00   0.0000000e+00
  -3.5970389e+00   6.3097486e+00  -3.5430507e+00   1.9938181e+01   1.0304241e+00   2.2666196e+00  -1.1452528e+01  -1.4829270e+01   4.4897771e-01   4.0664071e+00  -5.7889757e+00   2.7721908e+00   8.1829461e-01  -3.1121827e+01  -4.7316026e+00  -1.7234397e+01  -3.5035600e+00   2.3376836e+00  -1.0608731e+01  -3.2775749e+00   0.0000000e+00   0.0000000e+00   0.0000000e+00   0.0000000e+00
  -2.7557119e+00   6.4148769e+00  -3.4729798e+00   1.9836609e+01   2.8128342e+00   2.6563074e+00  -9.3467433e+00  -1.4047955e+01   4.3538448e-01   4.0965383e+00  -5.9373742e+00   2.9999975e+00   1.7200892e+00  -3.0255699e+01  -4.6044905e+00  -1.6740485e+01  -2.2304443e+00   2.7920823e+00  -1.0970653e+01  -3.2297536e+00   0.0000000e+00   0.0000000e+00   0.0000000e+00   0.0000000e+00
  -2.0974816e+00   6.6811889e+00  -3.2090202e+00   1.9081792e+01   3.6499836e+00   3.2914363e+00  -6.0139479e+00  -1.2613726e+01   6.8231734e-01   4.4196269e+00  -5.6183542e+00   2.8422803e+00   2.1775436e+00  -2.8865004e+01  -3.7323037e+00  -1.5551231e+01  -1.3163941e+00   3.2772871e+00  -9.8515872e+00  -2.3966342e+00   0.0000000e+00   0.0000000e+00   0.0000000e+00   0.0000000e+00
  -2.1513577e+00   6.5740380e+00  -2.1836673e+00   1.8038179e+01   3.4672625e+00   3.7180755e+00  -2.2191875e+00  -1.0844033e+01   8.4849416e-01   4.5131603e+00  -5.2119989e+00   2.2007485e+00   2.0000909e+00  -2.7732164e+01  -2.6015294e+00  -1.3940666e+01  -1.3772040e+00   3.4339601e+00  -7.5351523e+00  -8.5812938e-01   0.0000000e+00   0.0000000e+00   0.0000000e+00   0.0000000e+00
  -2.5505760e+00   6.2270970e+00  -4.3722029e-01   1.7080975e+01   2.9738418e+00   4.1231794e+00   1.4622422e+00  -8.7511449e+00   8.9898002e-01   4.3330100e+00  -4.6521570e+00   1.0694994e+00   1.4215372e+00  -2.6992306e+01  -1.1899820e+00  -1.2004495e+01  -2.1834444e+00   2.9609167e+00  -4.2926511e+00   1.5045447e+00   0.0000000e+00   0.0000000e+00   0.0000000e+00   0.0000000e+00
  -3.0740511e+00   6.1436509e+00   1.2358043e+00   1.6067677e+01   2.4368283e+00   4.7260537e+00   4.6116183e+00  -6.6714144e+00   1.1046224e+00   4.1084102e+00  -4.1099360e+00  -6.3158006e-01   4.9970728e-01  -2.6296510e+01   2.9248839e-01  -1.0080870e+01  -3.2575769e+00   2.2023331e+00  -7.3392610e-01   4.2047497e+00   0.0000000e+00   0.0000000e+00   0.0000000e+00   0.0000000e+00
  -3.7247362e+00   6.4656736e+00   2.2524532e+00   1.5155379e+01   1.7824876e+00   5.2290263e+00   6.6199850e+00  -5.3551961e+00   1.3432599e+00   3.9271532e+00  -3.9733377e+00  -2.4268566e+00  -5.7443457e-01  -2.5848157e+01   9.8685289e-01  -8.9712780e+00  -4.5266535e+00   1.5031569e+00   2.0679680e+00   5.8378054e+00   0.0000000e+00   0.0000000e+00   0.0000000e+00   0.0000000e+00
  -4.2677685e+00   6.9594044e+00   2.4190023e+00   1.4718930e+01   1.2294765e+00   5.1979810e+00   6.9034967e+00  -5.4495771e+00   1.1923977e+00   3.8077194e+00  -4.2754832e+00  -3.4555949e+00  -1.2709807e+00  -2.6329435e+01   2.5198857e-01  -9.1266870e+00  -5.9293895e+00   5.0115330e-01   3.0155395e+00   5.0695932e+00   0.0000000e+00   0.0000000e+00   0.0000000e+00   0.0000000e+00
  -4.6205688e+00   7.3195821e+00   1.7655065e+00   1.4642255e+01   8.5863853e-01   4.5354527e+00   5.2974552e+00  -6.9805259e+00   7.4910696e-01   3.7224249e+00  -4.7855176e+00  -3.7331262e+00  -1.6787453e+00  -2.8012506e+01  -1.8176272e+00  -1.0326274e+01  -7.2594071e+00  -1.3361438e+00   1.7397268e+00   1.6584719e+00   0.0000000e+00   0.0000000e+00   0.0000000e+00   0.0000000e+00
  -4.7722455e+00   7.5256842e+00   7.0442856e-01   1.4900444e+01   8.1886990e-01   3.6264374e+00   2.5098762e+00  -8.8690684e+00   5.4405196e-01   3.8463070e+00  -4.8541023e+00  -3.1978455e+00  -2.0318259e+00  -3.0097635e+01  -4.2513917e+00  -1.1699380e+01  -8.1079020e+00  -3.4230456e+00  -8.4870194e-01  -2.9798879e+00   0.0000000e+00   0.0000000e+00   0.0000000e+00   0.0000000e+00
  -4.9602511e+00   7.4733975e+00  -3.5681251e-01   1.5516744e+01   7.5444512e-01   2.5840593e+00  -4.8733595e-01  -1.0017473e+01   5.3035286e-01   3.8343067e+00  -4.4228070e+00  -2.2345652e+00  -2.5375902e+00  -3.1961941e+01  -6.2443567e+00  -1.2664620e+01  -8.6176952e+00  -5.1354693e+00  -3.7545407e+00  -7.0454592e+00   0.0000000e+00   0.0000000e+00   0.0000000e+00   0.0000000e+00
  -5.5682608e+00   6.7783579e+00  -1.2637538e+00   1.6030685e+01   1.0026212e-01   1.0953654e+00  -2.9328401e+00  -1.0302802e+01   2.9150287e-01   3.2762196e+00  -4.0235060e+00  -1.8000952e+00  -3.4314580e+00  -3.3645881e+01  -7.4551040e+00  -1.3224677e+01  -9.4982297e+00  -6.9052622e+00  -6.3996881e+00  -9.3746564e+00   0.0000000e+00   0.0000000e+00   0.0000000e+00   0.0000000e+00
  -6.5582727e+00   5.6926582e+00  -1.8301931e+00   1.6026258e+01  -8.5726515e-01  -4.3612935e-01  -4.3271099e+00  -9.9767369e+00  -1.8666096e-01   2.6108634e+00  -3.7317839e+00  -2.0476012e+00  -4.3038179e+00  -3.4563536e+01  -7.5103293e+00  -1.3201251e+01  -1.0721567e+01  -8.8660726e+00  -8.0027934e+00  -9.2823141e+00   0.0000000e+00   0.0000000e+00   0.0000000e+00   0.0000000e+00
  -7.3897325e+00   5.0209102e+00  -2.0342647e+00   1.5609590e+01  -1.2636775e+00  -9.9475277e-01  -4.3885118e+00  -8.9716019e+00  -4.3362382e-01   2.4903363e+00  -3.0547640e+00  -2.4785354e+00  -4.5465706e+00  -3.3712676e+01  -6.1748133e+00  -1.2073454e+01  -1.1501677e+01  -1.0059028e+01  -7.8871687e+00  -6.7189874e+00   0.0000000e+00   0.0000000e+00   0.0000000e+00   0.0000000e+00
  -7.6330963e+00   5.0049853e+00  -2.0426737e+00   1.5200901e+01  -8.9407491e-01  -3.6285103e-01  -3.1486799e+00  -7.3781790e+00  -1.3881339e-01   3.0242742e+00  -1.8405431e+00  -2.7536720e+00  -4.1295015e+00  -3.1064803e+01  -3.8018651e+00  -9.8066834e+00  -1.1324222e+01  -9.8278454e+00  -6.3237592e+00  -2.7553637e+00   0.0000000e+00   0.0000000e+00   0.0000000e+00   0.0000000e+00
  -7.1065220e+00   5.3541245e+00  -1.8764623e+00   1.4976482e+01  -2.9924348e-01   7.2684932e-01  -1.1630816e+00  -5.8221316e+00   4.3506168e-01   3.7005754e+00  -7.9634893e-01  -2.7348598e+00  -3.6193209e+00  -2.7748376e+01  -1.4972409e+00  -7.5444248e+00  -1.0459409e+01  -8.9598803e+00  -4.2931506e+00   7.9400798e-01   0.0000000e+00   0.0000000e+00   0.0000000e+00   0.0000000e+00
  -6.0669461e+00   5.9992255e+00  -1.3668366e+00   1.4822008e+01   1.4498389e-01   1.7053548e+00   7.8819318e-01  -4.9070266e+00   1.0427288e+00   3.9308607e+00  -4.3451490e-01  -2.7671330e+00  -3.4539773e+00  -2.4766165e+01  -2.7274171e-01  -6.2862717e+00  -9.5031714e+00  -8.5325728e+00  -2.5625563e+00   2.7827355e+00   0.0000000e+00   0.0000000e+00   0.0000000e+00   0.0000000e+00
  -5.0055832e+00   6.7450833e+00  -7.2347390e-01   1.4704509e+01   4.5246307e-01   2.6485394e+00   2.1286789e+00  -4.5412996e+00   1.8336867e+00   3.7306499e+00  -3.3217608e-01  -2.7866982e+00  -3.3332145e+00  -2.2435654e+01  -1.9244192e-01  -5.7193068e+00  -8.6264440e+00  -8.3963901e+00  -1.3904053e+00   3.5267324e+00   0.0000000e+00   0.0000000e+00   0.0000000e+00   0.0000000e+00
  -4.2937694e+00   6.9544028e+00  -5.1425224e-01   1.4326421e+01   6.9950671e-01   3.4331624e+00   2.3940552e+00  -4.6234612e+00   2.7302448e+00   3.4773397e+00  -1.5639825e-01  -2.1389686e+00  -3.1647080e+00  -2.1253697e+01  -9.6475557e-01  -5.4370891e+00  -7.8871231e+00  -8.0886965e+00  -1.2289477e+00   3.4403617e+00   0.0000000e+00   0.0000000e+00   0.0000000e+00   0.0000000e+00
  -4.2786636e+00   6.1835842e+00  -1.1019432e+00   1.3386491e+01   5.8571022e-01   3.3355651e+00   1.3718282e+00  -5.6279172e+00   3.2272301e+00   3.2598747e+00  -2.1602441e-01  -1.0621361e+00  -3.3052178e+00  -2.1828058e+01  -2.6115485e+00  -5.9884504e+00  -7.7726700e+00  -8.1536145e+00  -2.6990398e+00   2.1975730e+00   0.0000000e+00   0.0000000e+00   0.0000000e+00   0.0000000e+00
  -4.8170692e+00   4.8306185e+00  -2.3628200e+00   1.2308907e+01   1.4093349e-02   2.0463692e+00  -4.3954909e-01  -7.7665912e+00   3.1412544e+00   2.9044043e+00  -6.1762123e-01  -1.5010271e-01  -3.7778194e+00  -2.3792797e+01  -4.9733576e+00  -7.7186476e+00  -8.4323552e+00  -9.1766910e+00  -5.5391507e+00  -3.3179639e-01   0.0000000e+00   0.0000000e+00   0.0000000e+00   0.0000000e+00
  -5.4807041e+00   3.8109613e+00  -3.6853871e+00   1.1475108e+01  -8.0790785e-01   1.8298105e-01  -2.0392608e+00  -1.0374810e+01   2.8159716e+00   2.5290249e+00  -9.5338455e-01   2.7544345e-01  -4.4057957e+00  -2.5729126e+01  -7.2343986e+00  -9.8673009e+00  -9.2700246e+00  -1.0637744e+01  -8.5675394e+00  -3.5151427e+00   0.0000000e+00   0.0000000e+00   0.0000000e+00   0.0000000e+00
  -6.1724376e+00   3.5228937e+00  -4.6326848e+00   1.0784189e+01  -1.5656839e+00  -1.3645334e+00  -2.5991581e+00  -1.2243077e+01   2.6907256e+00   2.3131249e+00  -8.2278807e-01   6.0637789e-02  -4.7148948e+00  -2.6331843e+01  -8.3953121e+00  -1.1491664e+01  -9.6174204e+00  -1.1639856e+01  -1.0423393e+01  -6.3261328e+00   0.0000000e+00   0.0000000e+00   0.0000000e+00   0.0000000e+00
  -6.7754909e+00   3.5095383e+00  -4.9315747e+00   1.0337984e+01  -1.8518624e+00  -2.0852337e+00  -1.7755386e+00  -1.2453214e+01   2.8474085e+00   2.1760255e+00  -7.4598808e-02  -2.8743936e-01  -4.2434379e+00  -2.5437595e+01  -7.9350564e+00  -1.2016705e+01  -9.2814490e+00  -1.1978674e+01  -1.0343212e+01  -7.7399996e+00   0.0000000e+00   0.0000000e+00   0.0000000e+00   0.0000000e+00
  -7.3663346e+00   3.4419930e+00  -4.4135171e+00   1.0021109e+01  -1.7486139e+00  -2.0051487e+00   1.1111887e-01  -1.0868358e+01   3.0162925e+00   2.0185651e+00   1.0244018e+00  -4.5954097e-01  -3.4001030e+00  -2.3869408e+01  -6.0659890e+00  -1.1313994e+01  -8.6212687e+00  -1.1999873e+01  -8.3786265e+00  -6.9976911e+00   0.0000000e+00   0.0000000e+00   0.0000000e+00   0.0000000e+00
  -7.8067652e+00   3.4558053e+00  -3.5651773e+00   9.5467358e+00  -1.1983501e+00  -1.3144148e+00   2.1511722e+00  -8.2488653e+00   3.1426263e+00   1.8729984e+00   2.0057398e+00  -6.0157444e-01  -2.7651774e+00  -2.2230499e+01  -3.5383729e+00  -9.9720757e+00  -7.8017465e+00  -1.1634849e+01  -5.2199594e+00  -4.1007848e+00   0.0000000e+00   0.0000000e+00   0.0000000e+00   0.0000000e+00
  -7.7681591e+00   3.4799751e+00  -3.0571059e+00   9.2737397e+00  -3.4068273e-02  -2.1843324e-01   3.5148113e+00  -5.8589670e+00   3.3242603e+00   1.8892774e+00   2.7968736e+00  -6.8163692e-01  -2.3273098e+00  -2.0462685e+01  -1.0413338e+00  -8.6850891e+00  -6.7293715e+00  -1.0566008e+01  -1.7903633e+00  -8.3867010e-02   0.0000000e+00   0.0000000e+00   0.0000000e+00   0.0000000e+00
  -6.9330812e+00   3.6897896e+00  -2.9587347e+00   9.8305049e+00   1.7420814e+00   1.1387569e+00   4.1134234e+00  -4.2716721e+00   3.7302555e+00   2.3940413e+00   3.7200687e+00  -5.0808877e-01  -1.7073878e+00  -1.8395995e+01   1.1691864e+00  -7.4629259e+00  -5.3195803e+00  -8.9268928e+00   1.4244349e+00   3.8119381e+00   0.0000000e+00   0.0000000e+00   0.0000000e+00   0.0000000e+00
  -5.2866412e+00   4.2095697e+00  -3.0321781e+00   1.0974467e+01   3.7495489e+00   2.4281624e+00   4.0085751e+00  -3.7610950e+00   4.3347887e+00   3.2847409e+00   4.5976708e+00  -1.7425015e-01  -9.2550789e-01  -1.6501738e+01   2.5651560e+00  -6.6869767e+00  -3.7639979e+00  -7.3317908e+00   3.9309431e+00   6.2532398e+00   0.0000000e+00   0.0000000e+00   0.0000000e+00   0.0000000e+00
  -3.7744158e+00   4.7306049e+00  -2.9216830e+00   1.1937239e+01   5.2350789e+00   3.4145554e+00   3.1240827e+00  -4.4420183e+00   4.8373754e+00   4.1009037e+00   5.0720426e+00   4.1273258e-02  -2.6511697e-01  -1.5330318e+01   2.6735528e+00  -6.8058902e+00  -2.3585101e+00  -6.0014230e+00   5.1288290e+00   6.3454179e+00   0.0000000e+00   0.0000000e+00   0.0000000e+00   0.0000000e+00
  -3.1242661e+00   4.8493858e+00  -2.5793580e+00   1.2227858e+01   6.0728116e+00   3.8425843e+00   1.5257599e+00  -5.8979833e+00   5.2387170e+00   4.6874477e+00   5.2730615e+00   5.9512805e-02   2.0317952e-01  -1.4952953e+01   1.6503127e+00  -7.4169637e+00  -1.2505351e+00  -4.6977444e+00   4.6307921e+00   4.4083314e+00   0.0000000e+00   0.0000000e+00   0.0000000e+00   0.0000000e+00
  -3.1543511e+00   3.9893456e+00  -2.3467226e+00   1.1980770e+01   6.2963811e+00   3.1061907e+00  -7.7944996e-01  -7.8997130e+00   5.2813696e+00   4.6571575e+00   5.1894269e+00  -1.6657600e-01   2.4448126e-01  -1.5558086e+01  -1.4319498e-01  -8.2210001e+00  -9.2707001e-01  -3.8468687e+00   1.9898826e+00   1.3347058e+00   0.0000000e+00   0.0000000e+00   0.0000000e+00   0.0000000e+00
  -3.4166543e+00   2.1173663e+00  -2.4263420e+00   1.1603972e+01   5.7523846e+00   1.0970649e+00  -3.4358789e+00  -1.0162826e+01   4.6838630e+00   3.9747606e+00   4.7225350e+00  -4.9852057e-01  -4.2852906e-01  -1.7158514e+01  -2.0716945e+00  -9.3001957e+00  -1.6192531e+00  -3.9605303e+00  -2.4288996e+00  -1.8090121e+00   0.0000000e+00   0.0000000e+00   0.0000000e+00   0.0000000e+00
  -3.6029448e+00   1.4605237e-01  -2.7325889e+00   1.1342457e+01   4.8255227e+00  -1.1969030e+00  -5.1521412e+00  -1.1978480e+01   3.8850314e+00   3.3649515e+00   4.4148363e+00  -5.7373990e-01  -1.3274038e+00  -1.8893418e+01  -3.2406693e+00  -1.0336925e+01  -2.6231098e+00  -4.3635174e+00  -7.0339333e+00  -3.9045125e+00   0.0000000e+00   0.0000000e+00   0.0000000e+00   0.0000000e+00
  -3.9753443e+00  -1.0944747e+00  -3.0877256e+00   1.1131242e+01   3.8748308e+00  -2.6523107e+00  -5.0516552e+00  -1.2725667e+01   3.1429285e+00   3.1538733e+00   4.7711049e+00  -2.9166404e-01  -1.9025840e+00  -1.9788210e+01  -3.1655860e+00  -1.0564182e+01  -3.1775133e+00  -4.1433440e+00  -1.0172007e+01  -4.2383729e+00   0.0000000e+00   0.0000000e+00   0.0000000e+00   0.0000000e+00
  -4.9835337e+00  -1.4213457e+00  -3.5074784e+00   1.0957310e+01   3.0900967e+00  -3.0213869e+00  -3.5258730e+00  -1.2343890e+01   2.5676119e+00   3.2592035e+00   5.5103934e+00   3.0303269e-01  -1.9635407e+00  -1.9773197e+01  -2.0300577e+00  -9.8073813e+00  -3.0976576e+00  -3.3603033e+00  -1.1282749e+01  -3.1707115e+00   0.0000000e+00   0.0000000e+00   0.0000000e+00   0.0000000e+00
  -6.0805882e+00  -1.2901842e+00  -3.8152384e+00   1.0795300e+01   2.7143042e+00  -2.6600068e+00  -1.3604470e+00  -1.1051383e+01   2.3838798e+00   3.7675744e+00   6.3953274e+00   1.0715292e+00  -1.5057808e+00  -1.9184451e+01  -1.5028633e-01  -8.3110160e+00  -2.5182788e+00  -2.3616472e+00  -1.0777559e+01  -1.1709274e+00   0.0000000e+00   0.0000000e+00   0.0000000e+00   0.0000000e+00
  -6.3438504e+00  -1.2076506e+00  -3.8230839e+00   1.0739524e+01   2.7223379e+00  -1.9056361e+00   9.0766919e-01  -9.1486173e+00   2.4612573e+00   4.7100932e+00   7.2847394e+00   1.6285240e+00  -1.0299829e+00  -1.8152834e+01   2.2147899e+00  -6.3866208e+00  -1.7120533e+00  -9.8894872e-01  -9.2086207e+00   1.7078541e+00   0.0000000e+00   0.0000000e+00   0.0000000e+00   0.0000000e+00
  -5.5967734e+00  -1.0396983e+00  -3.4755775e+00   1.1447773e+01   3.2575924e+00  -7.7918453e-01   3.2708123e+00  -6.9795284e+00   2.8429307e+00   5.9884743e+00   8.1221884e+00   1.9784153e+00  -6.8044082e-01  -1.6652622e+01   4.7268900e+00  -4.3846120e+00  -7.5551852e-01   1.0671680e+00  -6.9165506e+00   5.0273798e+00   0.0000000e+00   0.0000000e+00   0.0000000e+00   0.0000000e+00
  -4.4963531e+00  -6.3030671e-01  -2.6290368e+00   1.2843408e+01   4.3481825e+00   4.1596071e-01   5.5491365e+00  -5.1207260e+00   3.4207708e+00   7.1953628e+00   8.8911918e+00   2.4673280e+00  -1.7960145e-01  -1.5076488e+01   6.7028206e+00  -2.8581617e+00   3.0642835e-01   3.2366352e+00  -4.6251686e+00   7.6631114e+00   0.0000000e+00   0.0000000e+00   0.0000000e+00   0.0000000e+00
  -3.5792901e+00  -1.3611478e-02  -1.5417958e+00   1.4202665e+01   5.3580927e+00   1.0803778e+00   7.1289936e+00  -4.1039196e+00   3.8204041e+00   7.9270203e+00   9.4300399e+00   3.1045620e+00   3.1824356e-01  -1.4056608e+01   7.5261703e+00  -2.3419187e+00   1.2216569e+00   4.5509147e+00  -3.2201984e+00   8.6269465e+00   0.0000000e+00   0.0000000e+00   0.0000000e+00   0.0000000e+00
  -2.4757383e+00   1.0328057e+00  -7.0277142e-01   1.5350717e+01   6.1543715e+00   1.2633130e+00   7.6758589e+00  -3.9272004e+00   4.2357597e+00   8.5147837e+00   9.9528137e+00   3.7259027e+00   4.6918841e-01  -1.3532746e+01   7.3058625e+00  -2.6993583e+00   1.9786213e+00   5.1367866e+00  -2.9874517e+00   8.0157833e+00   0.0000000e+00   0.0000000e+00   0.0000000e+00   0.0000000e+00
  -1.1500460e+00   2.2832327e+00  -4.8658175e-02   1.6567555e+01   6.9042048e+00   1.3444325e+00   7.2226144e+00  -4.3230583e+00   4.7896857e+00   9.1531250e+00   1.0664920e+01   4.2199174e+00   1.1438827e-01  -1.3367110e+01   6.2673801e+00  -3.5199129e+00   2.4596252e+00   5.4753171e+00  -3.9768326e+00   6.6401874e+00   0.0000000e+00   0.0000000e+00   0.0000000e+00   0.0000000e+00
  -1.0346274e-01   3.0635159e+00   6.9510333e-01   1.7766027e+01   7.2622556e+00   1.3585322e+00   5.9178931e+00  -5.1638350e+00   5.1310001e+00   9.5566850e+00   1.1421577e+01   4.5174882e+00  -4.4380978e-01  -1.4050489e+01   4.4804846e+00  -4.5286011e+00   2.3260355e+00   5.2234319e+00  -6.1966736e+00   5.2323229e+00   0.0000000e+00   0.0000000e+00   0.0000000e+00   0.0000000e+00
   3.2619217e-01   3.3226840e+00   1.4017780e+00   1.8325166e+01   6.9929995e+00   1.0433445e+00   4.1107144e+00  -6.2335713e+00   4.9179731e+00   9.5846788e+00   1.2142652e+01   4.7038244e+00  -1.0728657e+00  -1.5680754e+01   2.3843205e+00  -5.4666993e+00   1.5710623e+00   3.9517825e+00  -9.1210118e+00   4.3345513e+00   0.0000000e+00   0.0000000e+00   0.0000000e+00   0.0000000e+00
  -1.5738557e-01   3.3518568e+00   1.7126327e+00   1.7575392e+01   5.7700947e+00   2.3610071e-01   2.1424688e+00  -7.2689861e+00   4.1417145e+00   9.2203878e+00   1.2835799e+01   4.5680631e+00  -2.2518041e+00  -1.7524042e+01   5.2801578e-01  -6.2078480e+00   2.0231109e-01   1.9873864e+00  -1.1926545e+01   4.3445051e+00   0.0000000e+00   0.0000000e+00   0.0000000e+00   0.0000000e+00
  -1.2591022e+00   2.8666792e+00   1.2155842e+00   1.5781676e+01   3.5529646e+00  -1.0048484e+00   2.7633131e-01  -8.1324485e+00   3.2351972e+00   8.6989505e+00   1.3457423e+01   3.8697608e+00  -3.9419205e+00  -1.8683765e+01  -6.5575855e-01  -6.5529670e+00  -1.6327815e+00   8.5312980e-02  -1.3973682e+01   5.5446351e+00   0.0000000e+00   0.0000000e+00   0.0000000e+00   0.0000000e+00
  -2.2141627e+00   1.7133544e+00  -6.0797388e-02   1.4151355e+01   1.4739817e+00  -2.2893415e+00  -8.2306176e-01  -8.4063856e+00   2.8789574e+00   8.4126058e+00   1.4119166e+01   2.8259665e+00  -5.2774033e+00  -1.8513967e+01  -7.6344083e-01  -6.0596759e+00  -3.2401486e+00  -1.3172548e+00  -1.4777615e+01   8.2482476e+00   0.0000000e+00   0.0000000e+00   0.0000000e+00   0.0000000e+00
  -2.9987228e+00   6.2858280e-01  -1.4434482e+00   1.3286116e+01   3.1938458e-01  -3.1177847e+00  -6.9248657e-01  -7.8176808e+00   3.2752981e+00   8.4486562e+00   1.4698398e+01   1.5594729e+00  -5.7831585e+00  -1.7182023e+01   1.0140550e-02  -4.7500296e+00  -4.0762174e+00  -2.3273485e+00  -1.4145938e+01   1.2070363e+01   0.0000000e+00   0.0000000e+00   0.0000000e+00   0.0000000e+00
  -3.8617552e+00   3.1582615e-01  -2.0030422e+00   1.3021153e+01   2.4586972e-02  -3.1056260e+00   6.1396621e-01  -6.5659474e+00   4.2585849e+00   8.9045374e+00   1.4878044e+01   5.1049952e-01  -5.4958033e+00  -1.5397166e+01   1.2044761e+00  -3.0282092e+00  -3.9009795e+00  -2.7525486e+00  -1.2206392e+01   1.5880088e+01   0.0000000e+00   0.0000000e+00   0.0000000e+00   0.0000000e+00
  -4.1452611e+00   7.2615546e-01  -1.4198351e+00   1.2996425e+01   5.6591031e-01  -2.1815834e+00   2.6711440e+00  -5.0712323e+00   5.8315672e+00   9.8555360e+00   1.4582089e+01   3.2473561e-01  -4.5157837e+00  -1.3705862e+01   2.5411196e+00  -1.3360821e+00  -2.7589178e+00  -2.3065398e+00  -9.5280843e+00   1.8863989e+01   0.0000000e+00   0.0000000e+00   0.0000000e+00   0.0000000e+00
  -3.3373347e+00   1.5807183e+00  -2.6871344e-02   1.3190888e+01   1.6834305e+00  -7.1684680e-01   4.9504105e+00  -3.8826423e+00   7.5089763e+00   1.0971198e+01   1.3741781e+01   5.7731560e-01  -2.9015311e+00  -1.2417730e+01   3.7072127e+00  -5.9201957e-01  -1.1265969e+00  -1.5852014e+00  -7.0260710e+00   2.0422087e+01   0.0000000e+00   0.0000000e+00   0.0000000e+00   0.0000000e+00
  -1.7699615e+00   2.8017597e+00   1.6486628e+00   1.3778028e+01   3.4301922e+00   1.3364400e+00   7.1031412e+00  -3.1628708e+00   8.9771390e+00   1.2172335e+01   1.2696210e+01   7.3196562e-01  -4.6922798e-01  -1.1196845e+01   4.7781342e+00  -1.0165572e+00   8.6979565e-01  -1.1022603e+00  -4.8947680e+00   2.0307773e+01   0.0000000e+00   0.0000000e+00   0.0000000e+00   0.0000000e+00
  -5.0100175e-02   4.4140211e+00   3.0770985e+00   1.4729460e+01   6.0246471e+00   4.2206058e+00   8.7270127e+00  -2.9110453e+00   1.0693491e+01   1.3582587e+01   1.1874522e+01   9.8574982e-01   2.6644012e+00  -9.4139073e+00   5.9118553e+00  -1.8544991e+00   3.4637355e+00  -4.9949684e-01  -3.0400807e+00   1.8769927e+01   0.0000000e+00   0.0000000e+00   0.0000000e+00   0.0000000e+00
   1.7500255e+00   6.4379626e+00   4.0116838e+00   1.5965628e+01   9.0426359e+00   7.5835411e+00   9.7196894e+00  -3.1141311e+00   1.2752520e+01   1.5052722e+01   1.1296590e+01   1.7198250e+00   5.9358422e+00  -7.2258271e+00   6.8942462e+00  -2.5654460e+00   6.5024304e+00   5.7548758e-01  -1.6465132e+00   1.6317926e+01   0.0000000e+00   0.0000000e+00   0.0000000e+00   0.0000000e+00
   3.6968059e+00   8.1179955e+00   4.4291511e+00   1.7326182e+01   1.1539271e+01   1.0222606e+01   9.9033416e+00  -3.7525199e+00   1.4564839e+01   1.6033341e+01   1.0595212e+01   2.7431746e+00   8.4074639e+00  -5.7667938e+00   7.1513729e+00  -3.4113881e+00   9.0298792e+00   1.3789211e+00  -1.2082694e+00   1.3302686e+01   0.0000000e+00   0.0000000e+00   0.0000000e+00   0.0000000e+00
   5.0413762e+00   8.6078282e+00   4.4240165e+00   1.8324541e+01   1.2471220e+01   1.0961481e+01   9.0147010e+00  -4.5689039e+00   1.5316869e+01   1.5931621e+01   9.4150452e+00   3.3034502e+00   9.2787774e+00  -5.8991179e+00   6.3098444e+00  -4.4453420e+00   1.0029705e+01   9.9355056e-01  -1.9614376e+00   1.0317685e+01   0.0000000e+00   0.0000000e+00   0.0000000e+00   0.0000000e+00
   5.2011229e+00   8.3478030e+00   4.1742830e+00   1.8845849e+01   1.1701118e+01   1.0104086e+01   7.6985228e+00  -4.9206514e+00   1.4995408e+01   1.4810660e+01   8.0257289e+00   3.1277378e+00   8.6578618e+00  -7.2049546e+00   4.8740297e+00  -4.9179947e+00   9.5406754e+00  -8.0463324e-02  -3.1411024e+00   8.5877212e+00   0.0000000e+00   0.0000000e+00   0.0000000e+00   0.0000000e+00
   4.3988603e+00   8.1357293e+00   3.8213844e+00   1.8979366e+01   1.0288835e+01   8.8682455e+00   6.9107507e+00  -4.2835540e+00   1.4342105e+01   1.3392991e+01   6.8928708e+00   2.3955282e+00   7.4582602e+00  -8.8092629e+00   3.7812563e+00  -4.3474228e+00   8.3821399e+00  -8.5352158e-01  -3.9622925e+00   8.8029024e+00   0.0000000e+00   0.0000000e+00   0.0000000e+00   0.0000000e+00
   3.3939430e+00   8.2238549e+00   3.3234459e+00   1.8889658e+01   8.9641208e+00   7.8936679e+00   6.8267985e+00  -2.5789598e+00   1.3712557e+01   1.2066560e+01   6.0588868e+00   1.5663076e+00   6.3197429e+00  -1.0313848e+01   3.4420129e+00  -2.9517005e+00   7.0570327e+00  -1.3472611e+00  -4.4096128e+00   1.0596246e+01   0.0000000e+00   0.0000000e+00   0.0000000e+00   0.0000000e+00
   2.6821641e+00   8.4762153e+00   2.6226731e+00   1.8974439e+01   7.5919067e+00   7.1654766e+00   7.1215385e+00  -2.1945425e-01   1.2928705e+01   1.0736262e+01   5.3355933e+00   9.9621296e-01   5.3487061e+00  -1.1423064e+01   3.5538676e+00  -1.3474495e+00   5.6270995e+00  -2.0453819e+00  -4.6301618e+00   1.2678315e+01   0.0000000e+00   0.0000000e+00   0.0000000e+00   0.0000000e+00
   2.2542970e+00   8.6848726e+00   1.8005556e+00   1.9058672e+01   6.1074710e+00   6.6444481e+00   7.3152294e+00   1.7572044e+00   1.1832666e+01   9.5588139e+00   4.9057030e+00   5.7253861e-01   4.4877854e+00  -1.1602305e+01   3.7817419e+00  -1.3972823e-01   4.2442211e+00  -2.8277718e+00  -4.6885301e+00   1.3378734e+01   0.0000000e+00   0.0000000e+00   0.0000000e+00   0.0000000e+00
   1.7942666e+00   8.8239875e+00   1.1661569e+00   1.8805267e+01   4.5220245e+00   6.3238175e+00   7.0890196e+00   2.5760343e+00   1.0634060e+01   8.8535022e+00   5.0163467e+00   1.0327314e-01   3.6687560e+00  -1.0733676e+01   4.1318354e+00   3.7696253e-01   2.9953850e+00  -3.2946724e+00  -4.6207950e+00   1.2179280e+01   1.0000000e+03   0.0000000e+00   0.0000000e+00   0.0000000e+00
   1.3760776e+00   8.7180306e+00   1.0866809e+00   1.8403743e+01   3.1379889e+00   6.1802395e+00   6.6323737e+00   2.2393966e+00   9.6258414e+00   8.6819363e+00   5.4289310e+00  -5.1459943e-01   3.1937034e+00  -9.2823767e+00   4.6383249e+00   1.3084339e-01   1.8949524e+00  -3.6176973e+00  -4.4585329e+00   9.7469624e+00   1.0000000e+03   0.0000000e+00   0.0000000e+00   0.0000000e+00
   1.3566706e+00   8.3754218e+00   1.6223510e+00   1.8520816e+01   2.4327862e+00   6.2546120e+00   6.2975756e+00   1.1095985e+00   8.9286199e+00   8.8817552e+00   5.8068521e+00  -1.2606018e+00   3.4037365e+00  -7.6247270e+00   5.2267640e+00  -7.1909089e-01   1.1692246e+00  -4.1147635e+00  -4.0956494e+00   7.0757827e+00   1.0000000e+03   0.0000000e+00   0.0000000e+00   0.0000000e+00
   1.6454184e+00   8.2894738e+00   2.5661514e+00   1.8956412e+01   2.5541693e+00   6.6229941e+00   6.1270364e+00  -2.6316565e-01   8.8017527e+00   9.1979098e+00   6.1823459e+00  -1.9902363e+00   4.2126987e+00  -5.8413477e+00   5.8030607e+00  -1.7869368e+00   1.2100842e+00  -4.4978325e+00  -3.2103782e+00   4.9682816e+00   1.0000000e+03   3.0000000e+01   0.0000000e+00   0.0000000e+00
   2.3756719e+00   8.8396810e+00   3.5891166e+00   1.9414266e+01   3.5992575e+00   7.5150953e+00   6.1129623e+00  -1.2504488e+00   9.7307902e+00   9.6414128e+00   6.7907392e+00  -2.1461003e+00   5.6141520e+00  -3.8567004e+00   6.4378174e+00  -2.5124411e+00   2.3138546e+00  -4.2353028e+00  -1.7349376e+00   3.7922671e+00   1.0000000e+03   3.0000000e+01   0.0000000e+00   0.0000000e+00
   3.6057019e+00   9.4482306e+00   4.5615379e+00   2.0397894e+01   5.1149081e+00   8.5022930e+00   5.9152813e+00  -1.5715034e+00   1.1505792e+01   1.0094817e+01   7.3669859e+00  -1.2401244e+00   7.3558277e+00  -2.0940260e+00   7.0245242e+00  -2.5214208e+00   3.9914856e+00  -3.6188089e+00  -3.0356819e-01   3.6070371e+00   0.0000000e+00   3.0000000e+01   0.0000000e+00   0.0000000e+00
   4.8380862e+00   9.2642129e+00   5.6947437e+00   2.1724957e+01   6.2098899e+00   8.5914951e+00   4.9553529e+00  -1.3951123e+00   1.3206332e+01   1.0135988e+01   7.4327331e+00   5.5208831e-02   8.5702818e+00  -1.4996617e+00   7.1647752e+00  -1.7512052e+00   5.2766037e+00  -3.4390786e+00   3.3038614e-01   4.4679462e+00   0.0000000e+00   3.0000000e+01   0.0000000e+00   0.0000000e+00
   5.1013817e+00   8.5257048e+00   6.9185786e+00   2.2559456e+01   6.2639331e+00   7.5968920e+00   3.3517053e+00  -8.8359624e-01   1.4122994e+01   9.6221939e+00   6.9864389e+00   1.1103770e+00   8.7313317e+00  -2.4578242e+00   6.7573968e+00  -2.3997256e-01   5.7652561e+00  -3.7478619e+00   3.2910697e-02   6.3541422e+00   0.0000000e+00   3.0000000e+01   0.0000000e+00   0.0000000e+00
   4.2521437e+00   7.9292038e+00   7.6377117e+00   2.2562755e+01   5.2641243e+00   6.0271445e+00   1.7352623e+00  -1.0610013e-01   1.3823104e+01   8.7763829e+00   6.2835296e+00   1.9590763e+00   8.2525374e+00  -4.2646720e+00   5.9650261e+00   1.5592340e+00   5.6538541e+00  -4.1165671e+00  -8.4375442e-01   8.7341559e+00   0.0000000e+00   3.0000000e+01   0.0000000e+00   0.0000000e+00
   3.1515654e+00   7.1562971e+00   7.2232935e+00   2.1784216e+01   3.5390861e+00   4.0944250e+00   2.6271619e-01   5.3611282e-01   1.2234451e+01   7.8274129e+00   5.5058926e+00   2.2470194e+00   7.5181619e+00  -6.1384133e+00   4.8394976e+00   2.9440570e+00   4.9799174e+00  -4.7593381e+00  -2.1595120e+00   1.0714709e+01   0.0000000e+00   3.0000000e+01   0.0000000e+00   0.0000000e+00
   2.0058195e+00   5.5440266e+00   5.6121497e+00   2.0176543e+01   1.4332855e+00   1.8776430e+00  -1.3191726e+00   4.8735819e-01   9.9422043e+00   6.7689075e+00   4.7311343e+00   1.4613555e+00   6.3300706e+00  -7.8811917e+00   3.4577429e+00   3.5553821e+00   3.6197735e+00  -6.1694570e+00  -3.9027773e+00   1.1863723e+01   0.0000000e+00   3.0000000e+01   0.0000000e+00   0.0000000e+00
   4.8570642e-01   3.4437998e+00   3.5877905e+00   1.7953295e+01  -3.6832916e-01  -4.9173958e-02  -2.7623272e+00  -1.3532912e-01   7.8595923e+00   5.5560130e+00   4.0564263e+00  -4.5672608e-01   4.7139686e+00  -9.1695995e+00   2.2260099e+00   3.5365808e+00   1.9420640e+00  -7.8973779e+00  -5.5922289e+00   1.2378718e+01   0.0000000e+00   3.0000000e+01   0.0000000e+00   0.0000000e+00
  -1.0844222e+00   1.6847975e+00   2.1281454e+00   1.5859784e+01  -1.3026368e+00  -1.0994228e+00  -3.4402266e+00  -7.6919538e-01   6.5802644e+00   4.5546051e+00   3.7086983e+00  -2.7914524e+00   3.2132297e+00  -9.4300352e+00   1.4941612e+00   3.2795217e+00   6.3776293e-01  -9.0072913e+00  -6.6099443e+00   1.2866811e+01   0.0000000e+00   3.0000000e+01   0.0000000e+00   0.0000000e+00
  -1.9479777e+00   6.0698807e-01   1.6543389e+00   1.4501781e+01  -1.3887465e+00  -1.3373930e+00  -3.2528924e+00  -1.0330733e+00   6.0909865e+00   4.1543140e+00   3.6222673e+00  -4.5765753e+00   2.3619749e+00  -8.6489039e+00   1.1726705e+00   2.8957809e+00  -5.5484207e-02  -9.4059513e+00  -7.1086828e+00   1.3680807e+01   0.0000000e+00   3.0000000e+01   0.0000000e+00   0.0000000e+00
  -2.0376337e+00  -1.2152925e-01   1.9621012e+00   1.3953251e+01  -1.0708742e+00  -1.1671313e+00  -2.6977500e+00  -9.5552125e-01   6.0636090e+00   4.1076367e+00   3.3944561e+00  -5.4258609e+00   1.9901008e+00  -7.4660179e+00   9.1394128e-01   2.3743324e+00  -4.0205538e-01  -9.6645096e+00  -7.5796723e+00   1.4654141e+01   0.0000000e+00   3.0000000e+01   0.0000000e+00   0.0000000e+00
  -1.5771989e+00  -3.1218348e-01   2.4086184e+00   1.4099763e+01  -5.6375549e-01  -6.3460124e-01  -2.2366145e+00  -1.0372427e+00   6.3413285e+00   4.1613881e+00   3.0262281e+00  -5.7018517e+00   1.7719514e+00  -6.2125595e+00   4.7186034e-01   1.8025572e+00  -4.8707721e-01  -9.7951980e+00  -8.0820129e+00   1.5703962e+01   0.0000000e+00   3.0000000e+01   0.0000000e+00   0.0000000e+00
  -6.5630171e-01   2.7368752e-01   2.4566462e+00   1.4650776e+01   2.5266082e-01   2.3868733e-01  -2.3469323e+00  -1.7367923e+00   6.7886510e+00   4.2218415e+00   2.6698261e+00  -5.5838339e+00   1.5742156e+00  -4.9272938e+00  -2.9301959e-01   1.1557651e+00  -3.2751407e-01  -9.6155396e+00  -8.7507066e+00   1.6359710e+01   0.0000000e+00   3.0000000e+01   0.0000000e+00   0.0000000e+00
   2.8180859e-01   1.1705644e+00   1.8208189e+00   1.5512514e+01   8.5008081e-01   6.6020140e-01  -3.4263053e+00  -3.2229198e+00   7.0040013e+00   3.9584252e+00   2.1608228e+00  -4.9332489e+00   1.3389517e+00  -4.1937803e+00  -1.5899508e+00   2.5314130e-01  -2.9962973e-01  -9.7271422e+00  -1.0113713e+01   1.5605881e+01   0.0000000e+00   3.0000000e+01   0.0000000e+00   0.0000000e+00
   6.5275318e-01   1.6539414e+00   5.8542707e-01   1.6647875e+01   6.2222120e-01  -1.6153910e-01  -5.5075359e+00  -5.3688996e+00   6.6599249e+00   3.2015137e+00   1.4380953e+00  -3.9572836e+00   1.0822819e+00  -4.3313300e+00  -3.3691466e+00  -8.1241928e-01  -6.6259515e-01  -1.0658680e+01  -1.2244409e+01   1.3216665e+01   0.0000000e+00   3.0000000e+01   0.0000000e+00   0.0000000e+00
   4.8141577e-01   1.4434333e+00  -7.6034256e-01   1.7708753e+01  -1.0203218e-01  -1.7904697e+00  -8.1752782e+00  -7.5998504e+00   5.9080137e+00   2.3712901e+00   7.7005006e-01  -3.0898436e+00   6.9072632e-01  -4.8356407e+00  -5.1469180e+00  -1.7663197e+00  -1.1193430e+00  -1.1792376e+01  -1.4485011e+01   1.0370766e+01   0.0000000e+00   3.0000000e+01   0.0000000e+00   0.0000000e+00
   6.4347155e-01   1.2053690e+00  -1.7804953e+00   1.8242736e+01  -6.2956302e-01  -2.9361780e+00  -1.0343569e+01  -8.9844397e+00   5.1925583e+00   1.9055003e+00   4.3332375e-01  -2.4793206e+00   3.2803822e-01  -5.1858434e+00  -6.3071347e+00  -2.2791147e+00  -1.2246083e+00  -1.2173228e+01  -1.6014401e+01   8.7679097e+00   0.0000000e+00   3.0000000e+01   0.0000000e+00   0.0000000e+00
   1.4182869e+00   1.3771815e+00  -2.1902206e+00   1.8374885e+01  -7.3011616e-01  -2.9138095e+00  -1.1158923e+01  -9.0127953e+00   4.5092701e+00   1.6291207e+00   1.5057682e-01  -1.7701257e+00   3.2981884e-01  -5.1564007e+00  -6.5486798e+00  -2.2868550e+00  -8.7725363e-01  -1.1826581e+01  -1.6501054e+01   8.9631588e+00   0.0000000e+00   3.0000000e+01   0.0000000e+00   0.0000000e+00
   2.0298149e+00   1.5579758e+00  -1.9792577e+00   1.8149838e+01  -8.4092826e-01  -2.1779169e+00  -1.0968178e+01  -8.1817281e+00   3.6800231e+00   1.1160913e+00  -6.3487658e-01  -1.1021672e+00   4.5452862e-01  -4.6983437e+00  -6.1197155e+00  -2.1360713e+00  -4.7371681e-01  -1.1426129e+01  -1.6145000e+01   1.0342975e+01   0.0000000e+00   3.0000000e+01   0.0000000e+00   0.0000000e+00
   1.9414590e+00   1.4825462e+00  -1.2940268e+00   1.7150720e+01  -1.2297579e+00  -1.2631816e+00  -1.0338796e+01  -7.0529647e+00   2.7701218e+00   3.5002192e-01  -1.6373312e+00  -1.0527644e+00   1.5496330e-01  -3.7375837e+00  -5.1545345e+00  -1.9001835e+00  -4.0653754e-01  -1.1041548e+01  -1.5052808e+01   1.2350904e+01   0.0000000e+00   3.0000000e+01   0.0000000e+00   0.0000000e+00
   1.3157683e+00   1.3675584e+00  -3.6392773e-01   1.5764692e+01  -1.7308867e+00  -4.9295013e-01  -9.2357781e+00  -5.8112331e+00   1.8780245e+00  -3.2358828e-01  -2.0764657e+00  -2.0092003e+00  -7.1680254e-01  -2.6949994e+00  -3.6525018e+00  -1.2341274e+00  -8.1234151e-01  -1.0398199e+01  -1.3291935e+01   1.4728679e+01   0.0000000e+00   3.0000000e+01   0.0000000e+00   0.0000000e+00
   2.5858535e-01   1.1307881e+00   5.7774945e-01   1.4587691e+01  -2.3852224e+00  -3.3347537e-01  -8.0020906e+00  -4.8751110e+00   8.6618708e-01  -8.9852960e-01  -1.8670557e+00  -3.5993312e+00  -1.7232173e+00  -2.5060918e+00  -2.2058992e+00  -4.6261290e-01  -1.7953614e+00  -1.0028411e+01  -1.1587886e+01   1.6804942e+01   0.0000000e+00   3.0000000e+01   0.0000000e+00   0.0000000e+00
  -1.1232930e+00   6.1093601e-01   1.3301410e+00   1.3853774e+01  -3.3413169e+00  -7.3852809e-01  -7.4278225e+00  -4.5266781e+00  -2.2561039e-01  -1.5463668e+00  -1.2770922e+00  -5.0698288e+00  -2.6083986e+00  -3.3151840e+00  -1.5859556e+00  -1.0962051e-01  -3.2138135e+00  -1.0503916e+01  -1.0558311e+01   1.7815527e+01   0.0000000e+00   3.0000000e+01   0.0000000e+00   0.0000000e+00
  -2.3112872e+00   1.3397202e-01   2.0244497e+00   1.3732080e+01  -4.3815246e+00  -1.1179414e+00  -7.7754537e+00  -4.4557173e+00  -1.0196379e+00  -2.1213152e+00  -2.9455221e-01  -6.2801970e+00  -3.4358978e+00  -4.2770575e+00  -1.8465779e+00   1.2104364e-01  -4.6779109e+00  -1.1209912e+01  -9.9864199e+00   1.7787783e+01   0.0000000e+00   3.0000000e+01   0.0000000e+00   0.0000000e+00
  -3.2463030e+00  -3.5292334e-01   2.9969794e+00   1.3797188e+01  -5.3946085e+00  -1.3880440e+00  -8.9659972e+00  -4.0753173e+00  -1.3809248e+00  -2.3133291e+00   1.0458748e+00  -7.4162520e+00  -4.1606372e+00  -4.7782839e+00  -2.5922319e+00   4.4589463e-01  -6.0069196e+00  -1.1441990e+01  -9.6784733e+00   1.7022885e+01   0.0000000e+00   3.0000000e+01   0.0000000e+00   0.0000000e+00
  -4.4570549e+00  -1.5733272e+00   3.9574246e+00   1.3142220e+01  -6.8465669e+00  -2.3636974e+00  -1.1092456e+01  -3.3188473e+00  -1.9562798e+00  -2.4505677e+00   2.2384175e+00  -8.8966923e+00  -5.0360466e+00  -5.2813706e+00  -3.8019615e+00   4.7904473e-01  -7.6563612e+00  -1.1763565e+01  -1.0164138e+01   1.5583842e+01   0.0000000e+00   3.0000000e+01   0.0000000e+00   0.0000000e+00
  -6.2415560e+00  -3.3676945e+00   4.2420834e+00   1.1668020e+01  -8.8908200e+00  -4.4556560e+00  -1.4041779e+01  -2.7784120e+00  -3.2979762e+00  -2.9782829e+00   2.8556332e+00  -1.0601850e+01  -6.3273206e+00  -6.3956829e+00  -5.4961182e+00  -5.6354977e-02  -9.9336675e+00  -1.2765248e+01  -1.1657051e+01   1.3912052e+01   0.0000000e+00   3.0000000e+01   0.0000000e+00   0.0000000e+00
  -8.1289187e+00  -4.8030196e+00   3.7142614e+00   1.0002947e+01  -1.1094008e+01  -6.8237885e+00  -1.7116266e+01  -2.7120334e+00  -4.8307919e+00  -3.4935594e+00   3.0184440e+00  -1.1986240e+01  -7.7863133e+00  -7.7386604e+00  -7.2061687e+00  -8.7252543e-01  -1.2165648e+01  -1.3797227e+01  -1.3391509e+01   1.2627454e+01   0.0000000e+00   3.0000000e+01   0.0000000e+00   0.0000000e+00
  -9.7814631e+00  -5.8718697e+00   2.7092006e+00   8.2886654e+00  -1.3373751e+01  -8.8202310e+00  -1.9839644e+01  -3.0347531e+00  -5.9703192e+00  -3.6522004e+00   2.8915370e+00  -1.3324381e+01  -9.1802594e+00  -8.7486236e+00  -8.5736965e+00  -1.7940000e+00  -1.3924119e+01  -1.4328787e+01  -1.4763297e+01   1.1461786e+01   0.0000000e+00   3.0000000e+01   0.0000000e+00   0.0000000e+00
  -1.1213388e+01  -7.1657576e+00   1.4988160e+00   6.5584218e+00  -1.5683673e+01  -1.0516221e+01  -2.2005545e+01  -3.6688202e+00  -6.7502918e+00  -3.7829847e+00   2.4737364e+00  -1.4960174e+01  -1.0350003e+01  -9.5505630e+00  -9.5715548e+00  -2.8935346e+00  -1.5443931e+01  -1.4881157e+01  -1.5878054e+01   9.9035807e+00   0.0000000e+00   3.0000000e+01   0.0000000e+00   0.0000000e+00
  -1.2284485e+01  -8.7863895e+00   1.3497130e-01   5.1666172e+00  -1.7685046e+01  -1.2082372e+01  -2.3558239e+01  -4.4512321e+00  -7.2807176e+00  -4.1305045e+00   1.8493893e+00  -1.6574365e+01  -1.1089958e+01  -1.0592155e+01  -1.0356047e+01  -4.0363589e+00  -1.6809791e+01  -1.6051383e+01  -1.6889038e+01   7.9937591e+00   0.0000000e+00   3.0000000e+01   0.0000000e+00   0.0000000e+00
  -1.3542189e+01  -1.0431864e+01  -1.4235448e+00   3.9783244e+00  -1.9269002e+01  -1.3581420e+01  -2.5002751e+01  -5.3669801e+00  -7.4930148e+00  -4.3513781e+00   1.2965518e+00  -1.7720681e+01  -1.1428827e+01  -1.2006460e+01  -1.1216816e+01  -5.0572109e+00  -1.7926628e+01  -1.7645917e+01  -1.7849337e+01   5.8460518e+00   0.0000000e+00   3.0000000e+01   0.0000000e+00   0.0000000e+00
  -1.5054456e+01  -1.1724193e+01  -3.0228041e+00   3.0113338e+00  -2.0393774e+01  -1.4842977e+01  -2.6759108e+01  -6.3321241e+00  -7.1789695e+00  -4.1431136e+00   1.0193799e+00  -1.8173614e+01  -1.1453695e+01  -1.3374111e+01  -1.2106448e+01  -5.7839341e+00  -1.8534902e+01  -1.8961728e+01  -1.8538585e+01   3.6571208e+00   0.0000000e+00   3.0000000e+01   0.0000000e+00   0.0000000e+00
  -1.6034182e+01  -1.2400537e+01  -4.3430394e+00   2.7022776e+00  -2.0929251e+01  -1.5826857e+01  -2.8690196e+01  -7.2863400e+00  -6.3064765e+00  -3.4955713e+00   9.1813710e-01  -1.7693223e+01  -1.0863975e+01  -1.4246466e+01  -1.2691265e+01  -6.3518184e+00  -1.8434518e+01  -1.9863525e+01  -1.8803846e+01   1.5663213e+00   0.0000000e+00   3.0000000e+01   0.0000000e+00   0.0000000e+00
  -1.6371694e+01  -1.2642117e+01  -5.1879410e+00   3.2610225e+00  -2.0840628e+01  -1.6551662e+01  -3.0585858e+01  -8.2007213e+00  -4.9733401e+00  -2.4159983e+00   8.1706716e-01  -1.6282950e+01  -9.4210905e+00  -1.4430026e+01  -1.2882207e+01  -7.0419273e+00  -1.7606493e+01  -2.0682854e+01  -1.8817045e+01  -5.0773733e-01   0.0000000e+00   3.0000000e+01   0.0000000e+00   0.0000000e+00
  -1.6270908e+01  -1.2711834e+01  -5.6502948e+00   4.6063532e+00  -2.0281742e+01  -1.6843497e+01  -3.2231525e+01  -8.8679232e+00  -3.2702571e+00  -9.6062937e-01   8.9216182e-01  -1.4407920e+01  -7.3403738e+00  -1.3774052e+01  -1.2806954e+01  -7.6749917e+00  -1.6098305e+01  -2.1178233e+01  -1.8704968e+01  -2.4149852e+00   0.0000000e+00   3.0000000e+01   0.0000000e+00   0.0000000e+00
  -1.5716847e+01  -1.2799684e+01  -6.0521875e+00   6.0340172e+00  -1.9483311e+01  -1.6855496e+01  -3.3360219e+01  -9.2086910e+00  -1.6640267e+00   4.5329141e-01   1.3505215e+00  -1.2548181e+01  -5.2110837e+00  -1.2556108e+01  -1.2675735e+01  -7.8321708e+00  -1.4336629e+01  -2.0968077e+01  -1.8587075e+01  -3.8469769e+00   0.0000000e+00   3.0000000e+01   0.0000000e+00   0.0000000e+00
  -1.4930932e+01  -1.3381892e+01  -6.6567253e+00   6.9246410e+00  -1.8412638e+01  -1.7006964e+01  -3.4006325e+01  -9.6058459e+00  -7.7553369e-01   1.1998993e+00   1.9564620e+00  -1.0841991e+01  -3.6181264e+00  -1.1518444e+01  -1.2784383e+01  -7.4030606e+00  -1.2963624e+01  -2.0453877e+01  -1.8798143e+01  -4.9424830e+00   0.0000000e+00   3.0000000e+01   0.0000000e+00   0.0000000e+00
  -1.4165835e+01  -1.4506716e+01  -7.3856931e+00   7.5734186e+00  -1.7036255e+01  -1.7268187e+01  -3.4287469e+01  -1.0095046e+01  -6.3865130e-01   1.1347991e+00   2.3736850e+00  -9.3674755e+00  -2.6908145e+00  -1.1104880e+01  -1.3266712e+01  -6.5790123e+00  -1.2141905e+01  -2.0140693e+01  -1.9344939e+01  -5.7253895e+00   0.0000000e+00   3.0000000e+01   0.0000000e+00   0.0000000e+00
  -1.3204221e+01  -1.5422804e+01  -7.6431977e+00   8.4116866e+00  -1.5402228e+01  -1.7030751e+01  -3.3794885e+01  -9.9312077e+00  -8.8219658e-01   7.3780669e-01   2.4889413e+00  -8.3070283e+00  -2.4654915e+00  -1.1155798e+01  -1.3795944e+01  -5.2903666e+00  -1.1498045e+01  -1.9651591e+01  -1.9474912e+01  -5.5170588e+00   0.0000000e+00   3.0000000e+01   0.0000000e+00   0.0000000e+00
  -1.1991428e+01  -1.5604900e+01  -7.0355292e+00   9.0511580e+00  -1.3747455e+01  -1.6104401e+01  -3.2192476e+01  -8.6943072e+00  -1.3641977e+00   2.7036301e-01   2.1662172e+00  -7.6897550e+00  -2.8465120e+00  -1.1524084e+01  -1.4065496e+01  -3.6596771e+00  -1.0860286e+01  -1.8638836e+01  -1.8880220e+01  -4.1975611e+00   0.0000000e+00   3.0000000e+01   0.0000000e+00   0.0000000e+00
  -1.0667802e+01  -1.5118446e+01  -5.6252345e+00   9.3234033e+00  -1.2373847e+01  -1.4794731e+01  -2.9629954e+01  -6.8196011e+00  -1.8234494e+00  -2.2716759e-01   1.5174438e+00  -7.4903248e+00  -3.1994282e+00  -1.2197945e+01  -1.3918216e+01  -2.0911758e+00  -1.0262338e+01  -1.7620037e+01  -1.8028548e+01  -2.5890780e+00   0.0000000e+00   3.0000000e+01   0.0000000e+00   0.0000000e+00
  -9.2967384e+00  -1.4303983e+01  -3.8333793e+00   9.4480795e+00  -1.1605567e+01  -1.3450372e+01  -2.6605827e+01  -5.1013079e+00  -2.0672184e+00  -7.1264154e-01   8.1771182e-01  -8.0485815e+00  -3.2220074e+00  -1.3015723e+01  -1.3373866e+01  -7.5301631e-01  -9.8692045e+00  -1.7329537e+01  -1.7251228e+01  -1.4776771e+00   0.0000000e+00   3.0000000e+01   0.0000000e+00   0.0000000e+00
  -8.3314193e+00  -1.3504977e+01  -2.0831627e+00   9.1186770e+00  -1.1526319e+01  -1.2407112e+01  -2.3785104e+01  -3.9533223e+00  -2.4277920e+00  -1.4270823e+00   6.8933350e-02  -9.8627215e+00  -3.3928701e+00  -1.3704658e+01  -1.2797750e+01   3.2237175e-01  -1.0017709e+01  -1.7793352e+01  -1.6625015e+01  -9.2167722e-01   0.0000000e+00   3.0000000e+01   0.0000000e+00   0.0000000e+00
  -8.1167408e+00  -1.3070744e+01  -7.3496370e-01   8.1501831e+00  -1.1744846e+01  -1.1873114e+01  -2.1574167e+01  -3.5115051e+00  -3.1604939e+00  -2.7475852e+00  -9.7335433e-01  -1.2489061e+01  -4.1626885e+00  -1.4178114e+01  -1.2576920e+01   9.3258861e-01  -1.0836685e+01  -1.8627581e+01  -1.6131652e+01  -5.4440481e-01   0.0000000e+00   3.0000000e+01   0.0000000e+00   0.0000000e+00
  -8.0680326e+00  -1.3059170e+01  -3.2330843e-02   7.1993953e+00  -1.2101632e+01  -1.1834113e+01  -1.9910513e+01  -3.5935289e+00  -4.0578616e+00  -4.4766789e+00  -2.4099187e+00  -1.4783302e+01  -5.2728556e+00  -1.4607625e+01  -1.2696656e+01   9.8224869e-01  -1.2086230e+01  -1.9716318e+01  -1.5772700e+01  -9.3539114e-03   0.0000000e+00   3.0000000e+01   0.0000000e+00   0.0000000e+00
  -7.7548189e+00  -1.2944663e+01   2.5420456e-01   6.7653717e+00  -1.2525986e+01  -1.1835786e+01  -1.8379548e+01  -3.7993892e+00  -4.6795793e+00  -5.8361444e+00  -3.9206983e+00  -1.5912182e+01  -5.9767543e+00  -1.4889084e+01  -1.2846733e+01   7.0564459e-01  -1.3196147e+01  -2.0873324e+01  -1.5418743e+01   7.4824960e-01   0.0000000e+00   3.0000000e+01   0.0000000e+00   0.0000000e+00
  -7.3587654e+00  -1.2404741e+01   4.0822523e-01   6.6343172e+00  -1.2746983e+01  -1.1428247e+01  -1.6793853e+01  -3.9682622e+00  -4.8523194e+00  -6.5796259e+00  -5.0807557e+00  -1.5943096e+01  -6.0553959e+00  -1.4516936e+01  -1.2941114e+01   3.5502704e-01  -1.3673830e+01  -2.1568881e+01  -1.4897274e+01   1.2739160e+00   0.0000000e+00   3.0000000e+01   0.0000000e+00   0.0000000e+00
  -6.9740844e+00  -1.1579511e+01   3.9657782e-01   6.7493107e+00  -1.2493638e+01  -1.0544745e+01  -1.5036192e+01  -4.0469193e+00  -4.5577896e+00  -6.7137205e+00  -5.4725251e+00  -1.5416795e+01  -5.6842326e+00  -1.3154677e+01  -1.2877077e+01   1.7343347e-01  -1.3371455e+01  -2.1342843e+01  -1.4084637e+01   1.4150287e+00   0.0000000e+00   3.0000000e+01   0.0000000e+00   0.0000000e+00
  -6.3276370e+00  -1.0505922e+01   4.3941034e-01   7.4853109e+00  -1.1637463e+01  -9.5344054e+00  -1.2990143e+01  -3.9424989e+00  -3.9051693e+00  -6.2293850e+00  -5.0467087e+00  -1.4325602e+01  -4.9035892e+00  -1.1125948e+01  -1.2458741e+01   1.9456241e-01  -1.2542447e+01  -2.0458142e+01  -1.3226624e+01   1.6303834e+00   0.0000000e+00   3.0000000e+01   0.0000000e+00   0.0000000e+00
  -5.1902715e+00  -9.3427187e+00   9.3142001e-01   9.0974051e+00  -1.0359676e+01  -8.7484559e+00  -1.1008629e+01  -3.7142878e+00  -3.3298554e+00  -5.3168416e+00  -4.1104600e+00  -1.2631570e+01  -4.0512200e+00  -8.8041929e+00  -1.1744133e+01   3.8452950e-01  -1.1563657e+01  -1.9527348e+01  -1.2752292e+01   2.0079628e+00   0.0000000e+00   3.0000000e+01   0.0000000e+00   0.0000000e+00
  -4.0269807e+00  -8.3386050e+00   1.7649585e+00   1.0799443e+01  -9.0815126e+00  -8.0235101e+00  -9.4487827e+00  -3.4674246e+00  -3.1100340e+00  -4.4180514e+00  -3.0189074e+00  -1.1084849e+01  -3.5795059e+00  -6.2995198e+00  -1.1098755e+01   7.4211818e-01  -1.0682332e+01  -1.8720710e+01  -1.2688241e+01   2.2519211e+00   0.0000000e+00   3.0000000e+01   0.0000000e+00   0.0000000e+00
  -3.3312891e+00  -7.6433991e+00   2.4590929e+00   1.1600150e+01  -8.4440397e+00  -7.2896832e+00  -8.3786933e+00  -3.2700253e+00  -3.3568486e+00  -3.7791807e+00  -2.1121738e+00  -1.0572713e+01  -3.5384545e+00  -4.0171227e+00  -1.0797631e+01   1.1493175e+00  -1.0175444e+01  -1.8061724e+01  -1.2857946e+01   2.4041144e+00   0.0000000e+00   3.0000000e+01   0.0000000e+00   0.0000000e+00
  -3.0765367e+00  -7.4007477e+00   2.6212027e+00   1.1872695e+01  -8.6094750e+00  -6.7778782e+00  -7.7641620e+00  -3.4253360e+00  -3.8996592e+00  -3.2777415e+00  -1.5240479e+00  -1.0973401e+01  -3.6837841e+00  -2.4173527e+00  -1.0778741e+01   1.2370200e+00  -1.0136602e+01  -1.7899664e+01  -1.3142574e+01   2.5624476e+00   0.0000000e+00   3.0000000e+01   0.0000000e+00   0.0000000e+00
  -2.8668697e+00  -7.4549606e+00   2.2428800e+00   1.2374196e+01  -8.7062085e+00  -6.2040689e+00  -7.1797812e+00  -3.9459853e+00  -3.9875919e+00  -2.4742360e+00  -9.0482428e-01  -1.1240869e+01  -3.5023918e+00  -1.0900047e+00  -1.0516436e+01   1.0532147e+00  -9.9693134e+00  -1.8175685e+01  -1.3095049e+01   2.8756512e+00   0.0000000e+00   3.0000000e+01   0.0000000e+00   0.0000000e+00
  -2.2237783e+00  -7.5797327e+00   1.4897057e+00   1.3106695e+01  -8.1197119e+00  -5.1103793e+00  -6.2730510e+00  -4.4903411e+00  -3.1441486e+00  -9.3901201e-01   4.0516658e-02  -1.0840916e+01  -2.7140968e+00   8.3891014e-01  -9.5688280e+00   1.0883087e+00  -8.9423094e+00  -1.8153816e+01  -1.2344559e+01   3.5749344e+00   0.0000000e+00   3.0000000e+01   0.0000000e+00   0.0000000e+00
  -1.3545976e+00  -7.9031489e+00   5.7325923e-01   1.3806997e+01  -7.2415205e+00  -3.7243592e+00  -5.2714796e+00  -4.5602878e+00  -1.6902064e+00   9.1672444e-01   8.3926160e-01  -1.0264657e+01  -1.7347052e+00   3.1922574e+00  -8.2599281e+00   1.5869044e+00  -7.3212047e+00  -1.7483307e+01  -1.1325682e+01   5.0064492e+00   0.0000000e+00   3.0000000e+01   0.0000000e+00   0.0000000e+00
  -1.0216883e+00  -8.3592170e+00  -1.3955082e-01   1.4365259e+01  -6.8919526e+00  -2.7031926e+00  -4.4230728e+00  -4.0207295e+00  -4.2284626e-01   2.0409748e+00   7.8419858e-01  -1.0231308e+01  -1.2599442e+00   4.7444285e+00  -7.3618585e+00   2.1772016e+00  -6.1663432e+00  -1.6726941e+01  -1.0836512e+01   7.2721871e+00   0.0000000e+00   3.0000000e+01   0.0000000e+00   0.0000000e+00
  -1.3004582e+00  -8.7737247e+00  -3.4595361e-01   1.4637385e+01  -7.3775955e+00  -2.3701931e+00  -3.8931191e+00  -3.3059312e+00  -2.4021945e-01   1.6811189e+00  -3.4011970e-01  -1.0880283e+01  -1.7982240e+00   4.6865784e+00  -7.4712286e+00   2.4040984e+00  -6.0188060e+00  -1.6507316e+01  -1.1052272e+01   9.8119029e+00   0.0000000e+00   3.0000000e+01   0.0000000e+00   0.0000000e+00
  -1.0410233e+00  -8.8241048e+00  -4.5264552e-02   1.5007629e+01  -7.7940424e+00  -1.9689983e+00  -3.3451818e+00  -2.4153728e+00  -8.7769598e-01   5.5134570e-01  -1.8489285e+00  -1.1423076e+01  -2.8886087e+00   3.7098079e+00  -8.1790258e+00   2.6971210e+00  -6.0877072e+00  -1.6203667e+01  -1.1232670e+01   1.2375510e+01   0.0000000e+00   3.0000000e+01   0.0000000e+00   0.0000000e+00
   1.7320210e-01  -8.2184357e+00   2.6740291e-01   1.5861839e+01  -7.4424823e+00  -7.5706729e-01  -2.4020849e+00  -1.2679776e+00  -1.3004051e+00  -2.5217419e-01  -2.9334704e+00  -1.1205809e+01  -3.7719940e+00   2.8507324e+00  -8.6878564e+00   3.3971032e+00  -5.6276771e+00  -1.5051728e+01  -1.0833173e+01   1.4755912e+01   0.0000000e+00   3.0000000e+01   0.0000000e+00   0.0000000e+00
   1.4863827e+00  -7.5681116e+00   3.8198764e-01   1.6890337e+01  -6.7691351e+00   7.1995403e-01  -1.4177047e+00  -3.7240502e-01  -1.3085022e+00  -6.4059440e-01  -3.5442455e+00  -1.0560222e+01  -4.3640233e+00   2.1059378e+00  -8.9480394e+00   3.8212009e+00  -5.0229402e+00  -1.3677351e+01  -1.0334177e+01   1.5947265e+01   0.0000000e+00   3.0000000e+01   0.0000000e+00   0.0000000e+00
   2.3352033e+00  -7.3275075e+00   6.4025894e-01   1.7655759e+01  -6.4221982e+00   1.6848590e+00  -7.0799969e-01   9.5653800e-02  -1.1109966e+00  -8.5116276e-01  -3.7412140e+00  -1.0044091e+01  -4.7802800e+00   1.2940758e+00  -9.1597942e+00   3.7106603e+00  -4.8070827e+00  -1.2946770e+01  -1.0167456e+01   1.5583870e+01   0.0000000e+00   3.0000000e+01   0.0000000e+00   0.0000000e+00
   2.8302586e+00  -7.1271206e+00   1.1559335e+00   1.7951696e+01  -6.3246918e+00   2.1123484e+00  -1.0429950e-01   5.0688303e-01  -9.6386310e-01  -1.0188999e+00  -3.5175635e+00  -9.6753275e+00  -5.2763404e+00   4.7669051e-01  -9.3023305e+00   3.5350967e+00  -4.9160023e+00  -1.2713264e+01  -1.0155731e+01   1.4471343e+01   0.0000000e+00   3.0000000e+01   0.0000000e+00   0.0000000e+00
   3.3377703e+00  -6.7290065e+00   1.8904686e+00   1.7676002e+01  -6.1488969e+00   2.3589401e+00   7.0611338e-01   1.1586039e+00  -1.1407527e+00  -1.2942831e+00  -3.2135037e+00  -9.4318756e+00  -6.1218298e+00  -5.0578497e-01  -9.4135554e+00   3.6825586e+00  -5.0524020e+00  -1.2468118e+01  -1.0073751e+01   1.3363346e+01   0.0000000e+00   3.0000000e+01   0.0000000e+00   0.0000000e+00
   3.6206958e+00  -6.4894836e+00   2.8331995e+00   1.7218930e+01  -5.9816018e+00   2.4395667e+00   1.7102723e+00   1.8931016e+00  -1.5336598e+00  -1.9246235e+00  -3.3189262e+00  -9.7367180e+00  -7.1642486e+00  -2.0246796e+00  -9.7440929e+00   4.0654592e+00  -5.2509065e+00  -1.2486656e+01  -1.0132211e+01   1.2127121e+01   0.0000000e+00   3.0000000e+01   0.0000000e+00   0.0000000e+00
   3.3493781e+00  -6.5816010e+00   3.8439774e+00   1.6971535e+01  -5.9380251e+00   2.4002401e+00   2.6421174e+00   2.5216643e+00  -2.0827040e+00  -2.7050350e+00  -3.7392597e+00  -1.0752793e+01  -8.0796344e+00  -3.9919240e+00  -1.0225314e+01   4.4091960e+00  -5.5644485e+00  -1.3174255e+01  -1.0408800e+01   1.0605594e+01   0.0000000e+00   3.0000000e+01   0.0000000e+00   0.0000000e+00
   2.8560738e+00  -6.6709506e+00   4.7925316e+00   1.6716644e+01  -5.8885805e+00   2.5419994e+00   3.3470647e+00   3.1920679e+00  -2.7410627e+00  -3.2603646e+00  -3.9464041e+00  -1.1900047e+01  -8.7369542e+00  -5.7219699e+00  -1.0442631e+01   4.8406213e+00  -5.7428721e+00  -1.4009423e+01  -1.0429072e+01   9.3750402e+00   0.0000000e+00   3.0000000e+01   0.0000000e+00   0.0000000e+00
   2.6427595e+00  -6.7882388e+00   5.4892761e+00   1.6503283e+01  -5.7451672e+00   2.6768920e+00   3.8897440e+00   3.8863625e+00  -3.2722050e+00  -3.7771027e+00  -3.9655863e+00  -1.2727084e+01  -9.4274189e+00  -6.8905159e+00  -1.0354917e+01   5.3586790e+00  -5.6650654e+00  -1.4406393e+01  -9.9673445e+00   8.6247709e+00   0.0000000e+00   3.0000000e+01   0.0000000e+00   0.0000000e+00
   2.8977418e+00  -6.9503879e+00   5.7564343e+00   1.6776856e+01  -5.3987100e+00   2.6670477e+00   4.5260171e+00   4.4893577e+00  -3.8103250e+00  -4.5146240e+00  -4.0984744e+00  -1.3329630e+01  -1.0123807e+01  -7.5018172e+00  -1.0081839e+01   5.8115556e+00  -5.2708271e+00  -1.4482744e+01  -9.0955261e+00   8.1866699e+00   0.0000000e+00   3.0000000e+01   0.0000000e+00   0.0000000e+00
   3.4324280e+00  -6.9288471e+00   5.6430771e+00   1.7645262e+01  -4.6319518e+00   2.9045348e+00   5.1519976e+00   5.0381177e+00  -4.4853170e+00  -5.3837670e+00  -4.2754298e+00  -1.4141649e+01  -1.0431970e+01  -7.3115329e+00  -9.6108967e+00   6.1591621e+00  -4.5002206e+00  -1.4481093e+01  -7.8778440e+00   8.1878911e+00   0.0000000e+00   3.0000000e+01   0.0000000e+00   0.0000000e+00
   3.7315012e+00  -6.8157864e+00   5.1643575e+00   1.8855026e+01  -3.5031110e+00   3.8687156e+00   5.3911043e+00   5.7243782e+00  -4.8685371e+00  -5.9644436e+00  -4.1037207e+00  -1.5090825e+01  -1.0063976e+01  -5.9781242e+00  -8.8080416e+00   6.5000646e+00  -3.1796325e+00  -1.4069379e+01  -6.2734111e+00   8.8493288e+00   0.0000000e+00   3.0000000e+01   0.0000000e+00   0.0000000e+00
   3.6836033e+00  -6.7426747e+00   4.3598571e+00   2.0103407e+01  -2.2751025e+00   5.5186631e+00   5.1367059e+00   6.4783237e+00  -4.6892106e+00  -5.9942772e+00  -3.3749215e+00  -1.5587872e+01  -8.9384520e+00  -3.7838632e+00  -7.5222350e+00   7.0867712e+00  -1.1993315e+00  -1.2908739e+01  -4.1876813e+00   1.0415461e+01   0.0000000e+00   3.0000000e+01   0.0000000e+00   0.0000000e+00
   3.6902058e+00  -6.8842811e+00   3.5696085e+00   2.0966874e+01  -1.2072862e+00   7.1795969e+00   4.4793889e+00   6.8702019e+00  -4.1042389e+00  -5.5694707e+00  -2.3251225e+00  -1.5882939e+01  -7.1888102e+00  -1.6393093e+00  -5.8719466e+00   7.9242861e+00   9.9478316e-01  -1.1593208e+01  -1.8089654e+00   1.2730330e+01   0.0000000e+00   3.0000000e+01   0.0000000e+00   0.0000000e+00
   3.7615770e+00  -7.5321615e+00   2.9999656e+00   2.1171618e+01  -5.2412329e-01   8.2609157e+00   3.4543556e+00   6.7386618e+00  -3.2861063e+00  -4.8713622e+00  -1.3709240e+00  -1.6390238e+01  -5.2129470e+00  -1.4912436e-01  -4.2224611e+00   8.8237333e+00   2.7673849e+00  -1.0966805e+01   4.8389616e-01   1.4958234e+01   0.0000000e+00   3.0000000e+01   0.0000000e+00   0.0000000e+00
   3.8218471e+00  -8.1600053e+00   2.7039464e+00   2.0850824e+01  -6.0457167e-02   8.8612655e+00   2.4667713e+00   6.4658837e+00  -2.4031542e+00  -4.0298114e+00  -7.3154329e-01  -1.6808919e+01  -3.5901375e+00   9.5813960e-01  -2.6723653e+00   9.9281250e+00   3.9691406e+00  -1.0797061e+01   2.5614436e+00   1.6455114e+01   0.0000000e+00   3.0000000e+01   0.0000000e+00   0.0000000e+00
   3.6450607e+00  -8.1235078e+00   2.6908338e+00   1.9935184e+01   2.6280188e-01   9.2051857e+00   1.9160982e+00   6.2391840e+00  -1.9290475e+00  -3.2380440e+00  -4.4428214e-01  -1.6992898e+01  -2.8048662e+00   1.8118760e+00  -1.3288535e+00   1.0879116e+01   4.5853192e+00  -1.0565281e+01   4.3187664e+00   1.6894478e+01   0.0000000e+00   3.0000000e+01   0.0000000e+00   0.0000000e+00
   3.1443597e+00  -7.6963750e+00   2.6061198e+00   1.8338161e+01   2.3224818e-01   9.0758190e+00   1.5246188e+00   5.7032316e+00  -2.2806333e+00  -2.7916709e+00  -6.2641327e-01  -1.7210171e+01  -2.8203414e+00   1.9501736e+00  -6.1102226e-01   1.0523661e+01   4.4741391e+00  -1.0636546e+01   5.1213006e+00   1.5887574e+01   0.0000000e+00   3.0000000e+01   0.0000000e+00   0.0000000e+00
   2.8380201e+00  -7.0866208e+00   2.2197430e+00   1.6837634e+01  -3.2608216e-02   8.5006739e+00   1.0654951e+00   4.7128572e+00  -2.9113725e+00  -2.4953543e+00  -1.0019313e+00  -1.7256183e+01  -3.0790127e+00   1.4346441e+00  -4.2110676e-01   8.8906650e+00   3.9759530e+00  -1.1199956e+01   4.7974642e+00   1.3781700e+01   0.0000000e+00   3.0000000e+01   0.0000000e+00   0.0000000e+00
   2.7505520e+00  -6.2649957e+00   1.6786673e+00   1.5984781e+01  -4.2401497e-01   7.8166027e+00   6.4472416e-01   3.4670490e+00  -3.1285574e+00  -2.1175382e+00  -1.1869368e+00  -1.7066835e+01  -3.1908525e+00   8.6437757e-01  -5.0806996e-01   6.8255483e+00   3.5080613e+00  -1.1747973e+01   3.8927930e+00   1.1436218e+01   0.0000000e+00   3.0000000e+01   0.0000000e+00   0.0000000e+00
   2.4681983e+00  -5.3861138e+00   9.8764635e-01   1.5727921e+01  -8.4403215e-01   7.2526511e+00   2.2069697e-01   2.1781177e+00  -2.8010451e+00  -1.7681635e+00  -1.1287362e+00  -1.6847126e+01  -3.1484670e+00   7.8909490e-01  -9.4477616e-01   4.7774395e+00   3.1477757e+00  -1.1865440e+01   2.8519838e+00   9.2779920e+00   0.0000000e+00   3.0000000e+01   5.0000000e+01   0.0000000e+00
   2.2537663e+00  -4.7817255e+00   9.3653005e-02   1.6250990e+01  -6.8281932e-01   7.0493467e+00  -1.7010879e-01   9.3201152e-01  -1.9592506e+00  -1.4738117e+00  -9.1673766e-01  -1.6089443e+01  -2.8532504e+00   1.3094935e+00  -1.5979235e+00   2.8989629e+00   3.0129481e+00  -1.1670598e+01   1.8317507e+00   7.2806602e+00   0.0000000e+00   3.0000000e+01   5.0000000e+01   0.0000000e+00
   2.5197323e+00  -4.4932912e+00  -1.1816535e+00   1.7586137e+01   3.2773668e-01   7.3328040e+00  -3.6060210e-01  -2.1077235e-01  -8.6858146e-01  -1.2317977e+00  -7.8398370e-01  -1.4455479e+01  -2.1049156e+00   2.2659548e+00  -2.2998721e+00   1.2255206e+00   3.3020796e+00  -1.1522402e+01   1.0407843e+00   5.4202942e+00   0.0000000e+00   3.0000000e+01   5.0000000e+01   0.0000000e+00
   3.6254203e+00  -4.1163947e+00  -2.6672077e+00   1.9719056e+01   1.9084316e+00   8.1042891e+00  -2.4342197e-01  -1.0325467e+00   4.0111431e-01  -7.3341456e-01  -5.4693667e-01  -1.2310524e+01  -5.8957111e-01   3.8984584e+00  -2.7939146e+00   3.8626710e-02   4.3830419e+00  -1.1095518e+01   8.8728741e-01   4.0658328e+00   0.0000000e+00   3.0000000e+01   5.0000000e+01   0.0000000e+00
   5.1417638e+00  -3.6536535e+00  -3.9127048e+00   2.2315226e+01   3.5143459e+00   9.0664272e+00   2.0893251e-01  -1.6541678e+00   1.7279645e+00   1.7058424e-01  -7.2440760e-02  -1.0612344e+01   1.4649593e+00   6.0031843e+00  -3.0699495e+00  -8.0080359e-01   6.0754274e+00  -1.0230998e+01   1.0899847e+00   3.0858131e+00   0.0000000e+00   3.0000000e+01   5.0000000e+01   0.0000000e+00
   6.4021592e+00  -3.1971642e+00  -4.8359397e+00   2.4624480e+01   4.9978635e+00   9.9916793e+00   1.0148826e+00  -2.3778071e+00   3.1138766e+00   1.3843307e+00   4.5809756e-01  -9.4526548e+00   3.6516422e+00   7.8019182e+00  -3.3103582e+00  -1.7218010e+00   7.6996409e+00  -9.6396119e+00   9.1452785e-01   1.9468879e+00   0.0000000e+00   3.0000000e+01   5.0000000e+01   0.0000000e+00
   7.2742668e+00  -2.7411648e+00  -5.4354594e+00   2.6123129e+01   6.5800227e+00   1.0959947e+01   1.8643247e+00  -3.2797158e+00   4.7366386e+00   2.6345613e+00   7.4072627e-01  -7.8515607e+00   5.9502172e+00   8.8936476e+00  -3.5896874e+00  -2.9049540e+00   9.0449516e+00  -9.9233869e+00   1.6288506e-01   7.3007153e-01   0.0000000e+00   3.0000000e+01   5.0000000e+01   0.0000000e+00
   7.8561584e+00  -2.4876068e+00  -5.7173862e+00   2.6905233e+01   8.0137080e+00   1.1904539e+01   2.3363106e+00  -4.4237311e+00   6.2291022e+00   3.3949369e+00   5.1776979e-01  -5.8370533e+00   7.8985648e+00   9.4693501e+00  -4.0695742e+00  -4.4159214e+00   1.0209906e+01  -1.0907191e+01  -9.5540175e-01  -2.7160234e-01   0.0000000e+00   3.0000000e+01   5.0000000e+01   0.0000000e+00
   8.6163065e+00  -2.2266577e+00  -5.6454000e+00   2.7673633e+01   9.0549113e+00   1.2494967e+01   2.5831049e+00  -5.7002768e+00   7.1950951e+00   3.6884902e+00   3.1492850e-02  -3.9492347e+00   8.9299199e+00   1.0117052e+01  -4.7116575e+00  -6.0132522e+00   1.1211699e+01  -1.2021667e+01  -1.9880522e+00  -8.4650458e-01   0.0000000e+00   3.0000000e+01   5.0000000e+01   0.0000000e+00
   9.3846697e+00  -1.7052714e+00  -5.2904281e+00   2.8764748e+01   9.7137784e+00   1.2336335e+01   2.9371750e+00  -6.9422353e+00   7.5355358e+00   3.6979585e+00  -3.7050459e-01  -2.5330406e+00   9.1214423e+00   1.0923971e+01  -5.3839263e+00  -7.3724152e+00   1.1906914e+01  -1.3263186e+01  -2.8507425e+00  -1.1120878e+00   0.0000000e+00   3.0000000e+01   5.0000000e+01   0.0000000e+00
   9.4979523e+00  -1.1356665e+00  -4.8782998e+00   2.9592164e+01   9.8909868e+00   1.1405741e+01   3.4073133e+00  -8.0168000e+00   7.2889772e+00   3.3732292e+00  -5.9113475e-01  -1.6813938e+00   8.6934021e+00   1.1454611e+01  -5.9078225e+00  -8.1420833e+00   1.2216117e+01  -1.4868749e+01  -3.6351298e+00  -1.3854350e+00   0.0000000e+00   3.0000000e+01   5.0000000e+01   0.0000000e+00
   9.0911570e+00  -3.3990866e-01  -4.4694583e+00   2.9645327e+01   9.4920640e+00   1.0340936e+01   4.0427019e+00  -8.5381254e+00   6.8807295e+00   2.8767970e+00  -7.1534221e-01  -1.3023068e+00   7.7819394e+00   1.1661628e+01  -6.0730564e+00  -7.9170574e+00   1.2234470e+01  -1.6365571e+01  -3.8721960e+00  -1.7895050e+00   0.0000000e+00   3.0000000e+01   5.0000000e+01   0.0000000e+00
   8.2835964e+00   4.6040556e-01  -4.2245443e+00   2.8980224e+01   8.1798137e+00   9.3725679e+00   4.6393571e+00  -8.3548344e+00   6.5010979e+00   2.2550553e+00  -1.0126460e+00  -1.8025397e+00   6.3735670e+00   1.1405606e+01  -6.1960386e+00  -6.7626637e+00   1.1619451e+01  -1.7446170e+01  -3.6011767e+00  -2.4136981e+00   0.0000000e+00   3.0000000e+01   5.0000000e+01   0.0000000e+00
   6.9405644e+00   4.9270269e-01  -4.4693926e+00   2.7708763e+01   5.9107605e+00   7.9705211e+00   4.8250327e+00  -7.6559227e+00   5.8240230e+00   1.4955416e+00  -1.6829902e+00  -3.3525418e+00   4.6233623e+00   1.0370051e+01  -6.7016515e+00  -5.3115574e+00   9.9443000e+00  -1.8565615e+01  -3.7334485e+00  -3.2154028e+00   0.0000000e+00   3.0000000e+01   5.0000000e+01   0.0000000e+00
   4.9817709e+00  -7.7983058e-01  -5.5353679e+00   2.5641385e+01   2.9229212e+00   5.7252977e+00   4.1574489e+00  -7.0661383e+00   4.4654893e+00   4.4131032e-01  -2.7064645e+00  -5.6773524e+00   2.6195700e+00   8.5085640e+00  -7.8572556e+00  -4.3466975e+00   7.2382454e+00  -2.0250285e+01  -4.8064743e+00  -4.5209891e+00   0.0000000e+00   3.0000000e+01   5.0000000e+01   0.0000000e+00
   2.6285702e+00  -3.2154236e+00  -7.0776036e+00   2.2807220e+01  -2.1321818e-01   3.0447957e+00   2.4900880e+00  -7.0391615e+00   2.4718193e+00  -9.3381755e-01  -3.7027876e+00  -7.9141623e+00   3.5163936e-01   6.3317562e+00  -9.4207622e+00  -3.7414324e+00   4.0715226e+00  -2.2040381e+01  -6.3102613e+00  -6.3136601e+00   0.0000000e+00   3.0000000e+01   5.0000000e+01   0.0000000e+00
   7.8064074e-01  -5.9094005e+00  -8.4418010e+00   2.0167925e+01  -2.6933669e+00   8.1656638e-01   4.1611659e-01  -7.2412387e+00   5.3896548e-01  -1.9497799e+00  -4.1089727e+00  -9.5574570e+00  -1.5927047e+00   4.5849271e+00  -1.0695151e+01  -2.7975740e+00   1.2766894e+00  -2.2910696e+01  -7.4633307e+00  -7.8099154e+00   0.0000000e+00   3.0000000e+01   5.0000000e+01   0.0000000e+00
  -2.7016304e-01  -8.0840758e+00  -9.4188121e+00   1.8267511e+01  -4.3191769e+00  -8.7319848e-01  -1.6108577e+00  -7.4650289e+00  -9.2341735e-01  -2.2367262e+00  -3.7724440e+00  -1.1038956e+01  -2.8316866e+00   3.1493921e+00  -1.1523610e+01  -1.6088643e+00  -9.0161690e-01  -2.2978078e+01  -8.3429444e+00  -8.8259247e+00   0.0000000e+00   3.0000000e+01   5.0000000e+01   0.0000000e+00
  -9.8559492e-01  -9.4121864e+00  -1.0037024e+01   1.6651607e+01  -5.2252237e+00  -2.3559614e+00  -3.4483870e+00  -7.5999972e+00  -2.2849863e+00  -2.1127263e+00  -2.8895837e+00  -1.2573237e+01  -3.8709804e+00   1.5649065e+00  -1.2205884e+01  -6.9282409e-01  -2.6342991e+00  -2.3005191e+01  -9.2818991e+00  -9.5974104e+00   0.0000000e+00   3.0000000e+01   5.0000000e+01   0.0000000e+00
  -1.7813245e+00  -9.9822479e+00  -1.0358588e+01   1.5020563e+01  -5.7771098e+00  -3.5259666e+00  -5.1066893e+00  -7.6122803e+00  -3.6105484e+00  -1.9272709e+00  -1.8070892e+00  -1.3579754e+01  -5.0649258e+00  -8.6835596e-02  -1.2933059e+01  -2.1689514e-01  -3.9822538e+00  -2.3034744e+01  -1.0126344e+01  -1.0470088e+01   0.0000000e+00   3.0000000e+01   5.0000000e+01   0.0000000e+00
  -2.7068400e+00  -1.0217988e+01  -1.0561896e+01   1.3634599e+01  -6.4242267e+00  -4.4443830e+00  -6.8144688e+00  -7.8419889e+00  -4.5630781e+00  -1.9760688e+00  -1.0041306e+00  -1.4071112e+01  -6.1713787e+00  -1.5473077e+00  -1.3781369e+01  -1.3517088e-01  -5.0584186e+00  -2.2806119e+01  -1.0666084e+01  -1.1862533e+01   0.0000000e+00   3.0000000e+01   5.0000000e+01   0.0000000e+00
  -3.7316202e+00  -1.0390790e+01  -1.0739360e+01   1.2756388e+01  -7.0379596e+00  -5.3059024e+00  -8.6112671e+00  -8.4810295e+00  -5.1595886e+00  -2.4461803e+00  -9.6125790e-01  -1.4724211e+01  -7.0648978e+00  -2.7452997e+00  -1.4757174e+01  -4.8571626e-01  -6.0413149e+00  -2.2568970e+01  -1.1002926e+01  -1.3607733e+01   0.0000000e+00   3.0000000e+01   5.0000000e+01   0.0000000e+00
  -4.5034995e+00  -1.0568558e+01  -1.0805125e+01   1.2023401e+01  -7.1585364e+00  -5.8404034e+00  -1.0206149e+01  -9.2613494e+00  -5.6522206e+00  -3.0377228e+00  -1.6666002e+00  -1.5805822e+01  -7.7878840e+00  -3.5396992e+00  -1.5586966e+01  -1.1717740e+00  -6.8485439e+00  -2.2641362e+01  -1.1218533e+01  -1.4914454e+01   0.0000000e+00   3.0000000e+01   5.0000000e+01   0.0000000e+00
  -4.6368232e+00  -1.0557263e+01  -1.0534564e+01   1.1285659e+01  -6.5155063e+00  -5.3913060e+00  -1.0992947e+01  -9.5518044e+00  -6.2667742e+00  -3.3097841e+00  -2.3650021e+00  -1.7140630e+01  -8.3403383e+00  -3.4561187e+00  -1.5787352e+01  -1.7658116e+00  -7.0225855e+00  -2.2553737e+01  -1.0914232e+01  -1.5106112e+01   0.0000000e+00   3.0000000e+01   5.0000000e+01   0.0000000e+00
  -4.1854356e+00  -1.0009092e+01  -9.6606581e+00   1.0577493e+01  -5.2836738e+00  -3.7642532e+00  -1.0474206e+01  -8.9212773e+00  -6.7153576e+00  -3.1872874e+00  -2.5166719e+00  -1.8110462e+01  -8.5684609e+00  -2.2034313e+00  -1.5139836e+01  -1.8743266e+00  -6.3816434e+00  -2.1594811e+01  -9.6337414e+00  -1.4127277e+01   0.0000000e+00   3.0000000e+01   5.0000000e+01   0.0000000e+00
  -3.2667467e+00  -9.0096224e+00  -8.2575492e+00   9.6202739e+00  -3.9763527e+00  -1.7305585e+00  -8.8383739e+00  -7.6247982e+00  -6.9378351e+00  -2.9429016e+00  -2.3410810e+00  -1.8652129e+01  -8.0872141e+00  -3.9171799e-01  -1.3911313e+01  -1.5303446e+00  -5.4035269e+00  -2.0125850e+01  -7.7015417e+00  -1.2638981e+01   0.0000000e+00   3.0000000e+01   5.0000000e+01   0.0000000e+00
  -2.2105980e+00  -7.8615750e+00  -6.8313421e+00   8.4018557e+00  -2.8807309e+00   1.6625992e-01  -6.5711311e+00  -5.9882364e+00  -7.1393432e+00  -2.7144870e+00  -2.0109724e+00  -1.9166047e+01  -6.9367630e+00   1.3339765e+00  -1.2255644e+01  -5.4584294e-01  -4.3509421e+00  -1.8826455e+01  -5.5750689e+00  -1.0964753e+01   0.0000000e+00   3.0000000e+01   5.0000000e+01   0.0000000e+00
  -1.3138592e+00  -6.7439845e+00  -5.8906112e+00   7.4733143e+00  -2.1894897e+00   2.0404286e+00  -4.0410249e+00  -4.2608634e+00  -6.9228207e+00  -2.2742719e+00  -1.3416448e+00  -1.9676532e+01  -5.6347094e+00   2.9973112e+00  -1.0232836e+01   1.1963018e+00  -3.2360578e+00  -1.7391246e+01  -3.2296662e+00  -8.7446245e+00   0.0000000e+00   3.0000000e+01   5.0000000e+01   0.0000000e+00
  -8.7556750e-01  -5.9685730e+00  -5.2901944e+00   6.9514563e+00  -1.9898615e+00   3.9697565e+00  -1.5205687e+00  -2.6323406e+00  -6.1027991e+00  -1.4653022e+00  -3.7980123e-01  -1.9943099e+01  -4.6202798e+00   4.6638685e+00  -8.2275414e+00   2.7877572e+00  -2.3140117e+00  -1.5401335e+01  -6.8141036e-01  -6.1855821e+00   0.0000000e+00   3.0000000e+01   5.0000000e+01   0.0000000e+00
  -9.1486109e-01  -5.6510522e+00  -4.6659767e+00   6.4474854e+00  -2.1748457e+00   5.6190943e+00   6.7678887e-01  -1.3919771e+00  -4.9898367e+00  -3.9085940e-01   5.4080252e-01  -1.9906672e+01  -4.0968957e+00   6.1475300e+00  -6.5848178e+00   3.3872754e+00  -1.8368339e+00  -1.3346914e+01   1.5419463e+00  -4.0727581e+00   0.0000000e+00   3.0000000e+01   5.0000000e+01   0.0000000e+00
  -1.2126501e+00  -5.7395036e+00  -4.0773299e+00   5.6564586e+00  -2.7457927e+00   6.5051335e+00   2.2161875e+00  -1.1838562e+00  -3.9617193e+00   6.8298538e-01   1.4086969e+00  -1.9963310e+01  -4.0125342e+00   7.2596918e+00  -5.3855908e+00   2.9384557e+00  -1.9113823e+00  -1.1934822e+01   2.7465273e+00  -3.1109525e+00   0.0000000e+00   3.0000000e+01   5.0000000e+01   0.0000000e+00
  -1.2691374e+00  -5.8870516e+00  -3.5399930e+00   4.5923592e+00  -3.6103720e+00   6.9201461e+00   3.2628799e+00  -1.6912411e+00  -3.0857409e+00   1.7200990e+00   2.6637576e+00  -2.0296757e+01  -4.0714411e+00   8.3987016e+00  -4.2521551e+00   2.2689798e+00  -2.1235423e+00  -1.0701903e+01   2.9737215e+00  -3.0248154e+00   0.0000000e+00   3.0000000e+01   5.0000000e+01   0.0000000e+00
  -8.2017386e-01  -5.6829316e+00  -2.9903349e+00   3.8423724e+00  -4.4237941e+00   7.4204896e+00   4.3390809e+00  -2.0108200e+00  -2.0626103e+00   2.8431572e+00   4.3566345e+00  -2.0220457e+01  -3.9199893e+00   1.0162443e+01  -2.8813647e+00   2.2125542e+00  -1.9456244e+00  -8.7320215e+00   2.8277448e+00  -2.9711278e+00   0.0000000e+00   3.0000000e+01   5.0000000e+01   0.0000000e+00
  -2.5161947e-01  -5.1079070e+00  -2.5580994e+00   3.7432672e+00  -4.7118161e+00   8.0180330e+00   5.7321308e+00  -2.1030979e+00  -9.3361656e-01   3.7811653e+00   5.7873285e+00  -1.9259148e+01  -3.3749518e+00   1.2318506e+01  -1.6464536e+00   2.4250604e+00  -1.3829337e+00  -6.2639524e+00   2.4767944e+00  -2.9277528e+00   0.0000000e+00   3.0000000e+01   5.0000000e+01   0.0000000e+00
  -1.1028173e-03  -4.1835432e+00  -2.2619067e+00   3.8162280e+00  -4.4024828e+00   8.5715585e+00   7.2757705e+00  -2.1797237e+00  -6.1177013e-02   4.1243148e+00   6.3759047e+00  -1.7993171e+01  -2.6406752e+00   1.4184360e+01  -8.2157356e-01   2.3659681e+00  -7.2239577e-01  -4.0879993e+00   1.7830342e+00  -3.4383224e+00   0.0000000e+00   3.0000000e+01   5.0000000e+01   0.0000000e+00
   8.0695762e-02  -2.9477692e+00  -1.9906765e+00   3.6829323e+00  -3.7663109e+00   9.3404048e+00   8.7785514e+00  -2.0477842e+00   6.5083827e-01   4.1278091e+00   6.5652506e+00  -1.6873413e+01  -1.7800447e+00   1.5762387e+01  -1.3516221e-01   2.2211163e+00   7.0597580e-02  -2.1185724e+00   1.1287644e+00  -4.4741039e+00   0.0000000e+00   3.0000000e+01   5.0000000e+01   0.0000000e+00
   5.0733128e-01  -1.6339820e+00  -1.8583677e+00   3.4675587e+00  -2.9195500e+00   1.0484491e+01   1.0197750e+01  -1.5177073e+00   1.2859758e+00   4.0631403e+00   6.8080197e+00  -1.5882732e+01  -5.7474106e-01   1.7367473e+01   6.3899415e-01   2.2815420e+00   1.0934419e+00   4.7932271e-02   1.0992865e+00  -5.4455621e+00   0.0000000e+00   3.0000000e+01   5.0000000e+01   0.0000000e+00
   1.1778538e+00  -7.0917643e-01  -1.7959857e+00   3.1277618e+00  -2.1240910e+00   1.1389772e+01   1.1374116e+01  -8.4466048e-01   1.2562309e+00   3.6653254e+00   6.7553863e+00  -1.5501725e+01   7.7876786e-01   1.8741817e+01   1.2469177e+00   2.1550362e+00   1.8830657e+00   1.8937543e+00   1.4485698e+00  -6.3229048e+00   0.0000000e+00   3.0000000e+01   5.0000000e+01   0.0000000e+00
   1.6459527e+00  -3.2760442e-01  -1.5009406e+00   2.4307008e+00  -1.6556230e+00   1.1625708e+01   1.2312858e+01  -3.1237385e-01   6.2092503e-01   2.9857305e+00   6.2159591e+00  -1.5955108e+01   1.7414611e+00   1.9585063e+01   1.4017807e+00   1.5452003e+00   2.1056117e+00   2.8349608e+00   1.6868724e+00  -7.3650299e+00   0.0000000e+00   3.0000000e+01   5.0000000e+01   0.0000000e+00
   1.8653354e+00  -1.8716834e-02  -8.4005008e-01   1.5675861e+00  -1.5183176e+00   1.1628443e+01   1.3353754e+01   9.8506616e-02  -6.1512460e-02   2.3008983e+00   5.4421713e+00  -1.6699962e+01   1.9877215e+00   1.9938743e+01   1.1306840e+00   7.4713772e-01   1.9523741e+00   3.2750107e+00   1.8058176e+00  -8.4544992e+00   0.0000000e+00   0.0000000e+00   5.0000000e+01   0.0000000e+00
   1.8586230e+00   5.5459554e-01   4.5178855e-02   9.0083757e-01  -1.5163163e+00   1.1822706e+01   1.4657889e+01   5.3740979e-01  -9.6813733e-01   1.4880020e+00   4.6540252e+00  -1.7462304e+01   1.4210290e+00   1.9820315e+01   5.7073447e-01   7.5463390e-02   1.6267590e+00   3.8081552e+00   1.9406531e+00  -9.2285692e+00   0.0000000e+00   0.0000000e+00   5.0000000e+01   0.0000000e+00
   1.5717433e+00   1.4162310e+00   1.0237219e+00   4.8038160e-01  -1.4248794e+00   1.2035021e+01   1.5818566e+01   1.0799929e+00  -2.2082463e+00   4.6743018e-01   3.8661272e+00  -1.8227603e+01   3.6242374e-01   1.9127201e+01  -2.1172098e-01  -5.5224371e-01   1.0452613e+00   4.3495526e+00   1.9882347e+00  -9.5496134e+00   0.0000000e+00   0.0000000e+00   5.0000000e+01   0.0000000e+00
   1.4791843e+00   2.3625033e+00   1.9390268e+00   1.0669994e-01  -1.1853183e+00   1.2018438e+01   1.6366116e+01   1.6881729e+00  -3.4371590e+00  -5.6144373e-01   3.1825168e+00  -1.9066973e+01  -5.8923248e-01   1.7888575e+01  -1.1624775e+00  -1.3054268e+00   2.5912917e-01   4.6753106e+00   1.9341903e+00  -9.6064647e+00   0.0000000e+00   0.0000000e+00   5.0000000e+01   0.0000000e+00
   1.6008863e+00   3.1187650e+00   2.5255630e+00  -1.7185082e-01  -7.2826002e-01   1.1965224e+01   1.6527471e+01   2.1161080e+00  -4.0445210e+00  -1.2027110e+00   2.9573454e+00  -1.9955587e+01  -9.8882279e-01   1.6831176e+01  -1.9156733e+00  -1.8995023e+00  -1.5537676e-01   5.2994914e+00   2.0765873e+00  -9.4711724e+00   0.0000000e+00   0.0000000e+00   5.0000000e+01   0.0000000e+00
   1.5699944e+00   3.8129452e+00   2.7591691e+00  -2.4080656e-01  -1.9780208e-01   1.2162801e+01   1.6706272e+01   2.3744931e+00  -3.8287161e+00  -1.2961029e+00   3.4006270e+00  -2.0279981e+01  -7.5511545e-01   1.6667757e+01  -2.0492065e+00  -1.7185994e+00   1.5201337e-01   6.7832019e+00   2.4318298e+00  -8.8198575e+00   0.0000000e+00   0.0000000e+00   5.0000000e+01   0.0000000e+00
   1.6130701e+00   4.4600219e+00   2.7996334e+00  -2.3221509e-01   1.2715619e-01   1.2431453e+01   1.6835533e+01   2.5936338e+00  -3.3627745e+00  -9.8714121e-01   4.1277189e+00  -1.9689457e+01   9.4742005e-02   1.7176309e+01  -1.5871499e+00  -9.0940413e-01   8.5119846e-01   8.5061282e+00   2.5176575e+00  -7.5923376e+00   0.0000000e+00   0.0000000e+00   5.0000000e+01   0.0000000e+00
   1.6753405e+00   4.9429250e+00   2.5765986e+00  -2.0161062e-01   3.1624341e-01   1.2562654e+01   1.6693672e+01   2.5934369e+00  -2.9711283e+00  -5.8618786e-01   4.4732355e+00  -1.8694401e+01   1.4193409e+00   1.7859899e+01  -8.6683428e-01  -4.4104085e-01   1.5480935e+00   9.4828197e+00   2.1750935e+00  -6.4118297e+00   0.0000000e+00   0.0000000e+00   5.0000000e+01   0.0000000e+00
   1.8772324e+00   5.4613730e+00   2.1757399e+00  -5.0379088e-02   8.5499407e-01   1.2840578e+01   1.6252569e+01   2.4708155e+00  -2.6964121e+00  -4.3826131e-01   4.2352261e+00  -1.7802555e+01   2.8274793e+00   1.8512413e+01  -1.1253713e-01  -4.6950266e-01   2.3183194e+00   9.8677461e+00   1.8940908e+00  -5.7355092e+00   0.0000000e+00   0.0000000e+00   5.0000000e+01   0.0000000e+00
   2.3235710e+00   5.9498398e+00   1.7041704e+00   2.0612694e-01   1.7010717e+00   1.3232158e+01   1.5516919e+01   2.3046985e+00  -2.8273235e+00  -7.2337064e-01   3.3716693e+00  -1.7146801e+01   3.9592483e+00   1.8706239e+01   3.9240422e-01  -6.4642482e-01   3.0274383e+00   1.0033501e+01   1.7990704e+00  -5.7279198e+00   0.0000000e+00   0.0000000e+00   5.0000000e+01   0.0000000e+00
   2.6441388e+00   5.9344409e+00   1.0829193e+00   3.1444238e-01   2.3396873e+00   1.3327556e+01   1.4626964e+01   2.0621710e+00  -3.4224781e+00  -1.5319816e+00   1.8582850e+00  -1.6855098e+01   4.6878474e+00   1.7948601e+01   3.7698475e-01  -1.0759760e+00   3.2526945e+00   9.5369495e+00   1.4855971e+00  -6.2693453e+00   0.0000000e+00   0.0000000e+00   5.0000000e+01   0.0000000e+00
   2.6464032e+00   5.2680854e+00   3.6510365e-01   3.8637858e-02   2.6409868e+00   1.3063557e+01   1.3981143e+01   1.9469108e+00  -4.4885607e+00  -2.6605417e+00  -1.5282747e-02  -1.7207086e+01   4.7762711e+00   1.6464627e+01  -7.4048112e-02  -1.7340952e+00   3.0540477e+00   8.0344158e+00   8.7394680e-01  -6.8278374e+00   0.0000000e+00   0.0000000e+00   5.0000000e+01   0.0000000e+00
   2.3795818e+00   4.2337364e+00  -3.5409749e-01  -4.9969516e-01   2.7098373e+00   1.2685086e+01   1.3766330e+01   2.1226424e+00  -5.9618139e+00  -3.7491808e+00  -1.7687270e+00  -1.8100070e+01   4.1442185e+00   1.5069772e+01  -6.8201762e-01  -2.3520657e+00   2.7946976e+00   6.1553145e+00   1.7478916e-01  -7.1099927e+00   0.0000000e+00   0.0000000e+00   5.0000000e+01   0.0000000e+00
   1.9702691e+00   2.9496893e+00  -7.2497335e-01  -9.0183278e-01   2.6189585e+00   1.2279506e+01   1.3603681e+01   2.5063797e+00  -7.4242656e+00  -4.5067406e+00  -3.0092249e+00  -1.8946759e+01   3.1213917e+00   1.4294176e+01  -1.2221302e+00  -2.6648322e+00   2.6465192e+00   4.7150200e+00  -5.5259167e-01  -7.2633667e+00   0.0000000e+00   0.0000000e+00   5.0000000e+01   0.0000000e+00
   1.2157203e+00   1.3982212e+00  -4.6337892e-01  -9.5746555e-01   2.4495633e+00   1.1604193e+01   1.2877532e+01   2.8035147e+00  -8.4313884e+00  -4.8090290e+00  -3.7030962e+00  -1.9485518e+01   2.0971179e+00   1.3956743e+01  -1.6059716e+00  -2.6885133e+00   2.5668948e+00   3.6094094e+00  -1.4376877e+00  -7.6403515e+00   0.0000000e+00   0.0000000e+00   5.0000000e+01   0.0000000e+00
  -7.7406934e-02  -3.6794600e-01   1.7983040e-01  -1.2733258e+00   2.0845572e+00   1.0342563e+01   1.1312748e+01   2.5416123e+00  -9.0916111e+00  -5.1320927e+00  -4.2474475e+00  -2.0065966e+01   1.0520562e+00   1.3553847e+01  -2.0651698e+00  -2.9414988e+00   2.3602084e+00   2.2802959e+00  -2.6016019e+00  -8.4251994e+00   0.0000000e+00   0.0000000e+00   5.0000000e+01   0.0000000e+00
  -1.2692804e+00  -2.1248287e+00   1.0471427e+00  -2.2301872e+00   1.3596108e+00   8.7934621e+00   9.4487379e+00   1.7023451e+00  -9.6129413e+00  -5.6601638e+00  -4.8203707e+00  -2.1114225e+01  -2.1381476e-01   1.3001876e+01  -2.7671774e+00  -3.6747608e+00   1.9594432e+00   9.7750399e-01  -3.6644987e+00  -9.1443652e+00   0.0000000e+00   0.0000000e+00   5.0000000e+01   0.0000000e+00
  -2.2475088e+00  -3.7016622e+00   1.9703237e+00  -3.1820403e+00   1.4046885e-01   7.5351755e+00   8.0286857e+00   6.7610618e-01  -1.0111989e+01  -6.0655591e+00  -5.4532870e+00  -2.2480234e+01  -1.6376172e+00   1.2496753e+01  -3.5339829e+00  -4.6054599e+00   1.3877214e+00   1.9097495e-01  -4.2872685e+00  -9.3200405e+00   0.0000000e+00   0.0000000e+00   5.0000000e+01   0.0000000e+00
  -3.2660907e+00  -4.9939003e+00   2.6103564e+00  -3.9242974e+00  -1.4410531e+00   6.5282049e+00   7.2461382e+00  -3.1522323e-01  -1.0823463e+01  -6.3580653e+00  -6.4020746e+00  -2.2974648e+01  -2.9966002e+00   1.2002817e+01  -4.1591568e+00  -5.5067741e+00   5.9551560e-01  -4.0992455e-01  -4.7742528e+00  -8.9923775e+00   0.0000000e+00   0.0000000e+00   5.0000000e+01   0.0000000e+00
  -3.7580636e+00  -5.8844709e+00   2.6438350e+00  -4.7922142e+00  -2.7772859e+00   5.5946082e+00   7.0363202e+00  -1.1765357e+00  -1.1539471e+01  -6.4853266e+00  -7.6407864e+00  -2.2251461e+01  -3.9668117e+00   1.1565316e+01  -4.5666082e+00  -6.3182549e+00  -2.5983530e-01  -1.2775331e+00  -5.2288173e+00  -8.4241881e+00   0.0000000e+00   0.0000000e+00   5.0000000e+01   0.0000000e+00
  -3.4993457e+00  -6.2448030e+00   2.2161108e+00  -5.6503640e+00  -3.3611407e+00   4.9614764e+00   7.5101329e+00  -1.5972591e+00  -1.1978325e+01  -6.2865790e+00  -8.7112169e+00  -2.1286850e+01  -4.4561810e+00   1.1381516e+01  -4.6687032e+00  -6.7064590e+00  -9.5220592e-01  -2.1172362e+00  -5.1816121e+00  -7.7639726e+00   0.0000000e+00   0.0000000e+00   5.0000000e+01   0.0000000e+00
  -3.2372099e+00  -6.1278908e+00   1.7185235e+00  -6.6357764e+00  -3.3561578e+00   4.7826735e+00   8.6375106e+00  -1.2728507e+00  -1.2112601e+01  -6.0318522e+00  -9.1778723e+00  -2.0877641e+01  -4.8531642e+00   1.1373041e+01  -4.5278272e+00  -6.5390681e+00  -1.6298855e+00  -2.5418470e+00  -4.3688751e+00  -7.1311525e+00   0.0000000e+00   0.0000000e+00   5.0000000e+01   0.0000000e+00
  -3.6119784e+00  -5.8068196e+00   1.3391362e+00  -8.0242485e+00  -3.4063530e+00   4.8452291e+00   1.0115058e+01  -7.5927582e-01  -1.2166393e+01  -6.2467045e+00  -9.0631727e+00  -2.1072947e+01  -5.3103459e+00   1.1165620e+01  -4.4703288e+00  -6.2436573e+00  -2.6423333e+00  -2.9152538e+00  -3.2777286e+00  -6.6673299e+00   0.0000000e+00   0.0000000e+00   5.0000000e+01   0.0000000e+00
  -3.7314299e+00  -5.2184249e+00   1.3270070e+00  -9.2687399e+00  -3.6247985e+00   5.2448148e+00   1.2050935e+01  -3.6713610e-01  -1.2388598e+01  -6.7063565e+00  -8.4591873e+00  -2.1688075e+01  -5.6885255e+00   1.0785705e+01  -4.3704432e+00  -5.8148515e+00  -3.7720218e+00  -3.4445894e+00  -2.1783185e+00  -5.8884494e+00   0.0000000e+00   0.0000000e+00   5.0000000e+01   0.0000000e+00
  -2.6661400e+00  -4.1014860e+00   2.0264925e+00  -9.4907692e+00  -3.2367251e+00   6.6741744e+00   1.4996613e+01   5.8076666e-01  -1.2249594e+01  -6.4162423e+00  -7.0670716e+00  -2.2072592e+01  -5.5658766e+00   1.1098424e+01  -3.4793531e+00  -4.7336075e+00  -3.9958778e+00  -3.2162164e+00  -4.1824653e-01  -4.2433717e+00   0.0000000e+00   0.0000000e+00   5.0000000e+01   0.0000000e+00
  -8.8733658e-01  -2.7874358e+00   3.1470363e+00  -8.4545353e+00  -1.7959370e+00   9.0538187e+00   1.8738854e+01   2.0527496e+00  -1.1374159e+01  -5.2272838e+00  -5.0991105e+00  -2.1749017e+01  -4.7092799e+00   1.2544746e+01  -1.8339848e+00  -3.3283973e+00  -2.7911754e+00  -1.7080112e+00   2.2820201e+00  -2.4402991e+00   0.0000000e+00   0.0000000e+00   5.0000000e+01   0.0000000e+00
   9.5818845e-01  -1.7267064e+00   4.0462418e+00  -6.6042472e+00   5.0058803e-01   1.1351931e+01   2.2457274e+01   3.1799666e+00  -1.0162821e+01  -3.8718999e+00  -3.4084173e+00  -2.1151074e+01  -3.3308659e+00   1.4420144e+01  -3.8567901e-01  -2.5772199e+00  -6.5819876e-01   2.4836061e-01   5.0376876e+00  -1.6558347e+00   0.0000000e+00   0.0000000e+00   5.0000000e+01   0.0000000e+00
   2.4155501e+00  -9.3368824e-01   4.8730445e+00  -4.6007925e+00   3.1083122e+00   1.3072208e+01   2.5904090e+01   3.7776785e+00  -8.8452614e+00  -2.6957138e+00  -2.2765472e+00  -2.0344329e+01  -1.6303020e+00   1.6049788e+01   4.3296251e-01  -2.4637262e+00   1.8119299e+00   1.8546035e+00   6.8748362e+00  -2.0013958e+00   0.0000000e+00   0.0000000e+00   5.0000000e+01   0.0000000e+00
   2.9739905e+00  -6.5410280e-01   6.2673649e+00  -3.1239505e+00   5.0209738e+00   1.4153574e+01   2.8840605e+01   4.2016108e+00  -7.7254676e+00  -1.7350700e+00  -1.5126511e+00  -1.9529844e+01  -2.4694763e-01   1.7013382e+01   7.0693690e-01  -2.5249242e+00   3.9001376e+00   2.9398951e+00   7.2637964e+00  -2.8419358e+00   0.0000000e+00   0.0000000e+00   5.0000000e+01   0.0000000e+00
   2.5078318e+00  -1.3057322e+00   8.0454531e+00  -2.4260255e+00   5.2712748e+00   1.4185953e+01   3.0483727e+01   4.2870483e+00  -7.3186532e+00  -1.3901891e+00  -1.4306670e+00  -1.9485644e+01   1.3932856e-01   1.6857375e+01   2.3355010e-01  -3.1252645e+00   4.6983468e+00   3.2666574e+00   5.9286710e+00  -4.0170858e+00   0.0000000e+00   0.0000000e+00   5.0000000e+01   0.0000000e+00
   1.4560358e+00  -2.6574889e+00   9.3914653e+00  -2.3701996e+00   3.9077578e+00   1.2930293e+01   3.0575231e+01   3.5649357e+00  -7.7843788e+00  -1.8803720e+00  -2.2873132e+00  -2.0518560e+01  -3.0200161e-01   1.5532468e+01  -1.0473149e+00  -4.6305137e+00   3.7922858e+00   2.3431857e+00   3.2763936e+00  -5.8983155e+00   0.0000000e+00   0.0000000e+00   5.0000000e+01   0.0000000e+00
   5.2704194e-01  -3.7378617e+00   9.9794875e+00  -2.7889049e+00   2.0131631e+00   1.1152530e+01   2.9933646e+01   2.1656272e+00  -8.6641553e+00  -2.5668813e+00  -3.3775922e+00  -2.2100177e+01  -8.9578158e-01   1.3854215e+01  -2.3238789e+00  -6.3369195e+00   1.8450245e+00   3.6868255e-01   6.0258009e-01  -8.3493537e+00   0.0000000e+00   0.0000000e+00   5.0000000e+01   0.0000000e+00
   5.2050317e-01  -3.5577683e+00   9.9597758e+00  -2.9645617e+00   8.4661943e-01   1.0278915e+01   2.9855042e+01   1.0443303e+00  -9.3198610e+00  -2.4737801e+00  -3.6002834e+00  -2.2947906e+01  -9.3040621e-01   1.3045243e+01  -2.4065999e+00  -7.0407784e+00   3.6194305e-01  -1.2421335e+00  -6.1066630e-01  -1.0368839e+01   0.0000000e+00   0.0000000e+00   5.0000000e+01   0.0000000e+00
   1.1458200e+00  -2.4189329e+00   9.4227691e+00  -2.4179625e+00   6.0789432e-01   1.0669809e+01   3.0625561e+01   1.1122908e+00  -9.4707491e+00  -1.4438076e+00  -2.7842762e+00  -2.2501549e+01  -2.9885615e-01   1.3163946e+01  -1.0577237e+00  -6.3008129e+00  -6.2085214e-02  -1.5472575e+00   3.7107808e-02  -1.1398228e+01   0.0000000e+00   0.0000000e+00   5.0000000e+01   0.0000000e+00
   1.5746179e+00  -1.6104032e+00   8.3928501e+00  -1.6716837e+00   5.9827945e-01   1.1446001e+01   3.1481279e+01   2.3526360e+00  -9.1557287e+00  -2.0432802e-01  -1.6556706e+00  -2.1671387e+01   5.8195568e-01   1.3218119e+01   9.1346319e-01  -4.7829993e+00  -1.1429361e-01  -1.1793599e+00   1.6666772e+00  -1.1918725e+01   0.0000000e+00   0.0000000e+00   5.0000000e+01   0.0000000e+00
   1.8848324e+00  -1.4410025e+00   7.1137059e+00  -1.0938195e+00   5.7516903e-01   1.2087289e+01   3.1925140e+01   3.8559288e+00  -8.4109518e+00   7.8463611e-01  -7.0651096e-01  -2.0977058e+01   1.3447772e+00   1.2839400e+01   2.7071580e+00  -3.3628403e+00  -2.1817615e-01  -9.0263168e-01   3.4681565e+00  -1.2091119e+01   0.0000000e+00   0.0000000e+00   5.0000000e+01   0.0000000e+00
   2.3680494e+00  -1.2214398e+00   6.1872641e+00  -6.3036546e-01   7.4106542e-01   1.2692643e+01   3.2042159e+01   5.1092332e+00  -7.2445594e+00   1.5133594e+00   1.0847641e-01  -2.0298210e+01   1.7662779e+00   1.2517290e+01   4.1584791e+00  -2.2234357e+00  -4.2686944e-02  -4.0855759e-01   5.4951294e+00  -1.1236651e+01   0.0000000e+00   0.0000000e+00   5.0000000e+01   0.0000000e+00
   2.5497716e+00  -7.8617453e-01   5.9659974e+00  -3.6961320e-01   1.0106128e+00   1.3087587e+01   3.1838565e+01   5.9915419e+00  -6.2051751e+00   1.8194058e+00   6.4482257e-01  -1.9847462e+01   1.8196748e+00   1.2387776e+01   5.1380134e+00  -1.4874660e+00   4.6447967e-01   5.5219356e-01   7.6979852e+00  -9.3476123e+00   0.0000000e+00   0.0000000e+00   5.0000000e+01   0.0000000e+00
   2.3717016e+00  -5.6397707e-01   6.3088224e+00  -1.7160293e-01   1.3276142e+00   1.2967016e+01   3.1226492e+01   6.2500949e+00  -5.7285890e+00   1.8352992e+00   7.6871609e-01  -1.9389150e+01   1.7308524e+00   1.1984358e+01   5.4302903e+00  -1.4516262e+00   1.0118046e+00   1.4191893e+00   9.4751824e+00  -7.4771929e+00   0.0000000e+00   0.0000000e+00   5.0000000e+01   0.0000000e+00
   2.6880745e+00  -7.1765515e-01   6.7921992e+00   6.8155102e-01   1.9120885e+00   1.2443505e+01   3.0324593e+01   5.8323966e+00  -5.4498954e+00   1.8960579e+00   6.5325577e-01  -1.8343994e+01   1.7753426e+00   1.1033795e+01   5.1867359e+00  -2.0809162e+00   1.6814016e+00   1.7509972e+00   1.0517996e+01  -6.4820074e+00   0.0000000e+00   0.0000000e+00   5.0000000e+01   0.0000000e+00
   3.4811087e+00  -1.0242087e+00   6.9745002e+00   2.4866915e+00   2.8579711e+00   1.1813239e+01   2.9105668e+01   4.9595449e+00  -5.1612963e+00   1.8525233e+00   1.9702818e-01  -1.6803287e+01   1.9269799e+00   9.7253422e+00   4.6756915e+00  -3.2093979e+00   2.6118476e+00   1.7186110e+00   1.0721915e+01  -6.4815862e+00   0.0000000e+00   0.0000000e+00   5.0000000e+01   0.0000000e+00
   4.1230948e+00  -1.5229820e+00   6.8973474e+00   4.2919633e+00   3.9692005e+00   1.1154397e+01   2.7451193e+01   4.1641239e+00  -5.0355870e+00   1.4137257e+00  -7.2450586e-01  -1.5243958e+01   2.1342979e+00   8.3698315e+00   4.0701891e+00  -4.3639259e+00   3.6026803e+00   1.5145647e+00   9.9663399e+00  -7.0269658e+00   0.0000000e+00   0.0000000e+00   5.0000000e+01   0.0000000e+00
   4.3450973e+00  -2.6034613e+00   6.6336503e+00   4.9754702e+00   4.9358213e+00   1.0244268e+01   2.5315358e+01   3.5589165e+00  -5.3935254e+00   3.8480341e-01  -2.1968357e+00  -1.4385247e+01   2.4168956e+00   6.7659865e+00   3.2840322e+00  -5.1294243e+00   4.2902303e+00   6.1133901e-01   8.2499413e+00  -8.0105378e+00   0.0000000e+00   0.0000000e+00   5.0000000e+01   0.0000000e+00
   4.4741950e+00  -3.9674097e+00   5.9350078e+00   4.8652891e+00   5.9081292e+00   9.3930417e+00   2.3254371e+01   3.1065029e+00  -6.2193178e+00  -9.5633298e-01  -3.8553888e+00  -1.4346882e+01   2.9701690e+00   5.0780586e+00   2.5924304e+00  -5.1203926e+00   4.9556049e+00  -1.1195312e+00   6.3180932e+00  -9.3876685e+00   0.0000000e+00   0.0000000e+00   5.0000000e+01   0.0000000e+00
   5.0237001e+00  -4.6138829e+00   4.9948701e+00   4.9507603e+00   7.5805385e+00   9.5949955e+00   2.2112396e+01   3.1074963e+00  -6.7731523e+00  -1.8347529e+00  -4.8778855e+00  -1.4469130e+01   4.0271782e+00   4.2023856e+00   2.6643383e+00  -4.2083347e+00   6.4295266e+00  -2.6145351e+00   5.4197023e+00  -1.0503445e+01   0.0000000e+00   0.0000000e+00   5.0000000e+01   0.0000000e+00
   6.0566793e+00  -4.1300160e+00   4.4185838e+00   5.5758497e+00   1.0120385e+01   1.1390442e+01   2.2205318e+01   3.7099929e+00  -6.3904686e+00  -1.6851767e+00  -4.7765053e+00  -1.4028904e+01   5.7299679e+00   4.6783538e+00   3.8198046e+00  -2.7455939e+00   9.1449952e+00  -2.9118805e+00   6.1905911e+00  -1.0703943e+01   0.0000000e+00   0.0000000e+00   5.0000000e+01   0.0000000e+00
   7.2029621e+00  -3.1267931e+00   4.4004277e+00   6.4630178e+00   1.2772760e+01   1.4000808e+01   2.3259632e+01   4.5533405e+00  -5.1248573e+00  -4.9532915e-01  -3.8064868e+00  -1.2888049e+01   7.9437174e+00   6.2797340e+00   5.7510901e+00  -1.3273276e+00   1.2605254e+01  -2.4149208e+00   8.0421804e+00  -1.0169498e+01   0.0000000e+00   0.0000000e+00   5.0000000e+01   0.0000000e+00
   8.0381794e+00  -2.3129287e+00   4.8100638e+00   7.0064339e+00   1.4906252e+01   1.6334265e+01   2.4724204e+01   5.2483632e+00  -3.3664255e+00   1.3555570e+00  -2.4744244e+00  -1.1379835e+01   1.0041772e+01   8.4078413e+00   7.8803173e+00  -1.5808184e-01   1.5852427e+01  -2.0218585e+00   9.8541770e+00  -9.2709338e+00   0.0000000e+00   0.0000000e+00   5.0000000e+01   0.0000000e+00
   8.7907671e+00  -1.6596650e+00   5.4279588e+00   7.1237098e+00   1.6324924e+01   1.7964680e+01   2.6167389e+01   6.0097177e+00  -1.4493213e+00   3.4124046e+00  -1.0140468e+00  -9.9072199e+00   1.1589782e+01   1.0658112e+01   9.7468429e+00   8.7183456e-01   1.8233095e+01  -1.7637262e+00   1.1160396e+01  -7.9190461e+00   0.0000000e+00   0.0000000e+00   5.0000000e+01   0.0000000e+00
   9.6594522e+00  -9.6168464e-01   6.0580086e+00   6.8189673e+00   1.6886225e+01   1.8644088e+01   2.7134502e+01   7.0026116e+00   6.6712345e-02   5.1254025e+00   2.8405676e-01  -9.0434411e+00   1.2327539e+01   1.2531629e+01   1.0959258e+01   1.4125900e+00   1.9325400e+01  -1.5459647e+00   1.1914847e+01  -6.1946993e+00   0.0000000e+00   0.0000000e+00   5.0000000e+01   0.0000000e+00
   1.0332612e+01  -2.8481517e-01   6.5825932e+00   5.8917828e+00   1.6837403e+01   1.8390934e+01   2.7300977e+01   7.6847231e+00   6.5726256e-01   5.9339337e+00   1.0138502e+00  -8.8850348e+00   1.2317953e+01   1.3434149e+01   1.1343256e+01   1.1690571e+00   1.9127474e+01  -1.8439532e+00   1.1730993e+01  -4.5253532e+00   0.0000000e+00   0.0000000e+00   5.0000000e+01   0.0000000e+00
   1.0663575e+01   2.2838120e-01   6.7569192e+00   4.5830320e+00   1.6776641e+01   1.7649957e+01   2.6781193e+01   7.6441579e+00   5.5999026e-01   5.9513803e+00   1.1286211e+00  -9.2848044e+00   1.2195364e+01   1.3489947e+01   1.1181250e+01   3.6571763e-01   1.8447033e+01  -2.8458080e+00   1.0435190e+01  -3.1698587e+00   0.0000000e+00   0.0000000e+00   5.0000000e+01   0.0000000e+00
   1.0592159e+01   5.0813604e-01   6.3751073e+00   3.3377365e+00   1.6871020e+01   1.6901590e+01   2.5900001e+01   7.0258421e+00   3.3896808e-01   5.8991109e+00   1.0166101e+00  -1.0050435e+01   1.2395749e+01   1.3471818e+01   1.0997769e+01  -4.9886290e-01   1.8136979e+01  -3.9177804e+00   8.7056762e+00  -2.0553162e+00   0.0000000e+00   0.0000000e+00   5.0000000e+01   0.0000000e+00
   9.8482834e+00   5.3136104e-01   5.5224504e+00   2.2961146e+00   1.6776041e+01   1.6279006e+01   2.4910508e+01   6.0221996e+00   4.4923356e-01   6.2360549e+00   8.8230707e-01  -1.0665839e+01   1.2843799e+01   1.3744463e+01   1.0969976e+01  -1.1900092e+00   1.8190456e+01  -4.4777570e+00   7.4238628e+00  -1.1351311e+00   0.0000000e+00   0.0000000e+00   5.0000000e+01   0.0000000e+00
   8.6795462e+00   9.8009693e-02   4.3656282e+00   1.2340867e+00   1.6276502e+01   1.5541395e+01   2.3980797e+01   4.7559503e+00   8.8558032e-01   6.8258667e+00   6.8559574e-01  -1.1060860e+01   1.3459346e+01   1.4039087e+01   1.1012363e+01  -1.8725549e+00   1.8155193e+01  -4.8129327e+00   6.7926888e+00  -4.0237300e-01   0.0000000e+00   0.0000000e+00   5.0000000e+01   0.0000000e+00
   7.7269040e+00  -6.7676044e-01   2.8493785e+00   2.5737763e-01   1.5471598e+01   1.4617420e+01   2.3183137e+01   3.5236678e+00   1.6048820e+00   7.5032269e+00   4.7757275e-01  -1.1547529e+01   1.4184358e+01   1.4260593e+01   1.1151681e+01  -2.6634019e+00   1.7928559e+01  -5.4305852e+00   6.4835274e+00  -4.8914547e-02   0.0000000e+00   0.0000000e+00   5.0000000e+01   0.0000000e+00
   7.0973808e+00  -1.4554349e+00   8.7009536e-01  -7.3965623e-01   1.4459198e+01   1.3801529e+01   2.2494424e+01   2.6273376e+00   2.7718454e+00   8.3495838e+00   5.9283741e-01  -1.2103377e+01   1.4622121e+01   1.4666924e+01   1.1396328e+01  -3.2418262e+00   1.7709799e+01  -6.0237164e+00   6.4554355e+00  -1.5277190e-01   0.0000000e+00   0.0000000e+00   5.0000000e+01   0.0000000e+00
   6.1660995e+00  -2.0923649e+00  -1.4044082e+00  -2.0930286e+00   1.3280696e+01   1.3179436e+01   2.1778539e+01   2.0911294e+00   4.0314851e+00   9.4102174e+00   1.3348936e+00  -1.2479871e+01   1.4292273e+01   1.5395644e+01   1.1525411e+01  -3.0086530e+00   1.7473485e+01  -5.9848851e+00   6.8197652e+00  -2.6860865e-01   0.0000000e+00   0.0000000e+00   5.0000000e+01   0.0000000e+00
   4.5082090e+00  -2.6064252e+00  -3.6039289e+00  -3.5091882e+00   1.1755535e+01   1.2241560e+01   2.0591860e+01   1.5932761e+00   4.8614334e+00   1.0238221e+01   2.3901151e+00  -1.2984546e+01   1.3022133e+01   1.6025144e+01   1.1113025e+01  -2.1210473e+00   1.6713745e+01  -5.7141425e+00   7.1432747e+00  -5.0538084e-01   0.0000000e+00   0.0000000e+00   5.0000000e+01   0.0000000e+00
   2.6406682e+00  -3.1397803e+00  -5.5964693e+00  -4.8576250e+00   9.4795895e+00   1.0593770e+01   1.8577102e+01   6.7417490e-01   4.9241476e+00   1.0330016e+01   3.0679384e+00  -1.4058447e+01   1.0903371e+01   1.6046346e+01   9.8006398e+00  -1.7435980e+00   1.5010765e+01  -6.0710182e+00   6.8139547e+00  -1.6163717e+00   0.0000000e+00   0.0000000e+00   5.0000000e+01   0.0000000e+00
   1.2808359e+00  -3.4321802e+00  -7.1317809e+00  -5.9234070e+00   6.7461040e+00   8.7976743e+00   1.6334381e+01  -3.5142275e-01   4.4953416e+00   1.0055872e+01   3.3107368e+00  -1.5413090e+01   8.5930046e+00   1.5784042e+01   7.9866702e+00  -1.9153180e+00   1.2817959e+01  -6.6681286e+00   6.0293349e+00  -3.3289882e+00   0.0000000e+00   0.0000000e+00   5.0000000e+01   0.0000000e+00
   2.8371686e-01  -3.5460054e+00  -7.9746593e+00  -6.3072433e+00   4.2464459e+00   7.4648675e+00   1.4662747e+01  -9.3692581e-01   4.0802836e+00   9.8212488e+00   3.2999357e+00  -1.6372200e+01   6.7332523e+00   1.5536701e+01   6.2034521e+00  -1.8823832e+00   1.0705814e+01  -6.6654836e+00   5.1586487e+00  -4.7625389e+00   0.0000000e+00   0.0000000e+00   5.0000000e+01   0.0000000e+00
  -1.1033847e+00  -4.1729166e+00  -8.3154107e+00  -6.2846890e+00   2.2230720e+00   6.1476146e+00   1.3442710e+01  -1.6290415e+00   3.7256683e+00   9.3897259e+00   2.6964098e+00  -1.6748450e+01   5.2652938e+00   1.4684108e+01   4.1887783e+00  -2.0092786e+00   8.4947181e+00  -6.5279128e+00   3.8514467e+00  -6.2192821e+00   0.0000000e+00   0.0000000e+00   5.0000000e+01   0.0000000e+00
  -2.7764937e+00  -5.4827166e+00  -8.4320042e+00  -6.5065029e+00   4.3501489e-01   4.3588150e+00   1.2394052e+01  -2.9309297e+00   3.2791590e+00   8.5266811e+00   1.2974201e+00  -1.7074994e+01   3.9610500e+00   1.3020504e+01   1.8409839e+00  -2.7896402e+00   5.9637907e+00  -7.1100804e+00   2.0996428e+00  -8.3983971e+00   0.0000000e+00   0.0000000e+00   5.0000000e+01   0.0000000e+00
  -3.8502289e+00  -6.8406440e+00  -8.5098385e+00  -6.9589423e+00  -1.2783130e+00   2.5432295e+00   1.1857324e+01  -4.2203937e+00   2.7150377e+00   7.4777371e+00  -3.2836824e-01  -1.7465402e+01   3.0475444e+00   1.1554928e+01  -1.7407978e-01  -3.6588988e+00   3.6373186e+00  -7.9619228e+00   6.9612508e-01  -1.1127328e+01   0.0000000e+00   0.0000000e+00   5.0000000e+01   0.0000000e+00
  -4.3431331e+00  -7.7673220e+00  -8.7619817e+00  -7.1903844e+00  -2.6527866e+00   1.1751498e+00   1.1924041e+01  -4.8202778e+00   2.0703771e+00   6.3869364e+00  -1.6110698e+00  -1.7712083e+01   2.7244486e+00   1.1095195e+01  -1.3926285e+00  -4.1779877e+00   2.1212428e+00  -8.2156039e+00   1.1652714e-01  -1.4060084e+01   0.0000000e+00   0.0000000e+00   5.0000000e+01   0.0000000e+00
  -5.1820942e+00  -8.3867465e+00  -9.1427479e+00  -6.9502632e+00  -3.6909264e+00   5.2764637e-02   1.2179483e+01  -5.0308913e+00   1.5340544e+00   5.1779863e+00  -2.6488755e+00  -1.7623229e+01   2.6712771e+00   1.1318642e+01  -2.0496553e+00  -4.6346891e+00   1.2858353e+00  -8.0162975e+00   5.8560634e-02  -1.7068811e+01   0.0000000e+00   0.0000000e+00   5.0000000e+01   0.0000000e+00
  -6.5265372e+00  -8.7310839e+00  -9.4815934e+00  -6.2196649e+00  -4.5054376e+00  -9.1545117e-01   1.2387471e+01  -5.2364402e+00   1.4364958e+00   4.3249830e+00  -3.4211063e+00  -1.7098514e+01   2.6971406e+00   1.1711401e+01  -2.3400315e+00  -4.9086600e+00   8.6257943e-01  -7.7389529e+00   2.8824534e-01  -1.9620778e+01   0.0000000e+00   0.0000000e+00   5.0000000e+01   0.0000000e+00
  -7.5976772e+00  -8.6745889e+00  -9.8791141e+00  -5.4789644e+00  -4.8608794e+00  -1.3441055e+00   1.2581849e+01  -5.2182668e+00   1.9787539e+00   4.2293933e+00  -3.5959724e+00  -1.6379242e+01   2.9569249e+00   1.2406133e+01  -2.1889905e+00  -4.7140328e+00   8.9192418e-01  -6.9729776e+00   8.7111644e-01  -2.0993582e+01   0.0000000e+00   0.0000000e+00   5.0000000e+01   0.0000000e+00
  -7.6474249e+00  -8.1575969e+00  -1.0179949e+01  -4.8214614e+00  -4.4411653e+00  -9.4517228e-01   1.3089341e+01  -4.6680713e+00   3.0400116e+00   4.8997501e+00  -3.0392974e+00  -1.5756845e+01   3.6536135e+00   1.3832215e+01  -1.4921215e+00  -3.8797799e+00   1.6251328e+00  -5.0908415e+00   1.9870360e+00  -2.0827326e+01   0.0000000e+00   0.0000000e+00   5.0000000e+01   0.0000000e+00
  -6.8174393e+00  -7.4956529e+00  -1.0095066e+01  -3.8553851e+00  -3.3123350e+00  -2.4525265e-02   1.4061087e+01  -3.8453040e+00   4.2995067e+00   6.0605282e+00  -1.9972575e+00  -1.5071983e+01   4.8152188e+00   1.5735896e+01  -3.7622621e-01  -2.4108107e+00   2.9994282e+00  -2.5425155e+00   3.6347187e+00  -1.9556142e+01   0.0000000e+00   0.0000000e+00   5.0000000e+01   0.0000000e+00
  -6.4525383e+00  -7.3843036e+00  -9.8299582e+00  -2.9738753e+00  -2.3471363e+00   6.7994436e-01   1.5055346e+01  -3.3422275e+00   5.0792067e+00   7.0445417e+00  -1.0361578e+00  -1.4272124e+01   5.9464773e+00   1.7073312e+01   6.1570960e-01  -9.3136988e-01   4.2135384e+00  -6.1521824e-01   5.2149530e+00  -1.8364272e+01   0.0000000e+00   0.0000000e+00   5.0000000e+01   0.0000000e+00
  -7.2212608e+00  -7.7375468e+00  -9.5557974e+00  -2.7411204e+00  -2.3952176e+00   7.2939317e-01   1.5624063e+01  -3.3468039e+00   4.9022267e+00   7.1360078e+00  -7.2324762e-01  -1.4092453e+01   6.1994496e+00   1.7225994e+01   9.6421872e-01  -1.7088339e-01   4.5437223e+00   1.2217314e-01   5.8806380e+00  -1.8049617e+01   0.0000000e+00   0.0000000e+00   5.0000000e+01   0.0000000e+00
