nt = 700
nc = 24
channels = F7 T3 T5 Fp1 F3 C3 P3 O1 F8 T4 T6 Fp2 F4 C4 P4 O2 Fz Cz Pz Oz TR SOn Occ RAp
ne = 20
type = B
fsmp = 100.0000000000
band = 0.1 0.1 25 25 0
orig.file = s3_bl1
orig.nt = 281334
orig.sample_range = 47713 51907
orig.fsmp = 600
orig.subject = 3
orig.run = 9
  -5.1735513e+00  -3.9613053e+00  -6.7007985e+00   7.0669987e+00  -3.7976297e+00  -2.8310514e+00  -4.7136582e+00  -4.6559481e+00  -1.1781853e+01  -7.5480121e+00  -1.3524710e+01   1.5200113e+01  -6.2262547e+00  -5.4083346e+00  -9.1898203e+00  -1.0767731e+01  -3.3934152e+00   1.3422318e+01  -1.1852088e+01  -1.3918769e+01   0.0000000e+00   0.0000000e+00   0.0000000e+00   0.0000000e+00
  -7.8565618e+00  -5.5334313e+00  -8.1030652e+00   8.1393587e+00  -2.1585080e+00  -2.3982510e+00  -6.6323315e+00  -6.5139491e+00  -1.2285762e+01  -1.0022667e+01  -1.4720258e+01   1.2102715e+01  -5.5061148e+00  -4.7082037e+00  -1.2241518e+01  -1.2819993e+01  -2.3588411e+00   9.6802186e+00  -1.2253403e+01  -1.4938717e+01   0.0000000e+00   0.0000000e+00   0.0000000e+00   0.0000000e+00
  -9.0640261e+00  -6.2444719e+00  -8.5820244e+00   9.7073429e+00  -8.4104115e-02  -1.6354034e+00  -8.0460920e+00  -8.1884492e+00  -1.2014560e+01  -1.1759502e+01  -1.5879396e+01   1.0331235e+01  -4.3442516e+00  -3.9452182e+00  -1.4975931e+01  -1.4635341e+01  -7.5390779e-01   7.2808495e+00  -1.2935137e+01  -1.5060726e+01   0.0000000e+00   0.0000000e+00   0.0000000e+00   0.0000000e+00
  -9.1536062e+00  -6.1582777e+00  -7.8029054e+00   1.1453920e+01   1.8551748e+00  -8.3271942e-01  -8.9977315e+00  -9.6065707e+00  -1.1365724e+01  -1.2931422e+01  -1.7215338e+01   9.7170830e+00  -3.2703199e+00  -3.5201703e+00  -1.7546799e+01  -1.6321793e+01   1.0052650e+00   5.9991256e+00  -1.4304899e+01  -1.4561842e+01   0.0000000e+00   0.0000000e+00   0.0000000e+00   0.0000000e+00
  -9.0569482e+00  -5.7698404e+00  -6.0143408e+00   1.2656306e+01   2.7541049e+00  -6.4304510e-01  -9.8769094e+00  -1.0862330e+01  -1.0900320e+01  -1.3942782e+01  -1.8828768e+01   9.3692930e+00  -3.0069590e+00  -3.9299063e+00  -2.0216492e+01  -1.8033282e+01   2.1417477e+00   5.0548122e+00  -1.6661760e+01  -1.4136198e+01   0.0000000e+00   0.0000000e+00   0.0000000e+00   0.0000000e+00
  -9.7318347e+00  -5.7391456e+00  -4.0111941e+00   1.2643392e+01   1.8505382e+00  -1.7000785e+00  -1.1241867e+01  -1.2172123e+01  -1.1049667e+01  -1.5149176e+01  -2.0592931e+01   8.3209581e+00  -4.0748810e+00  -5.4311110e+00  -2.3087977e+01  -1.9824068e+01   1.9551943e+00   3.6317766e+00  -1.9954251e+01  -1.4483370e+01   0.0000000e+00   0.0000000e+00   0.0000000e+00   0.0000000e+00
  -1.1669541e+01  -6.5485088e+00  -2.7534767e+00   1.1198609e+01  -1.0455416e+00  -4.1996971e+00  -1.3531039e+01  -1.3729103e+01  -1.1888632e+01  -1.6610031e+01  -2.2194108e+01   6.1030689e+00  -6.4865414e+00  -7.8051890e+00  -2.5938313e+01  -2.1565202e+01   2.2117758e-01   1.3410379e+00  -2.3686550e+01  -1.5804761e+01   0.0000000e+00   0.0000000e+00   0.0000000e+00   0.0000000e+00
  -1.4713492e+01  -8.2939936e+00  -2.8943024e+00   8.6774446e+00  -5.4296254e+00  -7.7476115e+00  -1.6782698e+01  -1.5558203e+01  -1.3109615e+01  -1.8048064e+01  -2.3331233e+01   2.9247671e+00  -9.7061979e+00  -1.0408366e+01  -2.8269494e+01  -2.2987212e+01  -2.6897666e+00  -1.6294327e+00  -2.7052129e+01  -1.7600623e+01   0.0000000e+00   0.0000000e+00   0.0000000e+00   0.0000000e+00
  -1.8203594e+01  -1.0701324e+01  -4.4841619e+00   5.8216641e+00  -1.0311712e+01  -1.1553985e+01  -2.0535473e+01  -1.7475550e+01  -1.4214040e+01  -1.9056038e+01  -2.3939858e+01  -5.2102914e-01  -1.2883933e+01  -1.2501367e+01  -2.9555594e+01  -2.3833292e+01  -6.0052435e+00  -4.7049261e+00  -2.9252065e+01  -1.8972165e+01   0.0000000e+00   0.0000000e+00   0.0000000e+00   0.0000000e+00
  -2.1310296e+01  -1.3292398e+01  -6.9532002e+00   3.4075934e+00  -1.4617742e+01  -1.4808156e+01  -2.4004437e+01  -1.9172352e+01  -1.4817023e+01  -1.9415209e+01  -2.4265706e+01  -3.4333363e+00  -1.5246396e+01  -1.3656501e+01  -2.9554550e+01  -2.4038941e+01  -8.9223876e+00  -7.2920182e+00  -2.9845935e+01  -1.9224091e+01   0.0000000e+00   0.0000000e+00   0.0000000e+00   0.0000000e+00
  -2.3398715e+01  -1.5578931e+01  -9.3464103e+00   1.8989534e+00  -1.7610009e+01  -1.7000195e+01  -2.6431281e+01  -2.0360650e+01  -1.4893081e+01  -1.9303985e+01  -2.4733304e+01  -5.2728598e+00  -1.6462976e+01  -1.3983367e+01  -2.8510631e+01  -2.3830343e+01  -1.0965550e+01  -9.0969295e+00  -2.8958037e+01  -1.8327536e+01   0.0000000e+00   0.0000000e+00   0.0000000e+00   0.0000000e+00
  -2.4291208e+01  -1.7232201e+01  -1.0743323e+01   1.2537415e+00  -1.9165742e+01  -1.8069502e+01  -2.7397996e+01  -2.0908734e+01  -1.4813887e+01  -1.9251746e+01  -2.5719399e+01  -5.9846154e+00  -1.6797578e+01  -1.4050537e+01  -2.7125775e+01  -2.3674745e+01  -1.2166359e+01  -1.0241407e+01  -2.7253311e+01  -1.6956069e+01   0.0000000e+00   0.0000000e+00   0.0000000e+00   0.0000000e+00
  -2.4321947e+01  -1.8211300e+01  -1.0709148e+01   9.8760078e-01  -1.9775501e+01  -1.8375151e+01  -2.6960918e+01  -2.0917933e+01  -1.5140134e+01  -1.9863913e+01  -2.7382236e+01  -5.9725208e+00  -1.6942672e+01  -1.4575452e+01  -2.6295424e+01  -2.4095495e+01  -1.2980324e+01  -1.1149852e+01  -2.5710300e+01  -1.6132271e+01   0.0000000e+00   0.0000000e+00   0.0000000e+00   0.0000000e+00
  -2.4140689e+01  -1.8778241e+01  -9.5198489e+00   4.7014538e-01  -2.0229483e+01  -1.8515771e+01  -2.5586996e+01  -2.0697423e+01  -1.6281927e+01  -2.1484067e+01  -2.9607819e+01  -5.8273455e+00  -1.7615761e+01  -1.6053390e+01  -2.6721869e+01  -2.5432031e+01  -1.3980134e+01  -1.2278891e+01  -2.5266797e+01  -1.6713427e+01   0.0000000e+00   0.0000000e+00   0.0000000e+00   0.0000000e+00
  -2.4357678e+01  -1.9333229e+01  -7.9820955e+00  -7.2653627e-01  -2.1159535e+01  -1.9053963e+01  -2.3943615e+01  -2.0617014e+01  -1.8238464e+01  -2.3986775e+01  -3.2044582e+01  -5.9649944e+00  -1.9157219e+01  -1.8489856e+01  -2.8583356e+01  -2.7651183e+01  -1.5501560e+01  -1.3831680e+01  -2.6438744e+01  -1.8961316e+01   0.0000000e+00   0.0000000e+00   0.0000000e+00   0.0000000e+00
  -2.5233879e+01  -2.0145528e+01  -6.9609351e+00  -2.6310657e+00  -2.2727437e+01  -2.0253594e+01  -2.2626138e+01  -2.0901531e+01  -2.0576897e+01  -2.6810257e+01  -3.4195924e+01  -6.3980555e+00  -2.1361169e+01  -2.1353753e+01  -3.1424870e+01  -3.0300537e+01  -1.7449734e+01  -1.5623165e+01  -2.9065284e+01  -2.2393445e+01   0.0000000e+00   0.0000000e+00   0.0000000e+00   0.0000000e+00
  -2.6593750e+01  -2.1189628e+01  -6.9546283e+00  -4.8916457e+00  -2.4641444e+01  -2.1958094e+01  -2.1944971e+01  -2.1513084e+01  -2.2648879e+01  -2.9207821e+01  -3.5582442e+01  -6.7627534e+00  -2.3609200e+01  -2.3799010e+01  -3.4347339e+01  -3.2653460e+01  -1.9359575e+01  -1.7187579e+01  -3.2352824e+01  -2.6014872e+01   0.0000000e+00   0.0000000e+00   0.0000000e+00   0.0000000e+00
  -2.7988166e+01  -2.2232835e+01  -7.9752798e+00  -6.9434805e+00  -2.6428197e+01  -2.3686038e+01  -2.1886755e+01  -2.2230922e+01  -2.3908303e+01  -3.0590922e+01  -3.5964426e+01  -6.5564664e+00  -2.5199946e+01  -2.5080770e+01  -3.6427824e+01  -3.4025260e+01  -2.0651507e+01  -1.8073718e+01  -3.5269816e+01  -2.8833386e+01   0.0000000e+00   0.0000000e+00   0.0000000e+00   0.0000000e+00
  -2.8979631e+01  -2.3079182e+01  -9.7101870e+00  -8.2419270e+00  -2.7721765e+01  -2.4904020e+01  -2.2252414e+01  -2.2864996e+01  -2.4157288e+01  -3.0784796e+01  -3.5507327e+01  -5.4362791e+00  -2.5681014e+01  -2.4936790e+01  -3.7155976e+01  -3.4125425e+01  -2.0934563e+01  -1.8144437e+01  -3.7088779e+01  -3.0348214e+01   0.0000000e+00   0.0000000e+00   0.0000000e+00   0.0000000e+00
  -2.9364408e+01  -2.3715143e+01  -1.1751040e+01  -8.4950604e+00  -2.8384075e+01  -2.5311724e+01  -2.2839173e+01  -2.3396557e+01  -2.3596359e+01  -3.0054976e+01  -3.4724810e+01  -3.4198990e+00  -2.5016600e+01  -2.3666820e+01  -3.6631808e+01  -3.3221189e+01  -2.0196704e+01  -1.7669761e+01  -3.7705202e+01  -3.0689607e+01   0.0000000e+00   0.0000000e+00   0.0000000e+00   0.0000000e+00
  -2.9218169e+01  -2.4228829e+01  -1.3724726e+01  -7.8027707e+00  -2.8456447e+01  -2.4955687e+01  -2.3526239e+01  -2.3915250e+01  -2.2669567e+01  -2.8907416e+01  -3.4181593e+01  -8.9540723e-01  -2.3540728e+01  -2.1859530e+01  -3.5419605e+01  -3.1966165e+01  -1.8788334e+01  -1.7140566e+01  -3.7520514e+01  -3.0358019e+01   0.0000000e+00   0.0000000e+00   0.0000000e+00   0.0000000e+00
  -2.8784059e+01  -2.4636801e+01  -1.5317716e+01  -6.6083466e+00  -2.8067225e+01  -2.4123257e+01  -2.4243036e+01  -2.4446812e+01  -2.1815139e+01  -2.7811323e+01  -3.4153197e+01   1.5526074e+00  -2.1770848e+01  -2.0020042e+01  -3.4187797e+01  -3.0991975e+01  -1.7228606e+01  -1.6951832e+01  -3.7042811e+01  -2.9821788e+01   0.0000000e+00   0.0000000e+00   0.0000000e+00   0.0000000e+00
  -2.8301105e+01  -2.4821608e+01  -1.6274865e+01  -5.4665970e+00  -2.7382261e+01  -2.3129649e+01  -2.4895110e+01  -2.4865142e+01  -2.1260700e+01  -2.7000556e+01  -3.4471063e+01   3.4065150e+00  -2.0195574e+01  -1.8390692e+01  -3.3368653e+01  -3.0544707e+01  -1.5955671e+01  -1.7187171e+01  -3.6544043e+01  -2.9265984e+01   0.0000000e+00   0.0000000e+00   0.0000000e+00   0.0000000e+00
  -2.7866546e+01  -2.4609806e+01  -1.6430216e+01  -4.7622664e+00  -2.6575687e+01  -2.2151835e+01  -2.5323250e+01  -2.4958431e+01  -2.0942654e+01  -2.6410167e+01  -3.4622364e+01   4.4349655e+00  -1.9111731e+01  -1.7001630e+01  -3.2994059e+01  -3.0395381e+01  -1.5144144e+01  -1.7607162e+01  -3.5967641e+01  -2.8574216e+01   0.0000000e+00   0.0000000e+00   0.0000000e+00   0.0000000e+00
  -2.7389587e+01  -2.3869940e+01  -1.5763106e+01  -4.5430224e+00  -2.5773521e+01  -2.1186193e+01  -2.5327164e+01  -2.4557255e+01  -2.0568648e+01  -2.5740598e+01  -3.4024300e+01   4.7586195e+00  -1.8549438e+01  -1.5778599e+01  -3.2740546e+01  -3.0042401e+01  -1.4662649e+01  -1.7786057e+01  -3.5043948e+01  -2.7456497e+01   0.0000000e+00   0.0000000e+00   0.0000000e+00   0.0000000e+00
  -2.6648168e+01  -2.2544834e+01  -1.4431559e+01  -4.5375324e+00  -2.4987311e+01  -2.0106466e+01  -2.4733822e+01  -2.3608132e+01  -1.9789947e+01  -2.4624339e+01  -3.2331138e+01   4.7514693e+00  -1.8301635e+01  -1.4580849e+01  -3.2129121e+01  -2.9038455e+01  -1.4175784e+01  -1.7294501e+01  -3.3470365e+01  -2.5623162e+01   0.0000000e+00   0.0000000e+00   0.0000000e+00   0.0000000e+00
  -2.5402976e+01  -2.0638414e+01  -1.2739497e+01  -4.3124045e+00  -2.4091259e+01  -1.8746256e+01  -2.3450705e+01  -2.2165713e+01  -1.8381096e+01  -2.2823881e+01  -2.9611319e+01   4.8762258e+00  -1.8029600e+01  -1.3193876e+01  -3.0760024e+01  -2.7224709e+01  -1.3316618e+01  -1.5848982e+01  -3.1044975e+01  -2.2942704e+01   0.0000000e+00   0.0000000e+00   0.0000000e+00   0.0000000e+00
  -2.3496858e+01  -1.8208483e+01  -1.1040999e+01  -3.4768686e+00  -2.2865302e+01  -1.6953851e+01  -2.1469765e+01  -2.0366415e+01  -1.6311932e+01  -2.0352832e+01  -2.6289572e+01   5.5523473e+00  -1.7383218e+01  -1.1361860e+01  -2.8460884e+01  -2.4761524e+01  -1.1823551e+01  -1.3394230e+01  -2.7723609e+01  -1.9551079e+01   0.0000000e+00   0.0000000e+00   0.0000000e+00   0.0000000e+00
  -2.0902961e+01  -1.5375418e+01  -9.6343935e+00  -1.8591632e+00  -2.1093465e+01  -1.4631944e+01  -1.8863712e+01  -1.8447347e+01  -1.3703074e+01  -1.7467329e+01  -2.2921156e+01   7.0556034e+00  -1.6106818e+01  -8.8951510e+00  -2.5325871e+01  -2.2017583e+01  -9.5957479e+00  -1.0133821e+01  -2.3637373e+01  -1.5903235e+01   0.0000000e+00   0.0000000e+00   0.0000000e+00   0.0000000e+00
  -1.7733273e+01  -1.2318394e+01  -8.7002983e+00   4.0913737e-01  -1.8692883e+01  -1.1796493e+01  -1.5817854e+01  -1.6777374e+01  -1.0765712e+01  -1.4571104e+01  -1.9996298e+01   9.4139147e+00  -1.4140845e+01  -5.8072118e+00  -2.1709506e+01  -1.9447480e+01  -6.7039040e+00  -6.5189080e+00  -1.9104197e+01  -1.2735814e+01   0.0000000e+00   0.0000000e+00   0.0000000e+00   0.0000000e+00
  -1.4229470e+01  -9.2391445e+00  -8.2948722e+00   2.9496052e+00  -1.5820826e+01  -8.6380516e+00  -1.2646936e+01  -1.5791334e+01  -7.7975386e+00  -1.2101004e+01  -1.7894111e+01   1.2348307e+01  -1.1696135e+01  -2.3926958e+00  -1.8193425e+01  -1.7501061e+01  -3.3972218e+00  -3.1574270e+00  -1.4609222e+01  -1.0872186e+01   0.0000000e+00   0.0000000e+00   0.0000000e+00   0.0000000e+00
  -1.0743310e+01  -6.3137287e+00  -8.3796478e+00   5.3063781e+00  -1.2890018e+01  -5.5218267e+00  -9.7198272e+00  -1.5798842e+01  -5.1938226e+00  -1.0419675e+01  -1.6914336e+01   1.5343401e+01  -9.2316309e+00   8.1484992e-01  -1.5464137e+01  -1.6521210e+01  -9.2977169e-02  -6.2560518e-01  -1.0711335e+01  -1.0878799e+01   0.0000000e+00   0.0000000e+00   0.0000000e+00   0.0000000e+00
  -7.7027031e+00  -3.6774747e+00  -8.8744257e+00   7.0989927e+00  -1.0471814e+01  -2.8962572e+00  -7.3273691e+00  -1.6805039e+01  -3.3985512e+00  -9.7303894e+00  -1.7251475e+01   1.7820535e+01  -7.3155188e+00   3.1953779e+00  -1.4089713e+01  -1.6628079e+01   2.6838171e+00   7.3962304e-01  -7.8947836e+00  -1.2765134e+01   0.0000000e+00   0.0000000e+00   0.0000000e+00   0.0000000e+00
  -5.5512486e+00  -1.4622845e+00  -9.7171470e+00   8.0464387e+00  -9.1395720e+00  -1.1593539e+00  -5.6104008e+00  -1.8507572e+01  -2.7924207e+00  -1.0048686e+01  -1.8889108e+01   1.9285467e+01  -6.4446496e+00   4.2339256e+00  -1.4309720e+01  -1.7669517e+01   4.4073132e+00   9.4212512e-01  -6.4432524e+00  -1.5966015e+01   0.0000000e+00   0.0000000e+00   0.0000000e+00   0.0000000e+00
  -4.6459063e+00   1.5985323e-01  -1.0884674e+01   7.9151765e+00  -9.3070724e+00  -5.5477674e-01  -4.5809880e+00  -2.0464424e+01  -3.5731446e+00  -1.1238829e+01  -2.1514044e+01   1.9390279e+01  -6.9030921e+00   3.6706391e+00  -1.5960604e+01  -1.9291131e+01   4.6759894e+00   2.7053419e-01  -6.3871634e+00  -1.9618103e+01   0.0000000e+00   0.0000000e+00   0.0000000e+00   0.0000000e+00
  -5.1204861e+00   1.0120517e+00  -1.2331250e+01   6.5570622e+00  -1.1072317e+01  -1.1142920e+00  -4.1518594e+00  -2.2269403e+01  -5.6674710e+00  -1.3057908e+01  -2.4547135e+01   1.7981665e+01  -8.6711314e+00   1.5684589e+00  -1.8534291e+01  -2.1067644e+01   3.3410816e+00  -8.4750549e-01  -7.5003920e+00  -2.2885349e+01   0.0000000e+00   0.0000000e+00   0.0000000e+00   0.0000000e+00
  -6.7747860e+00   1.0449822e+00  -1.3882655e+01   4.0869559e+00  -1.4097156e+01  -2.6304882e+00  -4.1220056e+00  -2.3615658e+01  -8.6940016e+00  -1.5157576e+01  -2.7300273e+01   1.5201049e+01  -1.1382427e+01  -1.6999536e+00  -2.1297996e+01  -2.2597034e+01   6.1608545e-01  -1.9730790e+00  -9.3116969e+00  -2.5128008e+01   0.0000000e+00   0.0000000e+00   0.0000000e+00   0.0000000e+00
  -9.0825879e+00   4.4948094e-01  -1.5207007e+01   1.0248576e+00  -1.7627340e+01  -4.6867421e+00  -4.1891828e+00  -2.4288738e+01  -1.2018478e+01  -1.7092554e+01  -2.9199034e+01   1.1563689e+01  -1.4381419e+01  -5.5392839e+00  -2.3460889e+01  -2.3543866e+01  -2.9082518e+00  -2.7343088e+00  -1.1170316e+01  -2.5963155e+01   0.0000000e+00   0.0000000e+00   0.0000000e+00   0.0000000e+00
  -1.1363354e+01  -3.9508753e-01  -1.5943338e+01  -1.8154113e+00  -2.0732909e+01  -6.7852937e+00  -4.0639882e+00  -2.4186079e+01  -1.4934909e+01  -1.8428218e+01  -2.9983999e+01   7.8744490e+00  -1.6926135e+01  -9.2827548e+00  -2.4406908e+01  -2.3692916e+01  -6.4230935e+00  -2.8993944e+00  -1.2435775e+01  -2.5344259e+01   0.0000000e+00   0.0000000e+00   0.0000000e+00   0.0000000e+00
  -1.3046584e+01  -1.1187432e+00  -1.5912206e+01  -3.6870049e+00  -2.2682161e+01  -8.5251111e+00  -3.6216489e+00  -2.3361905e+01  -1.6915703e+01  -1.8931473e+01  -2.9800043e+01   4.9438117e+00  -1.8469638e+01  -1.2360475e+01  -2.3926258e+01  -2.3025167e+01  -9.1965506e+00  -2.4460448e+00  -1.2752847e+01  -2.3609293e+01   0.0000000e+00   0.0000000e+00   0.0000000e+00   0.0000000e+00
  -1.3881153e+01  -1.5243530e+00  -1.5223019e+01  -4.2700584e+00  -2.3228304e+01  -9.7120598e+00  -2.9479914e+00  -2.2016966e+01  -1.7793551e+01  -1.8696993e+01  -2.9112946e+01   3.2415410e+00  -1.8862209e+01  -1.4419260e+01  -2.2302226e+01  -2.1745598e+01  -1.0835543e+01  -1.5535739e+00  -1.2235529e+01  -2.1351957e+01   0.0000000e+00   0.0000000e+00   0.0000000e+00   0.0000000e+00
  -1.3977937e+01  -1.5855432e+00  -1.4169278e+01  -3.7761741e+00  -2.2640620e+01  -1.0350078e+01  -2.2333503e+00  -2.0407402e+01  -1.7769322e+01  -1.8081112e+01  -2.8471245e+01   2.7023121e+00  -1.8357803e+01  -1.5365705e+01  -2.0177903e+01  -2.0213021e+01  -1.1360254e+01  -4.8688434e-01  -1.1401426e+01  -1.9147238e+01   0.0000000e+00   0.0000000e+00   0.0000000e+00   0.0000000e+00
  -1.3678847e+01  -1.3371743e+00  -1.2998957e+01  -2.7620662e+00  -2.1488359e+01  -1.0565095e+01  -1.6145780e+00  -1.8742319e+01  -1.7251163e+01  -1.7475289e+01  -2.8220416e+01   2.8172916e+00  -1.7436545e+01  -1.5339055e+01  -1.8268086e+01  -1.8810689e+01  -1.1080923e+01   5.4694918e-01  -1.0873851e+01  -1.7347919e+01   0.0000000e+00   0.0000000e+00   0.0000000e+00   0.0000000e+00
  -1.3339776e+01  -8.0702578e-01  -1.1753061e+01  -1.8217429e+00  -2.0327687e+01  -1.0522596e+01  -1.0941990e+00  -1.7141925e+01  -1.6626094e+01  -1.7086758e+01  -2.8319048e+01   2.9595348e+00  -1.6554895e+01  -1.4622766e+01  -1.7058675e+01  -1.7829083e+01  -1.0390304e+01   1.4622878e+00  -1.1038660e+01  -1.6086883e+01   0.0000000e+00   0.0000000e+00   0.0000000e+00   0.0000000e+00
  -1.3161322e+01  -4.8425978e-02  -1.0280474e+01  -1.3541504e+00  -1.9474495e+01  -1.0358787e+01  -5.7976379e-01  -1.5652343e+01  -1.6099098e+01  -1.6884737e+01  -2.8373336e+01   2.7221559e+00  -1.5957288e+01  -1.3526207e+01  -1.6626848e+01  -1.7395969e+01  -9.6013555e+00   2.2433443e+00  -1.1867070e+01  -1.5388061e+01   0.0000000e+00   0.0000000e+00   0.0000000e+00   0.0000000e+00
  -1.3168129e+01   8.0145068e-01  -8.3834487e+00  -1.4940083e+00  -1.8971463e+01  -1.0142051e+01   9.4788689e-03  -1.4266443e+01  -1.5687818e+01  -1.6729988e+01  -2.7892811e+01   2.0432282e+00  -1.5639268e+01  -1.2305499e+01  -1.6658163e+01  -1.7454801e+01  -8.8948393e+00   2.8276920e+00  -1.2984146e+01  -1.5205621e+01   0.0000000e+00   0.0000000e+00   0.0000000e+00   0.0000000e+00
  -1.3314364e+01   1.5399506e+00  -5.9851352e+00  -2.1686209e+00  -1.8713490e+01  -9.8841787e+00   6.5956283e-01  -1.2926109e+01  -1.5339197e+01  -1.6549656e+01  -2.6616387e+01   1.0890512e+00  -1.5455179e+01  -1.1161647e+01  -1.6640307e+01  -1.7784669e+01  -8.3550411e+00   3.0259236e+00  -1.3884813e+01  -1.5349495e+01   0.0000000e+00   0.0000000e+00   0.0000000e+00   0.0000000e+00
  -1.3575009e+01   2.0014078e+00  -3.2417364e+00  -3.1806320e+00  -1.8579176e+01  -9.5762429e+00   1.2613797e+00  -1.1528376e+01  -1.5027440e+01  -1.6386030e+01  -2.4680098e+01   8.7525345e-02  -1.5257039e+01  -1.0261039e+01  -1.6111639e+01  -1.8051756e+01  -8.0120253e+00   2.5634793e+00  -1.4127462e+01  -1.5420887e+01   0.0000000e+00   0.0000000e+00   0.0000000e+00   0.0000000e+00
  -1.3915508e+01   2.1513572e+00  -5.5967847e-01  -4.2462380e+00  -1.8445032e+01  -9.1892690e+00   1.6760279e+00  -9.9673828e+00  -1.4728364e+01  -1.6284194e+01  -2.2510130e+01  -7.0443618e-01  -1.4940245e+01  -9.6990223e+00  -1.4829755e+01  -1.7887255e+01  -7.8211656e+00   1.2376461e+00  -1.3423959e+01  -1.4893016e+01   0.0000000e+00   0.0000000e+00   0.0000000e+00   0.0000000e+00
  -1.4202771e+01   2.0823560e+00   1.5050300e+00  -5.0167767e+00  -1.8125950e+01  -8.6395950e+00   1.7947481e+00  -8.2167252e+00  -1.4331905e+01  -1.6166042e+01  -2.0564666e+01  -9.5000345e-01  -1.4399306e+01  -9.4337862e+00  -1.2829752e+01  -1.7006380e+01  -7.6081146e+00  -9.2499088e-01  -1.1684524e+01  -1.3355112e+01   0.0000000e+00   0.0000000e+00   0.0000000e+00   0.0000000e+00
  -1.4223688e+01   1.9095119e+00   2.4577677e+00  -5.1713832e+00  -1.7406793e+01  -7.8163980e+00   1.5407116e+00  -6.4206478e+00  -1.3657479e+01  -1.5864061e+01  -1.9166056e+01  -3.0776846e-01  -1.3524394e+01  -9.3179677e+00  -1.0437321e+01  -1.5371881e+01  -7.1030376e+00  -3.6519378e+00  -9.1077473e+00  -1.0814559e+01   0.0000000e+00   0.0000000e+00   0.0000000e+00   0.0000000e+00
  -1.3869557e+01   1.6429625e+00   2.1118257e+00  -4.5944540e+00  -1.6236911e+01  -6.7426711e+00   8.2658860e-01  -4.9326330e+00  -1.2629634e+01  -1.5310651e+01  -1.8510890e+01   1.3016051e+00  -1.2324554e+01  -9.2791514e+00  -8.2609581e+00  -1.3326945e+01  -6.1404750e+00  -6.5961489e+00  -6.2931408e+00  -7.8790232e+00   0.0000000e+00   0.0000000e+00   0.0000000e+00   0.0000000e+00
  -1.3342559e+01   1.1258458e+00   7.2460467e-01  -3.5169728e+00  -1.4933563e+01  -5.7666459e+00  -4.7060767e-01  -4.2380233e+00  -1.1469239e+01  -1.4693230e+01  -1.8713656e+01   3.4577590e+00  -1.1084766e+01  -9.5058921e+00  -7.0821183e+00  -1.1557548e+01  -4.9093307e+00  -9.5816950e+00  -4.2215720e+00  -5.6435370e+00   0.0000000e+00   0.0000000e+00   0.0000000e+00   0.0000000e+00
  -1.3171759e+01   8.3036917e-02  -1.1023886e+00  -2.4783244e+00  -1.4150531e+01  -5.5601079e+00  -2.4607689e+00  -4.7534049e+00  -1.0698238e+01  -1.4399791e+01  -1.9739309e+01   5.3193447e+00  -1.0364331e+01  -1.0426381e+01  -7.5749095e+00  -1.0818108e+01  -4.0084781e+00  -1.2719997e+01  -3.9625688e+00  -5.2447769e+00   0.0000000e+00   0.0000000e+00   0.0000000e+00   0.0000000e+00
  -1.3961141e+01  -1.7327763e+00  -2.7250114e+00  -2.0927153e+00  -1.4546194e+01  -6.8134575e+00  -5.1148259e+00  -6.5890481e+00  -1.0903771e+01  -1.4767632e+01  -2.1296637e+01   6.0510757e+00  -1.0747170e+01  -1.2429970e+01  -9.9473734e+00  -1.1538436e+01  -4.1770732e+00  -1.6281360e+01  -6.1624559e+00  -7.2844494e+00   0.0000000e+00   0.0000000e+00   0.0000000e+00   0.0000000e+00
  -1.6007760e+01  -4.3645302e+00  -3.7533942e+00  -2.7495880e+00  -1.6365591e+01  -9.7846993e+00  -8.1459292e+00  -9.4155265e+00  -1.2401884e+01  -1.5818886e+01  -2.2881669e+01   5.3136966e+00  -1.2473812e+01  -1.5517490e+01  -1.3736473e+01  -1.3551526e+01  -5.8418279e+00  -2.0409838e+01  -1.0599933e+01  -1.1472639e+01   0.0000000e+00   0.0000000e+00   0.0000000e+00   0.0000000e+00
  -1.9057626e+01  -7.5490624e+00  -4.1527805e+00  -4.4228819e+00  -1.9258096e+01  -1.4031859e+01  -1.1039379e+01  -1.2541145e+01  -1.5021309e+01  -1.7190199e+01  -2.4018312e+01   3.4580308e+00  -1.5223308e+01  -1.9155191e+01  -1.7948296e+01  -1.6133176e+01  -8.8000363e+00  -2.4905289e+01  -1.6151748e+01  -1.6737940e+01   0.0000000e+00   0.0000000e+00   0.0000000e+00   0.0000000e+00
  -2.2400695e+01  -1.0783224e+01  -4.1450565e+00  -6.6959736e+00  -2.2472374e+01  -1.8563895e+01  -1.3291034e+01  -1.5196874e+01  -1.8154397e+01  -1.8333727e+01  -2.4525732e+01   1.2886307e+00  -1.8230192e+01  -2.2474313e+01  -2.1513824e+01  -1.8360809e+01  -1.2271658e+01  -2.9250372e+01  -2.1277117e+01  -2.1751381e+01   0.0000000e+00   0.0000000e+00   0.0000000e+00   0.0000000e+00
  -2.5256610e+01  -1.3549437e+01  -4.0470838e+00  -8.9728288e+00  -2.5259298e+01  -2.2334026e+01  -1.4703539e+01  -1.6889028e+01  -2.1046604e+01  -1.8858329e+01  -2.4594443e+01  -4.1628047e-01  -2.0664796e+01  -2.4697297e+01  -2.3786273e+01  -1.9581361e+01  -1.5275864e+01  -3.2866032e+01  -2.4737471e+01  -2.5536455e+01   0.0000000e+00   0.0000000e+00   0.0000000e+00   0.0000000e+00
  -2.7164724e+01  -1.5556257e+01  -4.1446929e+00  -1.0733608e+01  -2.7169886e+01  -2.4731587e+01  -1.5478732e+01  -1.7601618e+01  -2.3138335e+01  -1.8753919e+01  -2.4613649e+01  -1.2900530e+00  -2.2005848e+01  -2.5494519e+01  -2.4755937e+01  -1.9679229e+01  -1.7063890e+01  -3.5395326e+01  -2.6069054e+01  -2.7799947e+01   0.0000000e+00   0.0000000e+00   0.0000000e+00   0.0000000e+00
  -2.8105617e+01  -1.6820926e+01  -4.6050188e+00  -1.1700742e+01  -2.8092694e+01  -2.5756302e+01  -1.6019787e+01  -1.7710744e+01  -2.4262570e+01  -1.8343170e+01  -2.4903197e+01  -1.4576732e+00  -2.2183223e+01  -2.5053502e+01  -2.4883834e+01  -1.8988826e+01  -1.7363217e+01  -3.6819270e+01  -2.5553703e+01  -2.8858806e+01   0.0000000e+00   0.0000000e+00   0.0000000e+00   0.0000000e+00
  -2.8339710e+01  -1.7554837e+01  -5.4236832e+00  -1.1883197e+01  -2.8133994e+01  -2.5840023e+01  -1.6649462e+01  -1.7694394e+01  -2.4634236e+01  -1.8050052e+01  -2.5565293e+01  -1.3594741e+00  -2.1491140e+01  -2.3889576e+01  -2.4753690e+01  -1.7998955e+01  -1.6384477e+01  -3.7387284e+01  -2.3868534e+01  -2.9342545e+01   0.0000000e+00   0.0000000e+00   0.0000000e+00   0.0000000e+00
  -2.8171193e+01  -1.7975730e+01  -6.4438615e+00  -1.1531071e+01  -2.7515943e+01  -2.5521283e+01  -1.7505295e+01  -1.7877204e+01  -2.4696026e+01  -1.8195822e+01  -2.6525137e+01  -1.5049230e+00  -2.0418000e+01  -2.2577924e+01  -2.4811125e+01  -1.7128587e+01  -1.4678704e+01  -3.7476308e+01  -2.1772114e+01  -2.9924424e+01   0.0000000e+00   0.0000000e+00   0.0000000e+00   0.0000000e+00
  -2.7820306e+01  -1.8195994e+01  -7.4479632e+00  -1.1016712e+01  -2.6533107e+01  -2.5191212e+01  -1.8626615e+01  -1.8364403e+01  -2.4912016e+01  -1.8921929e+01  -2.7639833e+01  -2.2802274e+00  -1.9492095e+01  -2.1543055e+01  -2.5270413e+01  -1.6680684e+01  -1.2925683e+01  -3.7456902e+01  -1.9967885e+01  -3.1152610e+01   0.0000000e+00   0.0000000e+00   0.0000000e+00   0.0000000e+00
  -2.7409014e+01  -1.8224907e+01  -8.2438883e+00  -1.0655235e+01  -2.5490152e+01  -2.4999919e+01  -2.0027846e+01  -1.9100861e+01  -2.5573005e+01  -2.0180196e+01  -2.8732118e+01  -3.8177769e+00  -1.9132743e+01  -2.0944491e+01  -2.6095926e+01  -1.6846971e+01  -1.1698743e+01  -3.7573695e+01  -1.9011606e+01  -3.3290700e+01   0.0000000e+00   0.0000000e+00   0.0000000e+00   0.0000000e+00
  -2.6967374e+01  -1.8017737e+01  -8.6851113e+00  -1.0540684e+01  -2.4587353e+01  -2.4900534e+01  -2.1631549e+01  -1.9912817e+01  -2.6670441e+01  -2.1723270e+01  -2.9551621e+01  -5.9197663e+00  -1.9494485e+01  -2.0663620e+01  -2.7001754e+01  -1.7628300e+01  -1.1268406e+01  -3.7861268e+01  -1.9137600e+01  -3.6136743e+01   0.0000000e+00   0.0000000e+00   0.0000000e+00   0.0000000e+00
  -2.6429378e+01  -1.7510572e+01  -8.6675168e+00  -1.0520860e+01  -2.3837468e+01  -2.4766855e+01  -2.3181859e+01  -2.0518506e+01  -2.7900058e+01  -2.3135306e+01  -2.9788623e+01  -8.0876287e+00  -2.0383933e+01  -2.0394992e+01  -2.7536949e+01  -1.8723130e+01  -1.1528466e+01  -3.8148604e+01  -2.0107319e+01  -3.8959029e+01   0.0000000e+00   0.0000000e+00   0.0000000e+00   0.0000000e+00
  -2.5677036e+01  -1.6650921e+01  -8.1763538e+00  -1.0358491e+01  -2.3116004e+01  -2.4515881e+01  -2.4328156e+01  -2.0610022e+01  -2.8817696e+01  -2.3980812e+01  -2.9218926e+01  -9.7030734e+00  -2.1352761e+01  -1.9816993e+01  -2.7311228e+01  -1.9566801e+01  -1.2091297e+01  -3.8170326e+01  -2.1298881e+01  -4.0722414e+01   0.0000000e+00   0.0000000e+00   0.0000000e+00   0.0000000e+00
  -2.4661970e+01  -1.5452569e+01  -7.3599681e+00  -9.9638455e+00  -2.2325058e+01  -2.4169026e+01  -2.4856416e+01  -2.0030698e+01  -2.9077766e+01  -2.4036914e+01  -2.7897976e+01  -1.0289973e+01  -2.1944490e+01  -1.8762590e+01  -2.6257888e+01  -1.9610451e+01  -1.2507170e+01  -3.7724932e+01  -2.2071941e+01  -4.0589778e+01   0.0000000e+00   0.0000000e+00   0.0000000e+00   0.0000000e+00
  -2.3517178e+01  -1.4045853e+01  -6.5209804e+00  -9.5038307e+00  -2.1524782e+01  -2.3817539e+01  -2.4830277e+01  -1.8909170e+01  -2.8612144e+01  -2.3440242e+01  -2.6231057e+01  -9.6938963e+00  -2.1925299e+01  -1.7290156e+01  -2.4732655e+01  -1.8689055e+01  -1.2480886e+01  -3.6777658e+01  -2.2154889e+01  -3.8419466e+01   0.0000000e+00   0.0000000e+00   0.0000000e+00   0.0000000e+00
  -2.2534310e+01  -1.2658832e+01  -5.9687440e+00  -9.2969556e+00  -2.0908668e+01  -2.3536961e+01  -2.4482168e+01  -1.7599901e+01  -2.7641109e+01  -2.2611048e+01  -2.4831561e+01  -8.0827381e+00  -2.1341954e+01  -1.5623554e+01  -2.3351055e+01  -1.7184860e+01  -1.1969364e+01  -3.5454283e+01  -2.1755391e+01  -3.4903862e+01   0.0000000e+00   0.0000000e+00   0.0000000e+00   0.0000000e+00
  -2.1990281e+01  -1.1515143e+01  -5.8196275e+00  -9.5846596e+00  -2.0648247e+01  -2.3347492e+01  -2.3977590e+01  -1.6457694e+01  -2.6526658e+01  -2.2001266e+01  -2.4245267e+01  -5.8239051e+00  -2.0410142e+01  -1.4033115e+01  -2.2667996e+01  -1.5814722e+01  -1.1141155e+01  -3.3969991e+01  -2.1341849e+01  -3.1218993e+01   0.0000000e+00   0.0000000e+00   0.0000000e+00   0.0000000e+00
  -2.1947589e+01  -1.0716501e+01  -5.9068279e+00  -1.0352320e+01  -2.0749919e+01  -2.3255689e+01  -2.3307335e+01  -1.5636060e+01  -2.5570471e+01  -2.1843020e+01  -2.4693977e+01  -3.3487614e+00  -1.9357892e+01  -1.2742673e+01  -2.2897895e+01  -1.5168059e+01  -1.0260460e+01  -3.2563740e+01  -2.1296585e+01  -2.8401868e+01   0.0000000e+00   0.0000000e+00   0.0000000e+00   0.0000000e+00
  -2.2189491e+01  -1.0203725e+01  -5.8846700e+00  -1.1317886e+01  -2.1047024e+01  -2.3303829e+01  -2.2400229e+01  -1.5066458e+01  -2.4868127e+01  -2.2035761e+01  -2.5950255e+01  -1.0483029e+00  -1.8329115e+01  -1.1879548e+01  -2.3811881e+01  -1.5325389e+01  -9.5663662e+00  -3.1446438e+01  -2.1678691e+01  -2.6852011e+01   0.0000000e+00   0.0000000e+00   0.0000000e+00   0.0000000e+00
  -2.2353574e+01  -9.8326184e+00  -5.4569248e+00  -1.2086929e+01  -2.1326548e+01  -2.3542858e+01  -2.1312540e+01  -1.4595832e+01  -2.4288973e+01  -2.2202089e+01  -2.7392628e+01   8.1037215e-01  -1.7369006e+01  -1.1449006e+01  -2.4836400e+01  -1.5820094e+01  -9.1931590e+00  -3.0739682e+01  -2.2209343e+01  -2.6243612e+01   0.0000000e+00   0.0000000e+00   0.0000000e+00   0.0000000e+00
  -2.2166344e+01  -9.5057618e+00  -4.5712674e+00  -1.2366289e+01  -2.1471616e+01  -2.3946090e+01  -2.0296737e+01  -1.4130855e+01  -2.3584589e+01  -2.1872317e+01  -2.8239724e+01   2.1382829e+00  -1.6463816e+01  -1.1333696e+01  -2.5298174e+01  -1.5946755e+01  -9.1507567e+00  -3.0421722e+01  -2.2448492e+01  -2.5848043e+01   0.0000000e+00   0.0000000e+00   0.0000000e+00   0.0000000e+00
  -2.1592826e+01  -9.2533998e+00  -3.4639795e+00  -1.2095289e+01  -2.1491716e+01  -2.4366535e+01  -1.9693006e+01  -1.3676503e+01  -2.2553446e+01  -2.0715024e+01  -2.7884661e+01   3.0222269e+00  -1.5593853e+01  -1.1327106e+01  -2.4715301e+01  -1.5190468e+01  -9.3490081e+00  -3.0321887e+01  -2.2040445e+01  -2.5023427e+01   0.0000000e+00   0.0000000e+00   0.0000000e+00   0.0000000e+00
  -2.0796672e+01  -9.2061592e+00  -2.5426964e+00  -1.1425796e+01  -2.1428099e+01  -2.4609945e+01  -1.9747530e+01  -1.3286364e+01  -2.1154835e+01  -1.8701874e+01  -2.6175600e+01   3.6646576e+00  -1.4758535e+01  -1.1199946e+01  -2.3015277e+01  -1.3508861e+01  -9.6303115e+00  -3.0179105e+01  -2.0893199e+01  -2.3576357e+01   0.0000000e+00   0.0000000e+00   0.0000000e+00   0.0000000e+00
  -1.9981820e+01  -9.4999826e+00  -2.1751168e+00  -1.0601574e+01  -2.1249562e+01  -2.4572429e+01  -2.0494233e+01  -1.3006332e+01  -1.9511805e+01  -1.6126252e+01  -2.3495851e+01   4.2884748e+00  -1.3961297e+01  -1.0789721e+01  -2.0581822e+01  -1.1331175e+01  -9.7995380e+00  -2.9747053e+01  -1.9214890e+01  -2.1822518e+01   0.0000000e+00   0.0000000e+00   0.0000000e+00   0.0000000e+00
  -1.9268582e+01  -1.0198681e+01  -2.4892924e+00  -9.8402962e+00  -2.0856310e+01  -2.4305986e+01  -2.1748902e+01  -1.2851086e+01  -1.7831539e+01  -1.3483673e+01  -2.0595636e+01   5.0297865e+00  -1.3188889e+01  -1.0079409e+01  -1.8097992e+01  -9.3188564e+00  -9.6721167e+00  -2.8901956e+01  -1.7409225e+01  -2.0354118e+01   0.0000000e+00   0.0000000e+00   0.0000000e+00   0.0000000e+00
  -1.8680099e+01  -1.1274948e+01  -3.2913028e+00  -9.2782328e+00  -2.0187007e+01  -2.3939665e+01  -2.3176818e+01  -1.2793298e+01  -1.6316660e+01  -1.1283723e+01  -1.8248103e+01   5.8569854e+00  -1.2421901e+01  -9.2045932e+00  -1.6242271e+01  -8.0377098e+00  -9.1490015e+00  -2.7695194e+01  -1.5889212e+01  -1.9667070e+01   0.0000000e+00   0.0000000e+00   0.0000000e+00   0.0000000e+00
  -1.8198912e+01  -1.2618247e+01  -4.1549928e+00  -8.9740996e+00  -1.9318763e+01  -2.3539337e+01  -2.4386462e+01  -1.2743547e+01  -1.5111403e+01  -9.8609813e+00  -1.6887867e+01   6.5747584e+00  -1.1663405e+01  -8.3615701e+00  -1.5371884e+01  -7.6974528e+00  -8.2826320e+00  -2.6319726e+01  -1.4896127e+01  -1.9858568e+01   0.0000000e+00   0.0000000e+00   0.0000000e+00   0.0000000e+00
  -1.7819508e+01  -1.4026349e+01  -4.6425018e+00  -8.9431942e+00  -1.8469435e+01  -2.3051856e+01  -2.5035964e+01  -1.2539608e+01  -1.4278068e+01  -9.2427562e+00  -1.6416378e+01   6.9312390e+00  -1.0948253e+01  -7.6793610e+00  -1.5355038e+01  -8.0697935e+00  -7.2777591e+00  -2.5014713e+01  -1.4401622e+01  -2.0562757e+01   0.0000000e+00   0.0000000e+00   0.0000000e+00   0.0000000e+00
  -1.7560820e+01  -1.5201693e+01  -4.5285246e+00  -9.1888386e+00  -1.7906500e+01  -2.2378906e+01  -2.4944722e+01  -1.1989620e+01  -1.3791567e+01  -9.1416405e+00  -1.6294189e+01   6.7618488e+00  -1.0327345e+01  -7.1625823e+00  -1.5656857e+01  -8.6302504e+00  -6.4056934e+00  -2.3968633e+01  -1.4132708e+01  -2.1167809e+01   0.0000000e+00   0.0000000e+00   0.0000000e+00   0.0000000e+00
  -1.7439535e+01  -1.5821561e+01  -3.8902694e+00  -9.6955062e+00  -1.7820059e+01  -2.1487765e+01  -2.4165806e+01  -1.0979710e+01  -1.3556216e+01  -9.1046866e+00  -1.5878669e+01   6.0830617e+00  -9.8428473e+00  -6.7369408e+00  -1.5642064e+01  -8.8633623e+00  -5.8683250e+00  -2.3272795e+01  -1.3714638e+01  -2.1185695e+01   0.0000000e+00   0.0000000e+00   0.0000000e+00   0.0000000e+00
  -1.7421442e+01  -1.5691533e+01  -3.0127432e+00  -1.0372209e+01  -1.8211518e+01  -2.0442310e+01  -2.2951507e+01  -9.5815212e+00  -1.3442174e+01  -8.7424055e+00  -1.4796008e+01   5.1169418e+00  -9.4931038e+00  -6.3171961e+00  -1.4912496e+01  -8.5519925e+00  -5.6781375e+00  -2.2930235e+01  -1.2874781e+01  -2.0519072e+01   0.0000000e+00   0.0000000e+00   0.0000000e+00   0.0000000e+00
  -1.7389654e+01  -1.4879274e+01  -2.1967526e+00  -1.0995443e+01  -1.8851370e+01  -1.9339105e+01  -2.1603419e+01  -8.0700264e+00  -1.3320520e+01  -7.8876838e+00  -1.3108057e+01   4.2719921e+00  -9.1892466e+00  -5.8214463e+00  -1.3476110e+01  -7.8555639e+00  -5.6162243e+00  -2.2882891e+01  -1.1600566e+01  -1.9437426e+01   0.0000000e+00   0.0000000e+00   0.0000000e+00   0.0000000e+00
  -1.7179042e+01  -1.3704785e+01  -1.6283844e+00  -1.1232980e+01  -1.9362357e+01  -1.8238003e+01  -2.0310994e+01  -6.8326458e+00  -1.3083897e+01  -6.5989548e+00  -1.1193406e+01   4.0707607e+00  -8.7463326e+00  -5.1651289e+00  -1.1674003e+01  -7.1353409e+00  -5.3077090e+00  -2.3033741e+01  -1.0153377e+01  -1.8328234e+01   0.0000000e+00   0.0000000e+00   0.0000000e+00   0.0000000e+00
  -1.6677962e+01  -1.2575224e+01  -1.3893066e+00  -1.0772589e+01  -1.9411625e+01  -1.7164910e+01  -1.9109062e+01  -6.2265047e+00  -1.2664772e+01  -5.0605002e+00  -9.4737604e+00   4.9906224e+00  -7.9569480e+00  -4.3003162e+00  -9.9525903e+00  -6.6867839e+00  -4.4018399e+00  -2.3278720e+01  -8.9306111e+00  -1.7461502e+01   0.0000000e+00   0.0000000e+00   0.0000000e+00   0.0000000e+00
  -1.5924200e+01  -1.1788721e+01  -1.5331864e+00  -9.4901373e+00  -1.8888064e+01  -1.6164451e+01  -1.7966433e+01  -6.4393732e+00  -1.2073070e+01  -3.4978156e+00  -8.2057002e+00   7.2455726e+00  -6.7284499e+00  -3.2711010e+00  -8.6395776e+00  -6.5963738e+00  -2.7732367e+00  -2.3556165e+01  -8.2686392e+00  -1.6915139e+01   0.0000000e+00   0.0000000e+00   0.0000000e+00   0.0000000e+00
  -1.5119604e+01  -1.1458185e+01  -2.1052482e+00  -7.5668326e+00  -1.7948067e+01  -1.5332012e+01  -1.6897903e+01  -7.3966394e+00  -1.1457992e+01  -2.1655065e+00  -7.4702108e+00   1.0619405e+01  -5.1965555e+00  -2.2151462e+00  -7.8544327e+00  -6.8055410e+00  -6.3707046e-01  -2.3895359e+01  -8.3131345e+00  -1.6629211e+01   0.0000000e+00   0.0000000e+00   0.0000000e+00   0.0000000e+00
  -1.4559206e+01  -1.1585328e+01  -3.0880944e+00  -5.4929727e+00  -1.6938686e+01  -1.4801999e+01  -1.6011702e+01  -8.7833673e+00  -1.1154793e+01  -1.3566541e+00  -7.3052618e+00   1.4467354e+01  -3.7330428e+00  -1.3276918e+00  -7.5859652e+00  -7.2695668e+00   1.4810070e+00  -2.4447700e+01  -9.0336701e+00  -1.6511321e+01   0.0000000e+00   0.0000000e+00   0.0000000e+00   0.0000000e+00
  -1.4514466e+01  -1.2158433e+01  -4.3582077e+00  -3.9207494e+00  -1.6278639e+01  -1.4711193e+01  -1.5492417e+01  -1.0215229e+01  -1.1633818e+01  -1.3434622e+00  -7.7927005e+00   1.7921777e+01  -2.8307931e+00  -8.4138211e-01  -7.8365970e+00  -8.0228522e+00   2.9155195e+00  -2.5472733e+01  -1.0348014e+01  -1.6541551e+01   0.0000000e+00   0.0000000e+00   0.0000000e+00   0.0000000e+00
  -1.5106183e+01  -1.3138596e+01  -5.7044742e+00  -3.3915206e+00  -1.6331793e+01  -1.5145590e+01  -1.5541162e+01  -1.1452219e+01  -1.3301105e+01  -2.2439048e+00  -8.9749233e+00   2.0216638e+01  -2.9180787e+00  -9.9363849e-01  -8.6734568e+00  -9.0816998e+00   3.1163364e+00  -2.7232834e+01  -1.2222247e+01  -1.6805906e+01   0.0000000e+00   0.0000000e+00   0.0000000e+00   0.0000000e+00
  -1.6222982e+01  -1.4365527e+01  -6.8797825e+00  -4.0825694e+00  -1.7276909e+01  -1.6084880e+01  -1.6277317e+01  -1.2477538e+01  -1.6226915e+01  -3.9285988e+00  -1.0700920e+01   2.0959794e+01  -4.1926743e+00  -1.9316055e+00  -1.0134784e+01  -1.0315809e+01   1.8783408e+00  -2.9818567e+01  -1.4634819e+01  -1.7404139e+01   0.0000000e+00   0.0000000e+00   0.0000000e+00   0.0000000e+00
  -1.7561137e+01  -1.5540184e+01  -7.6598520e+00  -5.7506402e+00  -1.9023390e+01  -1.7387082e+01  -1.7639016e+01  -1.3387612e+01  -1.9980517e+01  -6.0688115e+00  -1.2616782e+01   2.0216224e+01  -6.5532393e+00  -3.6070358e+00  -1.2107477e+01  -1.1466923e+01  -5.7436878e-01  -3.3029650e+01  -1.7437931e+01  -1.8295412e+01   1.0000000e+03   0.0000000e+00   0.0000000e+00   0.0000000e+00
  -1.8785735e+01  -1.6356307e+01  -7.9219703e+00  -7.8958547e+00  -2.1238351e+01  -1.8834228e+01  -1.9363686e+01  -1.4216328e+01  -2.3706303e+01  -8.2749643e+00  -1.4349548e+01   1.8411448e+01  -9.6368668e+00  -5.7630106e+00  -1.4308262e+01  -1.2312749e+01  -3.6841380e+00  -3.6405403e+01  -2.0268379e+01  -1.9223315e+01   1.0000000e+03   0.0000000e+00   0.0000000e+00   0.0000000e+00
  -1.9702305e+01  -1.6683470e+01  -7.7252939e+00  -9.9998005e+00  -2.3485290e+01  -2.0210684e+01  -2.1093495e+01  -1.4850443e+01  -2.6433912e+01  -1.0196831e+01  -1.5697245e+01   1.6165162e+01  -1.2914503e+01  -8.0313124e+00  -1.6366847e+01  -1.2790189e+01  -6.7679754e+00  -3.9369012e+01  -2.2627433e+01  -1.9789321e+01   1.0000000e+03   3.0000000e+01   0.0000000e+00   0.0000000e+00
  -2.0333166e+01  -1.6663697e+01  -7.3238499e+00  -1.1702114e+01  -2.5410416e+01  -2.1385679e+01  -2.2551879e+01  -1.5089228e+01  -2.7493767e+01  -1.1561203e+01  -1.6649462e+01   1.4113566e+01  -1.5816844e+01  -1.0070289e+01  -1.7926322e+01  -1.2951351e+01  -9.2520472e+00  -4.1407550e+01  -2.4102417e+01  -1.9619235e+01   1.0000000e+03   3.0000000e+01   0.0000000e+00   0.0000000e+00
  -2.0885755e+01  -1.6664219e+01  -7.0752668e+00  -1.2884887e+01  -2.6889094e+01  -2.2381665e+01  -2.3672500e+01  -1.4788724e+01  -2.6841505e+01  -1.2223177e+01  -1.7279997e+01   1.2705055e+01  -1.7896987e+01  -1.1658925e+01  -1.8721193e+01  -1.2845103e+01  -1.0861055e+01  -4.2247828e+01  -2.4572503e+01  -1.8518345e+01   0.0000000e+00   3.0000000e+01   0.0000000e+00   0.0000000e+00
  -2.1636252e+01  -1.7101278e+01  -7.2804053e+00  -1.3659555e+01  -2.8037710e+01  -2.3367134e+01  -2.4582619e+01  -1.3981436e+01  -2.5084784e+01  -1.2231004e+01  -1.7665171e+01   1.2022215e+01  -1.8981174e+01  -1.2693250e+01  -1.8636890e+01  -1.2487742e+01  -1.1671968e+01  -4.1970104e+01  -2.4232125e+01  -1.6531372e+01   0.0000000e+00   3.0000000e+01   0.0000000e+00   0.0000000e+00
  -2.2744138e+01  -1.8194951e+01  -8.0125393e+00  -1.4242322e+01  -2.9046751e+01  -2.4504608e+01  -2.5435654e+01  -1.2882196e+01  -2.3133655e+01  -1.1797084e+01  -1.7880901e+01   1.1786912e+01  -1.9190341e+01  -1.3099334e+01  -1.7726158e+01  -1.1924321e+01  -1.1965759e+01  -4.0961250e+01  -2.3395588e+01  -1.3872400e+01   0.0000000e+00   3.0000000e+01   0.0000000e+00   0.0000000e+00
  -2.4074435e+01  -1.9773138e+01  -9.0027790e+00  -1.4776367e+01  -2.9937543e+01  -2.5715202e+01  -2.6206198e+01  -1.1773057e+01  -2.1670835e+01  -1.1148099e+01  -1.8016595e+01   1.1610051e+01  -1.8794051e+01  -1.2767001e+01  -1.6160931e+01  -1.1249816e+01  -1.1954278e+01  -3.9687916e+01  -2.2233393e+01  -1.0777892e+01   0.0000000e+00   3.0000000e+01   0.0000000e+00   0.0000000e+00
  -2.5179947e+01  -2.1269544e+01  -9.6823645e+00  -1.5232267e+01  -3.0462649e+01  -2.6576245e+01  -2.6622617e+01  -1.0860599e+01  -2.0831133e+01  -1.0400805e+01  -1.8165696e+01   1.1297838e+01  -1.8033406e+01  -1.1616118e+01  -1.4180154e+01  -1.0554138e+01  -1.1604141e+01  -3.8440296e+01  -2.0680708e+01  -7.4265557e+00   0.0000000e+00   3.0000000e+01   0.0000000e+00   0.0000000e+00
  -2.5519300e+01  -2.1974462e+01  -9.4470337e+00  -1.5457208e+01  -3.0278873e+01  -2.6518778e+01  -2.6329491e+01  -1.0225127e+01  -2.0325141e+01  -9.5976649e+00  -1.8414563e+01   1.0941763e+01  -1.7080597e+01  -9.7703893e+00  -1.2113503e+01  -9.8992680e+00  -1.0728826e+01  -3.7254002e+01  -1.8631142e+01  -4.0408946e+00   0.0000000e+00   3.0000000e+01   0.0000000e+00   0.0000000e+00
  -2.4777135e+01  -2.1418258e+01  -8.0385200e+00  -1.5306529e+01  -2.9260824e+01  -2.5223772e+01  -2.5171883e+01  -9.8889925e+00  -1.9838883e+01  -8.8247689e+00  -1.8830137e+01   1.0738539e+01  -1.6122534e+01  -7.6583497e+00  -1.0428997e+01  -9.3786335e+00  -9.2714309e+00  -3.6053568e+01  -1.6249798e+01  -1.0960772e+00   0.0000000e+00   3.0000000e+01   0.0000000e+00   0.0000000e+00
  -2.3041705e+01  -1.9638689e+01  -5.7823318e+00  -1.4737685e+01  -2.7661901e+01  -2.2902490e+01  -2.3361913e+01  -9.9070467e+00  -1.9313789e+01  -8.2217616e+00  -1.9407518e+01   1.0753543e+01  -1.5395188e+01  -5.8842230e+00  -9.6393547e+00  -9.1418034e+00  -7.4982682e+00  -3.4843576e+01  -1.4077701e+01   6.1815881e-01   0.0000000e+00   3.0000000e+01   0.0000000e+00   0.0000000e+00
  -2.0717378e+01  -1.7140184e+01  -3.4713297e+00  -1.3805622e+01  -2.5959569e+01  -2.0221893e+01  -2.1372673e+01  -1.0355979e+01  -1.8894088e+01  -7.8448153e+00  -1.9987751e+01   1.0857824e+01  -1.5061737e+01  -4.9175957e+00  -1.0010432e+01  -9.2721888e+00  -5.8933482e+00  -3.3753304e+01  -1.2761881e+01   2.8412468e-01   0.0000000e+00   3.0000000e+01   0.0000000e+00   0.0000000e+00
  -1.8267756e+01  -1.4570863e+01  -1.9209323e+00  -1.2578567e+01  -2.4516357e+01  -1.7917091e+01  -1.9621120e+01  -1.1196752e+01  -1.8677708e+01  -7.5467223e+00  -2.0234398e+01   1.0861618e+01  -1.5031079e+01  -4.8195962e+00  -1.1258748e+01  -9.6021130e+00  -4.8221721e+00  -3.2917581e+01  -1.2592125e+01  -2.4012731e+00   0.0000000e+00   3.0000000e+01   0.0000000e+00   0.0000000e+00
  -1.5984477e+01  -1.2343490e+01  -1.4571126e+00  -1.1042933e+01  -2.3345814e+01  -1.6358359e+01  -1.8156285e+01  -1.2118303e+01  -1.8545113e+01  -7.0263673e+00  -1.9741630e+01   1.0688035e+01  -1.4909114e+01  -5.1885153e+00  -1.2523565e+01  -9.6768007e+00  -4.2439720e+00  -3.2325365e+01  -1.3208579e+01  -6.8083604e+00   0.0000000e+00   3.0000000e+01   0.0000000e+00   0.0000000e+00
  -1.3912437e+01  -1.0449706e+01  -1.6705079e+00  -9.0878578e+00  -2.2157807e+01  -1.5360168e+01  -1.6574060e+01  -1.2528394e+01  -1.8199819e+01  -6.0133515e+00  -1.8240829e+01   1.0431929e+01  -1.4168278e+01  -5.3475034e+00  -1.2724265e+01  -8.9616331e+00  -3.7116395e+00  -3.1766536e+01  -1.3709745e+01  -1.1457688e+01   0.0000000e+00   3.0000000e+01   0.0000000e+00   0.0000000e+00
  -1.1936377e+01  -8.5592886e+00  -1.6191710e+00  -6.6222856e+00  -2.0615325e+01  -1.4348688e+01  -1.4245566e+01  -1.1769965e+01  -1.7348433e+01  -4.4252135e+00  -1.5774151e+01   1.0277898e+01  -1.2436091e+01  -4.6669938e+00  -1.1110209e+01  -7.1457243e+00  -2.6650529e+00  -3.0917316e+01  -1.3092813e+01  -1.4635682e+01   0.0000000e+00   3.0000000e+01   0.0000000e+00   0.0000000e+00
  -9.9392993e+00  -6.2974137e+00  -3.6343971e-01  -3.7581620e+00  -1.8591762e+01  -1.2755411e+01  -1.0729733e+01  -9.4554292e+00  -1.5866659e+01  -2.3762233e+00  -1.2692190e+01   1.0365189e+01  -9.7145724e+00  -2.8581382e+00  -7.6384503e+00  -4.2959259e+00  -7.9920389e-01  -2.9504089e+01  -1.0741518e+01  -1.5166543e+01   0.0000000e+00   3.0000000e+01   0.0000000e+00   0.0000000e+00
  -7.9180668e+00  -3.5056008e+00   2.5152837e+00  -8.8997037e-01  -1.6258055e+01  -1.0359536e+01  -6.0936803e+00  -5.6949029e+00  -1.3857094e+01  -5.3937101e-02  -9.4469650e+00   1.0699120e+01  -6.4013980e+00  -8.6730866e-02  -2.9350200e+00  -7.7019596e-01   1.7483526e+00  -2.7433533e+01  -6.6782106e+00  -1.2868584e+01   0.0000000e+00   3.0000000e+01   0.0000000e+00   0.0000000e+00
  -5.9898895e+00  -3.4869061e-01   6.7299114e+00   1.4451207e+00  -1.3972351e+01  -7.3790231e+00  -9.3596398e-01  -1.0710845e+00  -1.1602547e+01   2.4151607e+00  -6.3309632e+00   1.1151268e+01  -3.1113653e+00   3.1437254e+00   2.0851925e+00   2.9747100e+00   4.4880990e+00  -2.4819713e+01  -1.4870026e+00  -8.5051960e+00   0.0000000e+00   3.0000000e+01   0.0000000e+00   0.0000000e+00
  -4.3067592e+00   2.7569049e+00   1.1497435e+01   2.8501189e+00  -1.2067477e+01  -4.3151356e+00   3.8674024e+00   3.5957278e+00  -9.4581040e+00   4.9958370e+00  -3.3797457e+00   1.1544719e+01  -3.9690839e-01   6.2516276e+00   6.6353886e+00   6.5082586e+00   6.8536720e+00  -2.1924490e+01   3.9714934e+00  -3.3797162e+00   0.0000000e+00   3.0000000e+01   0.0000000e+00   0.0000000e+00
  -2.9523187e+00   5.3334517e+00   1.5944837e+01   3.2817310e+00  -1.0672338e+01  -1.6947225e+00   7.5132475e+00   7.5300866e+00  -7.7156430e+00   7.6591781e+00  -5.0900233e-01   1.1792338e+01   1.4920114e+00   8.8166187e+00   1.0256534e+01   9.4619853e+00   8.4872836e+00  -1.9063296e+01   8.8526939e+00   1.1728424e+00   0.0000000e+00   3.0000000e+01   0.0000000e+00   0.0000000e+00
  -1.8953277e+00   7.0507561e+00   1.9444128e+01   3.0448636e+00  -9.6660281e+00   1.4238428e-01   9.5390299e+00   1.0200338e+01  -6.4885798e+00   1.0276736e+01   2.2588604e+00   1.2006867e+01   2.6855488e+00   1.0675012e+01   1.2774946e+01   1.1563003e+01   9.3913553e+00  -1.6518838e+01   1.2500919e+01   4.2197259e+00   0.0000000e+00   3.0000000e+01   0.0000000e+00   0.0000000e+00
  -1.0223919e+00   7.8570436e+00   2.1736295e+01   2.6050674e+00  -8.7731336e+00   1.1384208e+00   9.9229058e+00   1.1406459e+01  -5.6885193e+00   1.2600868e+01   4.6868435e+00   1.2477535e+01   3.5713333e+00   1.1866559e+01   1.4165275e+01   1.2700385e+01   9.8888345e+00  -1.4488843e+01   1.4513368e+01   5.4719911e+00   0.0000000e+00   3.0000000e+01   0.0000000e+00   0.0000000e+00
  -2.0714663e-01   7.9792709e+00   2.2878014e+01   2.3755186e+00  -7.7174984e+00   1.4976932e+00   9.0238554e+00   1.1287553e+01  -5.1184784e+00   1.4354525e+01   6.4144123e+00   1.3492021e+01   4.5551194e+00   1.2536318e+01   1.4465937e+01   1.2966369e+01   1.0438677e+01  -1.3060241e+01   1.4780499e+01   5.2490552e+00   0.0000000e+00   3.0000000e+01   0.0000000e+00   0.0000000e+00
   6.4418534e-01   7.7993537e+00   2.3112330e+01   2.5993615e+00  -6.3358697e+00   1.5816913e+00   7.4173987e+00   1.0255869e+01  -4.6166620e+00   1.5352549e+01   7.1519382e+00   1.5123457e+01   5.8494230e+00   1.2886104e+01   1.3778260e+01   1.2607633e+01   1.1415703e+01  -1.2183337e+01   1.3526607e+01   4.1882094e+00   0.0000000e+00   3.0000000e+01   0.0000000e+00   0.0000000e+00
   1.5777511e+00   7.6616134e+00   2.2720727e+01   3.3347928e+00  -4.6239302e+00   1.7472223e+00   5.6822740e+00   8.8325218e+00  -4.1618037e+00   1.5551417e+01   6.8147723e+00   1.7141761e+01   7.3832098e+00   1.3152001e+01   1.2280944e+01   1.1890059e+01   1.2946111e+01  -1.1664728e+01   1.1265926e+01   2.8636187e+00   0.0000000e+00   3.0000000e+01   0.0000000e+00   0.0000000e+00
   2.5629208e+00   7.6996600e+00   2.1882659e+01   4.4750638e+00  -2.7517813e+00   2.1761347e+00   4.1880368e+00   7.4141332e+00  -3.9020951e+00   1.4998800e+01   5.5139074e+00   1.9098325e+01   8.8325185e+00   1.3521783e+01   1.0194355e+01   1.0953280e+01   1.4836208e+01  -1.1237037e+01   8.6080594e+00   1.5192963e+00   0.0000000e+00   3.0000000e+01   0.0000000e+00   0.0000000e+00
   3.4357348e+00   7.7697833e+00   2.0604248e+01   5.7468103e+00  -1.0656762e+00   2.7733007e+00   2.9563511e+00   6.1035574e+00  -4.1073516e+00   1.3750900e+01   3.4549300e+00   2.0498846e+01   9.7328849e+00   1.3992323e+01   7.7053900e+00   9.7547680e+00   1.6603241e+01  -1.0707072e+01   5.9930075e+00   2.7933189e-02   0.0000000e+00   3.0000000e+01   0.0000000e+00   0.0000000e+00
   3.8855440e+00   7.5285715e+00   1.8787654e+01   6.7120180e+00  -3.0535017e-02   3.1881187e+00   1.6824318e+00   4.7454149e+00  -5.0503593e+00   1.1848022e+01   8.5490935e-01   2.0955834e+01   9.6452789e+00   1.4283390e+01   4.9195098e+00   8.1514956e+00   1.7613031e+01  -1.0088709e+01   3.5273706e+00  -1.9369188e+00   0.0000000e+00   3.0000000e+01   0.0000000e+00   0.0000000e+00
   3.5748888e+00   6.6261834e+00   1.6417535e+01   6.8704162e+00  -6.4359779e-02   2.9599599e+00  -5.3153582e-02   3.1601956e+00  -6.8495764e+00   9.3752405e+00  -2.0632347e+00   2.0287843e+01   8.3412284e+00   1.3925165e+01   1.8933059e+00   6.0730258e+00   1.7314340e+01  -9.6046030e+00   1.0332750e+00  -4.6104666e+00   0.0000000e+00   3.0000000e+01   0.0000000e+00   0.0000000e+00
   2.3717669e+00   4.9332001e+00   1.3719197e+01   5.9034573e+00  -1.3072815e+00   1.7420870e+00  -2.4739318e+00   1.3947510e+00  -9.3528346e+00   6.5493748e+00  -5.0271591e+00   1.8585875e+01   5.9360537e+00   1.2519761e+01  -1.2658262e+00   3.6736561e+00   1.5504169e+01  -9.5215899e+00  -1.7153751e+00  -7.8758373e+00   0.0000000e+00   3.0000000e+01   0.0000000e+00   0.0000000e+00
   5.2217121e-01   2.6787590e+00   1.1143082e+01   3.9259513e+00  -3.4756646e+00  -4.8817694e-01  -5.3895161e+00  -2.1911476e-01  -1.2147797e+01   3.7367783e+00  -7.6985599e+00   1.6236389e+01   2.8882314e+00   1.0031563e+01  -4.3158319e+00   1.3560253e+00   1.2482302e+01  -9.9198047e+00  -4.7173367e+00  -1.1195787e+01   0.0000000e+00   3.0000000e+01   0.0000000e+00   0.0000000e+00
  -1.4159592e+00   3.9024120e-01   9.1746045e+00   1.5160557e+00  -5.9424936e+00  -3.3550428e+00  -8.2335976e+00  -1.2405828e+00  -1.4713564e+01   1.3551814e+00  -9.7341086e+00   1.3846804e+01  -1.6063227e-01   6.8997720e+00  -6.8994160e+00  -3.6649462e-01   8.9618389e+00  -1.0571977e+01  -7.6246474e+00  -1.3814158e+01   0.0000000e+00   3.0000000e+01   0.0000000e+00   0.0000000e+00
  -2.8661876e+00  -1.3610409e+00   8.1084125e+00  -5.6408541e-01  -8.0279826e+00  -6.2150533e+00  -1.0355063e+01  -1.3751856e+00  -1.6630924e+01  -2.8910731e-01  -1.0900195e+01   1.2052137e+01  -2.6397561e+00   3.8698904e+00  -8.6753112e+00  -1.0983213e+00   5.7542797e+00  -1.1031035e+01  -9.8897978e+00  -1.5125695e+01   0.0000000e+00   3.0000000e+01   0.0000000e+00   0.0000000e+00
  -3.5446468e+00  -2.2566248e+00   7.9265895e+00  -1.7831167e+00  -9.3196221e+00  -8.4394791e+00  -1.1378649e+01  -6.2493036e-01  -1.7735828e+01  -1.1242622e+00  -1.1168324e+01   1.1270465e+01  -4.2731980e+00   1.6487067e+00  -9.4811993e+00  -7.5292443e-01   3.4169887e+00  -1.0859616e+01  -1.1096297e+01  -1.4982104e+01   0.0000000e+00   3.0000000e+01   0.0000000e+00   0.0000000e+00
  -3.5770511e+00  -2.3799608e+00   8.3240215e+00  -2.0994969e+00  -9.8246726e+00  -9.6973185e+00  -1.1400814e+01   7.2133417e-01  -1.8149703e+01  -1.3275476e+00  -1.0735123e+01   1.1532201e+01  -5.1594519e+00   6.1186636e-01  -9.4257459e+00   3.9583187e-01   2.0666839e+00  -9.8473328e+00  -1.1234286e+01  -1.3738584e+01   0.0000000e+00   3.0000000e+01   0.0000000e+00   0.0000000e+00
  -3.3784835e+00  -2.1361521e+00   8.8541409e+00  -1.9067882e+00  -9.8881728e+00  -1.0082454e+01  -1.0898093e+01   2.2089611e+00  -1.8191280e+01  -1.2348743e+00  -9.9599351e+00   1.2480980e+01  -5.6660746e+00   7.2288017e-01  -8.8501213e+00   1.8287234e+00   1.4311199e+00  -8.0964666e+00  -1.0711999e+01  -1.2013378e+01   0.0000000e+00   3.0000000e+01   0.0000000e+00   0.0000000e+00
  -3.4108201e+00  -2.0194633e+00   9.1410517e+00  -1.7480156e+00  -9.9632218e+00  -1.0020358e+01  -1.0416774e+01   3.3987753e+00  -1.8224759e+01  -1.2006274e+00  -9.2486288e+00   1.3547475e+01  -6.2060685e+00   1.6448519e+00  -8.1735412e+00   3.0095345e+00   1.0653751e+00  -5.9503864e+00  -1.0101622e+01  -1.0312127e+01   0.0000000e+00   3.0000000e+01   0.0000000e+00   0.0000000e+00
  -3.9698843e+00  -2.3873799e+00   9.0653087e+00  -2.0170774e+00  -1.0387622e+01  -1.0029270e+01  -1.0253873e+01   4.0513551e+00  -1.8522049e+01  -1.4813175e+00  -8.9306098e+00   1.4198805e+01  -7.0344476e+00   2.9162162e+00  -7.7097692e+00   3.6158640e+00   5.8981852e-01  -3.8329423e+00  -9.8247178e+00  -8.7556303e+00   0.0000000e+00   3.0000000e+01   0.0000000e+00   0.0000000e+00
  -5.0913603e+00  -3.3524768e+00   8.8054127e+00  -2.8131688e+00  -1.1271337e+01  -1.0489735e+01  -1.0326444e+01   4.2155137e+00  -1.9196346e+01  -2.1893385e+00  -9.1780734e+00   1.4137631e+01  -8.1731185e+00   4.0959130e+00  -7.5591967e+00   3.6506633e+00  -1.6759966e-01  -2.1013942e+00  -9.9935152e+00  -7.0846213e+00   0.0000000e+00   3.0000000e+01   0.0000000e+00   0.0000000e+00
  -6.5763982e+00  -4.7950058e+00   8.6851810e+00  -3.9642526e+00  -1.2494217e+01  -1.1526940e+01  -1.0275031e+01   4.1512625e+00  -2.0205292e+01  -3.3001358e+00  -9.9903187e+00   1.3376550e+01  -9.4633449e+00   4.8753574e+00  -7.6174980e+00   3.3714733e+00  -1.1533254e+00  -9.6136113e-01  -1.0451115e+01  -4.9224765e+00   0.0000000e+00   3.0000000e+01   0.0000000e+00   0.0000000e+00
  -8.0886492e+00  -6.4419907e+00   8.9242731e+00  -5.1373719e+00  -1.3760316e+01  -1.3004570e+01  -9.6970225e+00   4.1424009e+00  -2.1383892e+01  -4.6668865e+00  -1.1224929e+01   1.2186827e+01  -1.0666627e+01   5.1726442e+00  -7.6584457e+00   3.0864867e+00  -2.1503659e+00  -4.2828674e-01  -1.0904230e+01  -2.0920307e+00   0.0000000e+00   3.0000000e+01   0.0000000e+00   0.0000000e+00
  -9.2792700e+00  -7.9727068e+00   9.4837142e+00  -5.9697130e+00  -1.4689753e+01  -1.4583940e+01  -8.3664635e+00   4.3395494e+00  -2.2486905e+01  -6.0431213e+00  -1.2641682e+01   1.0963407e+01  -1.1552118e+01   5.1647605e+00  -7.4285593e+00   2.9629970e+00  -2.8734741e+00  -3.2271153e-01  -1.1049420e+01   1.2419592e+00   0.0000000e+00   3.0000000e+01   0.0000000e+00   0.0000000e+00
  -9.9133167e+00  -9.1276713e+00   1.0127595e+01  -6.2044233e+00  -1.4962081e+01  -1.5827980e+01  -6.3403249e+00   4.7248694e+00  -2.3250601e+01  -7.1595056e+00  -1.3948530e+01   1.0064120e+01  -1.1962091e+01   5.1960552e+00  -6.7303308e+00   2.9837455e+00  -3.0762876e+00  -3.1164663e-01  -1.0669800e+01   4.6774228e+00   0.0000000e+00   3.0000000e+01   0.0000000e+00   0.0000000e+00
  -9.9558183e+00  -9.7849236e+00   1.0630106e+01  -5.7968433e+00  -1.4468783e+01  -1.6347048e+01  -3.9109729e+00   5.1788578e+00  -2.3470409e+01  -7.8512966e+00  -1.4867025e+01   9.6912909e+00  -1.1849616e+01   5.5857542e+00  -5.4948868e+00   3.0553628e+00  -2.6431415e+00   1.3763544e-03  -9.6943384e+00   7.8027340e+00   0.0000000e+00   3.0000000e+01   0.0000000e+00   0.0000000e+00
  -9.5561846e+00  -9.9625968e+00   1.0932188e+01  -4.9142191e+00  -1.3356732e+01  -1.5948362e+01  -1.4394193e+00   5.5769059e+00  -2.3055872e+01  -8.1361499e+00  -1.5222064e+01   9.8711870e+00  -1.1256756e+01   6.4563259e+00  -3.8218204e+00   3.1452487e+00  -1.6173918e+00   9.5739965e-01  -8.1845953e+00   1.0361144e+01   0.0000000e+00   3.0000000e+01   0.0000000e+00   0.0000000e+00
  -8.9193717e+00  -9.7502643e+00   1.1128786e+01  -3.8117470e+00  -1.1900480e+01  -1.4709209e+01   8.1599522e-01   5.8613722e+00  -2.2026770e+01  -8.1472097e+00  -1.5013553e+01   1.0526506e+01  -1.0232017e+01   7.7025148e+00  -1.9455527e+00   3.3311383e+00  -1.4406011e-01   2.7277772e+00  -6.2432977e+00   1.2278197e+01   0.0000000e+00   3.0000000e+01   0.0000000e+00   0.0000000e+00
  -8.1599870e+00  -9.2347239e+00   1.1348093e+01  -2.6954193e+00  -1.0311390e+01  -1.2923367e+01   2.7550868e+00   6.0635155e+00  -2.0461681e+01  -7.9665210e+00  -1.4408491e+01   1.1569962e+01  -8.7592578e+00   9.1105359e+00  -1.2860089e-01   3.7515447e+00   1.6248737e+00   5.2468483e+00  -3.9279274e+00   1.3623034e+01   0.0000000e+00   3.0000000e+01   0.0000000e+00   0.0000000e+00
  -7.2655176e+00  -8.4850404e+00   1.1659187e+01  -1.6877597e+00  -8.6605668e+00  -1.0961643e+01   4.3633923e+00   6.2713079e+00  -1.8444534e+01  -7.5169600e+00  -1.3640009e+01   1.2948172e+01  -6.7749601e+00   1.0523270e+01   1.4545421e+00   4.5138636e+00   3.5844835e+00   8.2265563e+00  -1.2722094e+00   1.4589463e+01   0.0000000e+00   3.0000000e+01   0.0000000e+00   0.0000000e+00
  -6.1743437e+00  -7.5754208e+00   1.2068688e+01  -8.6455135e-01  -6.9507211e+00  -9.1345548e+00   5.6220965e+00   6.5735551e+00  -1.6036513e+01  -6.6090304e+00  -1.2871381e+01   1.4631925e+01  -4.2562026e+00   1.1935037e+01   2.7759752e+00   5.6234320e+00   5.6737263e+00   1.1265230e+01   1.6075750e+00   1.5492395e+01   0.0000000e+00   3.0000000e+01   0.0000000e+00   0.0000000e+00
  -4.8509182e+00  -6.5722084e+00   1.2569602e+01  -2.4726910e-01  -5.2052646e+00  -7.6050274e+00   6.5030578e+00   7.0281927e+00  -1.3274513e+01  -5.0811232e+00  -1.2114162e+01   1.6590849e+01  -1.2879062e+00   1.3473292e+01   3.9395957e+00   6.9800787e+00   7.8636966e+00   1.4025877e+01   4.4672821e+00   1.6724934e+01   0.0000000e+00   3.0000000e+01   0.0000000e+00   0.0000000e+00
  -3.2901896e+00  -5.4907724e+00   1.3175440e+01   2.5581998e-01  -3.4717002e+00  -6.3611106e+00   7.0208119e+00   7.6614353e+00  -1.0208632e+01  -2.9108762e+00  -1.1259775e+01   1.8763393e+01   1.9374781e+00   1.5290737e+01   5.1069180e+00   8.4385229e+00   1.0150062e+01   1.6393482e+01   7.0215809e+00   1.8655062e+01   0.0000000e+00   3.0000000e+01   0.0000000e+00   0.0000000e+00
  -1.5193241e+00  -4.3193156e+00   1.3898635e+01   8.4634864e-01  -1.7893128e+00  -5.2692839e+00   7.2369039e+00   8.4589458e+00  -6.9870334e+00  -2.4671501e-01  -1.0202257e+01   2.1010099e+01   5.1479844e+00   1.7424709e+01   6.3837577e+00   9.8677024e+00   1.2500112e+01   1.8488195e+01   9.0572970e+00   2.1490218e+01   0.0000000e+00   3.0000000e+01   0.0000000e+00   0.0000000e+00
   3.3757041e-01  -3.1370951e+00   1.4689961e+01   1.7194838e+00  -2.1277721e-01  -4.2094577e+00   7.1931996e+00   9.3374416e+00  -3.9310647e+00   2.6146796e+00  -8.9516291e+00   2.3080429e+01   8.0075545e+00   1.9704990e+01   7.7190334e+00   1.1155818e+01   1.4755294e+01   2.0509465e+01   1.0453902e+01   2.5162407e+01   0.0000000e+00   3.0000000e+01   0.0000000e+00   0.0000000e+00
   2.0026919e+00  -2.1999409e+00   1.5408877e+01   2.9320937e+00   1.1256133e+00  -3.2148068e+00   6.8595762e+00   1.0140204e+01  -1.5037410e+00   5.2763632e+00  -7.6524120e+00   2.4660091e+01   1.0147545e+01   2.1773211e+01   8.8889217e+00   1.2181322e+01   1.6592419e+01   2.2537271e+01   1.1137913e+01   2.9287924e+01   0.0000000e+00   3.0000000e+01   0.0000000e+00   0.0000000e+00
   3.1162993e+00  -1.8516479e+00   1.5882124e+01   4.3718285e+00   2.0147503e+00  -2.5008058e+00   6.1655806e+00   1.0694222e+01  -1.4637315e-01   7.3217052e+00  -6.5182722e+00   2.5507856e+01   1.1263252e+01   2.3206835e+01   9.5948930e+00   1.2803053e+01   1.7628228e+01   2.4439672e+01   1.1070021e+01   3.3231476e+01   0.0000000e+00   3.0000000e+01   0.0000000e+00   0.0000000e+00
   3.4320294e+00  -2.2869162e+00   1.6024710e+01   5.8288049e+00   2.2693890e+00  -2.3397834e+00   5.0941847e+00   1.0910671e+01  -6.9825777e-02   8.4451848e+00  -5.7448744e+00   2.5591664e+01   1.1258326e+01   2.3693395e+01   9.6300837e+00   1.2894797e+01   1.7617983e+01   2.5928207e+01   1.0292662e+01   3.6261545e+01   0.0000000e+00   3.0000000e+01   0.0000000e+00   0.0000000e+00
   2.9847942e+00  -3.3580880e+00   1.5923997e+01   7.0865938e+00   1.8678900e+00  -2.8658218e+00   3.7659915e+00   1.0861469e+01  -1.1284667e+00   8.5982209e+00  -5.4346607e+00   2.5111035e+01   1.0341037e+01   2.3190059e+01   9.0244096e+00   1.2408619e+01   1.6607108e+01   2.6700867e+01   8.9842136e+00   3.7748894e+01   0.0000000e+00   3.0000000e+01   0.0000000e+00   0.0000000e+00
   2.0793874e+00  -4.6099881e+00   1.5801215e+01   7.9658300e+00   9.9861221e-01  -3.9592439e+00   2.4475129e+00   1.0755839e+01  -2.8643678e+00   8.0395507e+00  -5.5519555e+00   2.4368410e+01   8.9701404e+00   2.1978347e+01   8.0725089e+00   1.1414054e+01   1.4927954e+01   2.6576697e+01   7.4534707e+00   3.7352147e+01   0.0000000e+00   3.0000000e+01   0.0000000e+00   0.0000000e+00
   1.0916584e+00  -5.5434560e+00   1.5860717e+01   8.3148591e+00  -4.1751394e-02  -5.2911454e+00   1.4569979e+00   1.0804687e+01  -4.7132694e+00   7.2065425e+00  -5.9369218e+00   2.3564971e+01   7.6447484e+00   2.0543773e+01   7.2005930e+00   1.0060288e+01   1.3047179e+01   2.5553214e+01   6.0506613e+00   3.5143987e+01   0.0000000e+00   3.0000000e+01   0.0000000e+00   0.0000000e+00
   2.3146378e-01  -5.9148355e+00   1.6134970e+01   7.9889528e+00  -1.0253350e+00  -6.4771532e+00   1.0134174e+00   1.1072586e+01  -6.2474436e+00   6.4831544e+00  -6.3702259e+00   2.2674215e+01   6.6700052e+00   1.9345814e+01   6.7464821e+00   8.4868058e+00   1.1370032e+01   2.3791036e+01   5.0417658e+00   3.1631162e+01   0.0000000e+00   3.0000000e+01   0.0000000e+00   0.0000000e+00
  -5.5179120e-01  -5.8546230e+00   1.6445101e+01   6.8673099e+00  -1.9056543e+00  -7.2322993e+00   1.1258956e+00   1.1450952e+01  -7.2915236e+00   6.0531581e+00  -6.6294141e+00   2.1509554e+01   6.0704457e+00   1.8654481e+01   6.8107141e+00   6.7884189e+00   1.0116098e+01   2.1574020e+01   4.5334937e+00   2.7624408e+01   0.0000000e+00   3.0000000e+01   0.0000000e+00   0.0000000e+00
  -1.4641453e+00  -5.7413607e+00   1.6512138e+01   4.9181806e+00  -2.7858943e+00  -7.4592468e+00   1.5900960e+00   1.1774550e+01  -7.8585287e+00   5.9324823e+00  -6.5085023e+00   1.9937218e+01   5.6954298e+00   1.8546104e+01   7.2749036e+00   5.0923115e+00   9.3045344e+00   1.9261068e+01   4.4936551e+00   2.3975633e+01   0.0000000e+00   3.0000000e+01   0.0000000e+00   0.0000000e+00
  -2.6700119e+00  -5.9462348e+00   1.6144393e+01   2.2699010e+00  -3.7866427e+00  -7.2573052e+00   2.0744567e+00   1.1960124e+01  -8.0215705e+00   6.0771729e+00  -5.8500126e+00   1.8037841e+01   5.3866764e+00   1.8971347e+01   7.9278531e+00   3.6518950e+00   8.8126213e+00   1.7207518e+01   4.8229447e+00   2.1293980e+01   0.0000000e+00   3.0000000e+01   0.0000000e+00   0.0000000e+00
  -4.1668004e+00  -6.6341941e+00   1.5372021e+01  -7.7167029e-01  -4.9278055e+00  -6.8692886e+00   2.2260934e+00   1.2027608e+01  -7.8776670e+00   6.4037552e+00  -4.6382000e+00   1.6062302e+01   5.0497389e+00   1.9766169e+01   8.5579660e+00   2.7925597e+00   8.4518324e+00   1.5650605e+01   5.3918711e+00   1.9768126e+01   0.0000000e+00   3.0000000e+01   0.0000000e+00   0.0000000e+00
  -5.8091441e+00  -7.7371829e+00   1.4436379e+01  -3.7909669e+00  -6.1102332e+00  -6.5945601e+00   1.7454386e+00   1.1992060e+01  -7.6205249e+00   6.7028120e+00  -3.1019405e+00   1.4228266e+01   4.6136961e+00   2.0612057e+01   8.9511066e+00   2.6847403e+00   8.0272179e+00   1.4598972e+01   6.0118091e+00   1.9147713e+01   0.0000000e+00   3.0000000e+01   0.0000000e+00   0.0000000e+00
  -7.4274904e+00  -9.0677338e+00   1.3643520e+01  -6.3959097e+00  -7.1932288e+00  -6.6885953e+00   4.3890700e-01   1.1756897e+01  -7.5787457e+00   6.5967772e+00  -1.7005915e+00   1.2549820e+01   3.9959864e+00   2.1077931e+01   8.8778330e+00   3.1441005e+00   7.3832680e+00   1.3802036e+01   6.4130874e+00   1.8875207e+01   0.0000000e+00   3.0000000e+01   0.0000000e+00   0.0000000e+00
  -8.9226951e+00  -1.0444383e+01   1.3184307e+01  -8.3468744e+00  -8.0918680e+00  -7.2673986e+00  -1.7163551e+00   1.1139690e+01  -8.0927561e+00   5.6846894e+00  -9.3304834e-01   1.0844930e+01   3.1556807e+00   2.0817242e+01   8.1757328e+00   3.6878976e+00   6.4549200e+00   1.2859330e+01   6.3251218e+00   1.8332035e+01   0.0000000e+00   3.0000000e+01   0.0000000e+00   0.0000000e+00
  -1.0262928e+01  -1.1736095e+01   1.3043357e+01  -9.5969148e+00  -8.8140545e+00  -8.2584969e+00  -4.5049879e+00   1.0018789e+01  -9.2868849e+00   3.8297841e+00  -1.0683862e+00   8.8984484e+00   2.1801759e+00   1.9805461e+01   6.8941891e+00   3.8392176e+00   5.3094245e+00   1.1435345e+01   5.6398383e+00   1.7113579e+01   0.0000000e+00   3.0000000e+01   5.0000000e+01   0.0000000e+00
  -1.1404833e+01  -1.2836129e+01   1.3051715e+01  -1.0206232e+01  -9.4120322e+00  -9.4346342e+00  -7.4624348e+00   8.4708532e+00  -1.0925228e+01   1.3754385e+00  -1.9752231e+00   6.6395672e+00   1.2926888e+00   1.8413837e+01   5.3541760e+00   3.4375948e+00   4.1356361e+00   9.4525673e+00   4.5257213e+00   1.5205249e+01   0.0000000e+00   3.0000000e+01   5.0000000e+01   0.0000000e+00
  -1.2223232e+01  -1.3625365e+01   1.3026306e+01  -1.0188196e+01  -9.8900653e+00  -1.0504805e+01  -9.9717219e+00   6.7917443e+00  -1.2478110e+01  -9.1000723e-01  -3.1546416e+00   4.2100039e+00   7.5449186e-01   1.7234091e+01   4.0362989e+00   2.7344212e+00   3.1747127e+00   7.1504871e+00   3.3900842e+00   1.2963519e+01   0.0000000e+00   3.0000000e+01   5.0000000e+01   0.0000000e+00
  -1.2522577e+01  -1.3962628e+01   1.2874550e+01  -9.4176332e+00  -1.0145923e+01  -1.1200477e+01  -1.1465057e+01   5.3889353e+00  -1.3363796e+01  -2.1740252e+00  -3.9553213e+00   1.9084169e+00   7.4287993e-01   1.6758793e+01   3.3599337e+00   2.2383617e+00   2.6417333e+00   4.9876998e+00   2.7057081e+00   1.0898556e+01   0.0000000e+00   3.0000000e+01   5.0000000e+01   0.0000000e+00
  -1.2137195e+01  -1.3711057e+01   1.2590344e+01  -7.7081774e+00  -1.0004433e+01  -1.1332262e+01  -1.1660405e+01   4.5993749e+00  -1.3230700e+01  -1.9154971e+00  -3.8699756e+00   7.5743071e-02   1.2844160e+00   1.7106692e+01   3.4855089e+00   2.4141146e+00   2.6748521e+00   3.4345174e+00   2.7892483e+00   9.3624422e+00   0.0000000e+00   3.0000000e+01   5.0000000e+01   0.0000000e+00
  -1.1057622e+01  -1.2800778e+01   1.2170451e+01  -5.0335542e+00  -9.3338694e+00  -1.0838920e+01  -1.0711576e+01   4.5088147e+00  -1.2144267e+01  -2.5122217e-01  -2.7849485e+00  -1.0333990e+00   2.2440233e+00   1.7934292e+01   4.2318260e+00   3.3792319e+00   3.2932817e+00   2.7445023e+00   3.6259611e+00   8.3236571e+00   0.0000000e+00   3.0000000e+01   5.0000000e+01   0.0000000e+00
  -9.4952477e+00  -1.1307305e+01   1.1533730e+01  -1.7247895e+00  -8.1671846e+00  -9.8430446e+00  -9.1684303e+00   4.8521969e+00  -1.0587272e+01   2.1368287e+00  -1.0668806e+00  -1.3869942e+00   3.3366967e+00   1.8567597e+01   5.1312779e+00   4.7491118e+00   4.3447261e+00   2.8135280e+00   4.8256454e+00   7.3787807e+00   0.0000000e+00   3.0000000e+01   5.0000000e+01   0.0000000e+00
  -7.8308727e+00  -9.4878142e+00   1.0520085e+01   1.5378706e+00  -6.7392176e+00  -8.6788915e+00  -7.7516349e+00   5.0681843e+00  -9.2556995e+00   4.3135094e+00   5.6824635e-01  -1.2698435e+00   4.1675355e+00   1.8287001e+01   5.5984791e+00   5.7483126e+00   5.4852298e+00   3.2056515e+00   5.7602291e+00   5.9989770e+00   0.0000000e+00   3.0000000e+01   5.0000000e+01   0.0000000e+00
  -6.4669850e+00  -7.7168151e+00   9.0095658e+00   3.9655042e+00  -5.4168657e+00  -7.8254816e+00  -7.0616619e+00   4.5416999e+00  -8.7450657e+00   5.4627123e+00   1.3575993e+00  -1.2340621e+00   4.3249206e+00   1.6632497e+01   5.1546241e+00   5.5876893e+00   6.2569486e+00   3.3451246e+00   5.8469759e+00   3.8520396e+00   0.0000000e+00   3.0000000e+01   5.0000000e+01   0.0000000e+00
  -5.6773490e+00  -6.3352600e+00   7.1059158e+00   4.9791144e+00  -4.5833170e+00  -7.7242256e+00  -7.3681149e+00   2.9569195e+00  -9.3114300e+00   5.1418708e+00   8.2759492e-01  -1.8853226e+00   3.5059905e+00   1.3580233e+01   3.6213544e+00   3.9223078e+00   6.2526929e+00   2.7806490e+00   4.8372954e+00   1.0089656e+00   0.0000000e+00   3.0000000e+01   5.0000000e+01   0.0000000e+00
  -5.5494510e+00  -5.5116646e+00   5.2106986e+00   4.4236960e+00  -4.5437895e+00  -8.5661120e+00  -8.5586283e+00   5.4642017e-01  -1.0835971e+01   3.3682223e+00  -9.9278481e-01  -3.6290005e+00   1.6225162e+00   9.5095919e+00   1.2006169e+00   1.0964788e+00   5.2742566e+00   1.3782850e+00   2.9429474e+00  -2.0654521e+00   0.0000000e+00   3.0000000e+01   5.0000000e+01   0.0000000e+00
  -6.0156946e+00  -5.2037341e+00   3.8470570e+00   2.6197606e+00  -5.4444472e+00  -1.0178214e+01  -1.0231355e+01  -1.9735523e+00  -1.2935465e+01   5.9297740e-01  -3.5629473e+00  -6.5099825e+00  -1.1307491e+00   5.0266285e+00  -1.5864780e+00  -2.0051971e+00   3.4168768e+00  -6.4456036e-01   7.3301802e-01  -4.7115073e+00   0.0000000e+00   3.0000000e+01   5.0000000e+01   0.0000000e+00
  -6.8807849e+00  -5.2099381e+00   3.3286636e+00   2.9134817e-01  -7.1695900e+00  -1.2070059e+01  -1.1860541e+01  -3.7742181e+00  -1.5066230e+01  -2.3915178e+00  -6.0127932e+00  -1.0171860e+01  -4.2497515e+00   7.9461632e-01  -4.0640485e+00  -4.4034368e+00   1.0793221e+00  -2.8116022e+00  -1.1187274e+00  -6.3460960e+00   0.0000000e+00   3.0000000e+01   5.0000000e+01   0.0000000e+00
  -7.8116725e+00  -5.2450984e+00   3.5598723e+00  -1.6180044e+00  -9.2778059e+00  -1.3611766e+01  -1.2974477e+01  -4.3390692e+00  -1.6599856e+01  -4.6547749e+00  -7.4617817e+00  -1.3933329e+01  -7.0016648e+00  -2.5719859e+00  -5.6169937e+00  -5.4706911e+00  -1.1182035e+00  -4.5366443e+00  -2.1029423e+00  -6.6730085e+00   0.0000000e+00   3.0000000e+01   5.0000000e+01   0.0000000e+00
  -8.3835695e+00  -5.0220075e+00   4.1413083e+00  -2.2582408e+00  -1.1107496e+01  -1.4276701e+01  -1.3311866e+01  -3.6628680e+00  -1.6992913e+01  -5.4752039e+00  -7.3881154e+00  -1.7028282e+01  -8.6817003e+00  -4.6222508e+00  -5.9102115e+00  -5.1292650e+00  -2.5544157e+00  -5.3161906e+00  -2.0661480e+00  -5.7535914e+00   0.0000000e+00   3.0000000e+01   5.0000000e+01   0.0000000e+00
  -8.2582222e+00  -4.3678399e+00   4.6550053e+00  -1.2345272e+00  -1.2064072e+01  -1.3859288e+01  -1.2917612e+01  -2.1523437e+00  -1.6070974e+01  -4.6947665e+00  -5.8890026e+00  -1.8977536e+01  -8.9589042e+00  -5.2185265e+00  -5.0346549e+00  -3.7641963e+00  -2.9034238e+00  -4.9488605e+00  -1.2666173e+00  -3.9480046e+00   0.0000000e+00   3.0000000e+01   5.0000000e+01   0.0000000e+00
  -7.4017765e+00  -3.3572991e+00   4.8654913e+00   1.1838990e+00  -1.1909143e+01  -1.2570635e+01  -1.2129733e+01  -3.8019414e-01  -1.4221848e+01  -2.8263594e+00  -3.6609003e+00  -1.9869119e+01  -8.0686241e+00  -4.6197461e+00  -3.4896664e+00  -1.9901805e+00  -2.3073355e+00  -3.6763479e+00  -2.6503571e-01  -1.7961292e+00   0.0000000e+00   3.0000000e+01   5.0000000e+01   0.0000000e+00
  -6.1582397e+00  -2.3645792e+00   4.7263676e+00   4.1641204e+00  -1.0857225e+01  -1.0961908e+01  -1.1442252e+01   1.1181142e+00  -1.2276081e+01  -8.0081134e-01  -1.6751429e+00  -2.0306564e+01  -6.6900545e+00  -3.4107855e+00  -1.9834155e+00  -4.2880145e-01  -1.2888607e+00  -2.1274056e+00   3.1056226e-01   1.0764421e-01   0.0000000e+00   3.0000000e+01   5.0000000e+01   0.0000000e+00
  -5.1053863e+00  -1.9428401e+00   4.2984852e+00   6.6705270e+00  -9.4609971e+00  -9.7085647e+00  -1.1290677e+01   1.9495667e+00  -1.1098667e+01   4.8604572e-01  -7.2673425e-01  -2.1041455e+01  -5.6020835e+00  -2.3124786e+00  -1.1443261e+00   4.4709373e-01  -4.8703479e-01  -1.0628667e+00   1.5860463e-02   1.2457882e+00   0.0000000e+00   3.0000000e+01   5.0000000e+01   0.0000000e+00
  -4.7902172e+00  -2.5583448e+00   3.7132492e+00   7.8760492e+00  -8.3985929e+00  -9.3479604e+00  -1.1852138e+01   1.9324984e+00  -1.1152628e+01   5.5237606e-01  -1.1036090e+00  -2.2560084e+01  -5.3517654e+00  -1.9553886e+00  -1.2807793e+00   4.1925388e-01  -4.0391887e-01  -1.0474292e+00  -1.2505976e+00   1.3220529e+00   0.0000000e+00   3.0000000e+01   5.0000000e+01   0.0000000e+00
  -5.4899428e+00  -4.3326987e+00   3.1773082e+00   7.4329938e+00  -8.2421786e+00  -1.0072418e+01  -1.2950374e+01   1.1648223e+00  -1.2297124e+01  -5.2600411e-01  -2.5167682e+00  -2.4877148e+01  -6.0829313e+00  -2.6681459e+00  -2.2794385e+00  -4.1988635e-01  -1.2546238e+00  -2.2111905e+00  -3.2228650e+00   3.7115276e-01   0.0000000e+00   3.0000000e+01   5.0000000e+01   0.0000000e+00
  -7.0815228e+00  -6.9517053e+00   2.9251706e+00   5.5470850e+00  -9.2236703e+00  -1.1648523e+01  -1.4105509e+01   3.3975374e-02  -1.3897604e+01  -2.2074908e+00  -4.2684160e+00  -2.7583784e+01  -7.5282089e+00  -4.3310504e+00  -3.6581271e+00  -1.6965713e+00  -2.8988604e+00  -4.2028332e+00  -5.3560432e+00  -1.2419011e+00   0.0000000e+00   3.0000000e+01   5.0000000e+01   0.0000000e+00
  -9.0494698e+00  -9.7795489e+00   3.0962337e+00   2.8938225e+00  -1.1065218e+01  -1.3489688e+01  -1.4709928e+01  -9.0703424e-01  -1.5143895e+01  -3.7368854e+00  -5.5462731e+00  -3.0050952e+01  -9.1257864e+00  -6.3813499e+00  -4.7467005e+00  -2.8871722e+00  -4.8460473e+00  -6.3324311e+00  -6.9882484e+00  -2.9522880e+00   0.0000000e+00   3.0000000e+01   5.0000000e+01   0.0000000e+00
  -1.0650407e+01  -1.2097693e+01   3.6368415e+00   4.1519259e-01  -1.3018871e+01  -1.4872217e+01  -1.4278958e+01  -1.1848408e+00  -1.5400565e+01  -4.4591735e+00  -5.7336079e+00  -3.1678683e+01  -1.0231229e+01  -8.0256423e+00  -4.9475136e+00  -3.5180839e+00  -6.3870914e+00  -7.8331025e+00  -7.5494929e+00  -4.1876457e+00   0.0000000e+00   3.0000000e+01   5.0000000e+01   0.0000000e+00
  -1.1209949e+01  -1.3357698e+01   4.3335604e+00  -9.8578848e-01  -1.4177655e+01  -1.5231390e+01  -1.2692866e+01  -6.4557868e-01  -1.4433618e+01  -4.0675348e+00  -4.6409643e+00  -3.2109327e+01  -1.0357588e+01  -8.5811463e+00  -3.9841212e+00  -3.3613081e+00  -6.8605080e+00  -8.1488344e+00  -6.7732077e+00  -4.5219115e+00   0.0000000e+00   3.0000000e+01   5.0000000e+01   0.0000000e+00
  -1.0428828e+01  -1.3362962e+01   4.9531185e+00  -7.8589443e-01  -1.3904690e+01  -1.4401892e+01  -1.0302074e+01   4.7162601e-01  -1.2436566e+01  -2.6723879e+00  -2.5689896e+00  -3.1333688e+01  -9.3392264e+00  -7.7525659e+00  -2.0117682e+00  -2.5363656e+00  -5.9311509e+00  -7.1374003e+00  -4.8155176e+00  -3.7435099e+00   0.0000000e+00   3.0000000e+01   5.0000000e+01   0.0000000e+00
  -8.5217869e+00  -1.2320379e+01   5.3604507e+00   9.3498255e-01  -1.2114740e+01  -1.2661841e+01  -7.7900081e+00   1.6867830e+00  -9.8948466e+00  -6.8527025e-01  -1.6253032e-01  -2.9656038e+01  -7.3611001e+00  -5.7021576e+00   4.7989485e-01  -1.4546808e+00  -3.7217856e+00  -5.0904072e+00  -2.1965455e+00  -1.8744093e+00   0.0000000e+00   3.0000000e+01   5.0000000e+01   0.0000000e+00
  -6.1011857e+00  -1.0734652e+01   5.5334798e+00   3.5358270e+00  -9.2639247e+00  -1.0559863e+01  -5.8333882e+00   2.5466904e+00  -7.4021765e+00   1.3746999e+00   1.8717610e+00  -2.7560490e+01  -4.8815805e+00  -2.9370213e+00   2.9048737e+00  -6.1986596e-01  -7.4855793e-01  -2.5674394e+00   4.1733916e-01   8.0821397e-01   0.0000000e+00   3.0000000e+01   5.0000000e+01   0.0000000e+00
  -3.8877880e+00  -9.1792483e+00   5.5090246e+00   6.1232215e+00  -6.1117866e+00  -8.6533216e+00  -4.7611121e+00   2.8237872e+00  -5.5061271e+00   3.0435390e+00   3.0349919e+00  -2.5565231e+01  -2.4991500e+00  -1.2105270e-01   4.8114333e+00  -3.8267883e-01   2.2723192e+00  -1.4754135e-01   2.4740280e+00   3.7733722e+00   0.0000000e+00   3.0000000e+01   5.0000000e+01   0.0000000e+00
  -2.4245510e+00  -8.0512582e+00   5.3266472e+00   7.9548955e+00  -3.4115315e+00  -7.3181434e+00  -4.4291400e+00   2.5491393e+00  -4.5798256e+00   4.0161169e+00   3.1722374e+00  -2.4113627e+01  -7.7983030e-01   2.1267364e+00   6.0029487e+00  -7.8131367e-01   4.6639753e+00   1.7771822e+00   3.7163138e+00   6.3436964e+00   0.0000000e+00   3.0000000e+01   5.0000000e+01   0.0000000e+00
  -1.9206582e+00  -7.4435629e+00   4.9882334e+00   8.7187171e+00  -1.6510178e+00  -6.6983432e+00  -4.3845093e+00   1.9169158e+00  -4.7166375e+00   4.1982698e+00   2.4443904e+00  -2.3491760e+01  -7.0644485e-02   3.4162721e+00   6.5344571e+00  -1.5503076e+00   6.0097982e+00   3.0851062e+00   4.2090745e+00   7.9257486e+00   0.0000000e+00   3.0000000e+01   5.0000000e+01   0.0000000e+00
  -2.2489489e+00  -7.1987516e+00   4.4298232e+00   8.5675253e+00  -9.2287582e-01  -6.7588251e+00  -4.2067332e+00   1.1513480e+00  -5.7075461e+00   3.6929189e+00   1.1821430e+00  -2.3763745e+01  -3.8313297e-01   3.6844306e+00   6.6103605e+00  -2.2820914e+00   6.2744906e+00   3.8674549e+00   4.2035329e+00   8.2516779e+00   0.0000000e+00   3.0000000e+01   5.0000000e+01   0.0000000e+00
  -3.0598820e+00  -7.0801204e+00   3.5294337e+00   7.9353954e+00  -9.6998617e-01  -7.3709039e+00  -3.8018492e+00   4.0352465e-01  -7.1518726e+00   2.7162672e+00  -2.9114658e-01  -2.4758152e+01  -1.4278639e+00   3.1450298e+00   6.4271714e+00  -2.6452507e+00   5.7536578e+00   4.2842185e+00   3.9174602e+00   7.4718572e+00   0.0000000e+00   3.0000000e+01   5.0000000e+01   0.0000000e+00
  -3.9560480e+00  -6.9196285e+00   2.1785287e+00   7.2628658e+00  -1.3747444e+00  -8.3774584e+00  -3.4426600e+00  -2.8807166e-01  -8.6392000e+00   1.4981431e+00  -1.7791576e+00  -2.6130851e+01  -2.7693401e+00   2.1274780e+00   6.0452093e+00  -2.5484231e+00   4.8797610e+00   4.4344219e+00   3.3846857e+00   6.0251259e+00   0.0000000e+00   0.0000000e+00   5.0000000e+01   0.0000000e+00
  -4.6481523e+00  -6.6497200e+00   3.9925929e-01   6.7925034e+00  -1.7670817e+00  -9.6044814e+00  -3.5109046e+00  -9.5999784e-01  -9.8628438e+00   2.4019801e-01  -3.2207083e+00  -2.7465743e+01  -3.9754915e+00   9.2856900e-01   5.3879684e+00  -2.1631892e+00   4.0262237e+00   4.3212921e+00   2.4981297e+00   4.3761776e+00   0.0000000e+00   0.0000000e+00   5.0000000e+01   0.0000000e+00
  -5.0125006e+00  -6.2382241e+00  -1.5607354e+00   6.5419568e+00  -1.9324953e+00  -1.0820922e+01  -4.1219056e+00  -1.6265015e+00  -1.0605314e+01  -8.6229242e-01  -4.5980063e+00  -2.8356409e+01  -4.6860617e+00  -2.2989291e-01   4.3870307e+00  -1.7763416e+00   3.4389283e+00   3.9257763e+00   1.2178922e+00   2.8162415e+00   0.0000000e+00   0.0000000e+00   5.0000000e+01   0.0000000e+00
  -5.0419899e+00  -5.6173500e+00  -3.2351837e+00   6.4225142e+00  -1.8160766e+00  -1.1719214e+01  -4.9254972e+00  -2.1877342e+00  -1.0694556e+01  -1.6144099e+00  -5.8330893e+00  -2.8479442e+01  -4.6518522e+00  -1.1701558e+00   3.1512706e+00  -1.5633009e+00   3.2754583e+00   3.3188158e+00  -2.4676237e-01   1.4592198e+00   0.0000000e+00   0.0000000e+00   5.0000000e+01   0.0000000e+00
  -4.7711883e+00  -4.6856962e+00  -4.0834073e+00   6.3600202e+00  -1.4937688e+00  -1.2006248e+01  -5.2556478e+00  -2.4280836e+00  -1.0058927e+01  -1.8961714e+00  -6.7774453e+00  -2.7708779e+01  -3.8189167e+00  -1.7548660e+00   1.9904429e+00  -1.4733363e+00   3.6254239e+00   2.6928543e+00  -1.4723193e+00   3.7822188e-01   0.0000000e+00   0.0000000e+00   5.0000000e+01   0.0000000e+00
  -4.2518015e+00  -3.3957738e+00  -3.7262796e+00   6.3189199e+00  -1.1327917e+00  -1.1577102e+01  -4.5282122e+00  -2.1291608e+00  -8.8537635e+00  -1.7665251e+00  -7.3078160e+00  -2.6234023e+01  -2.4161554e+00  -1.9362795e+00   1.2475506e+00  -1.3309901e+00   4.4585759e+00   2.2546175e+00  -2.0604182e+00  -2.9369246e-01   0.0000000e+00   0.0000000e+00   5.0000000e+01   0.0000000e+00
  -3.5713430e+00  -1.8682730e+00  -2.1605971e+00   6.2655404e+00  -9.0650315e-01  -1.0617903e+01  -2.6027860e+00  -1.2241000e+00  -7.4977092e+00  -1.4799726e+00  -7.4294261e+00  -2.4546931e+01  -9.2441269e-01  -1.7883897e+00   1.0683410e+00  -1.0460616e+00   5.5833191e+00   2.0586119e+00  -1.8720715e+00  -4.1925115e-01   0.0000000e+00   0.0000000e+00   5.0000000e+01   0.0000000e+00
  -2.8588596e+00  -4.3450780e-01   1.7027244e-01   6.1535347e+00  -8.8202752e-01  -9.5300111e+00   1.1962323e-01   1.1675108e-01  -6.5264975e+00  -1.3803761e+00  -7.2897648e+00  -2.3225905e+01   1.1564507e-01  -1.4756300e+00   1.2804223e+00  -7.3934798e-01   6.7013957e+00   1.9189982e+00  -1.0816231e+00  -2.2845556e-02   0.0000000e+00   0.0000000e+00   5.0000000e+01   0.0000000e+00
  -2.2467306e+00   4.6866227e-01   2.5179070e+00   5.9516523e+00  -9.7078540e-01  -8.7253693e+00   2.8876059e+00   1.5312714e+00  -6.3458970e+00  -1.7479060e+00  -7.0994506e+00  -2.2638056e+01   3.5951924e-01  -1.1801020e+00   1.4649323e+00  -6.9677796e-01   7.5415288e+00   1.4739360e+00  -6.6270182e-02   6.1470215e-01   0.0000000e+00   0.0000000e+00   5.0000000e+01   0.0000000e+00
  -1.8047738e+00   5.2458764e-01   4.1470246e+00   5.6895887e+00  -9.8332841e-01  -8.4222666e+00   4.9388789e+00   2.6277244e+00  -7.0367584e+00  -2.6754948e+00  -7.0197962e+00  -2.2769042e+01  -1.6374786e-01  -1.0059380e+00   1.1928107e+00  -1.1903440e+00   7.9984059e+00   3.8261931e-01   7.5536983e-01   1.0812788e+00   0.0000000e+00   0.0000000e+00   5.0000000e+01   0.0000000e+00
  -1.4906047e+00  -2.6268376e-01   4.6741480e+00   5.5023674e+00  -7.1970079e-01  -8.5399320e+00   5.8067639e+00   3.1806729e+00  -8.3094956e+00  -3.9963819e+00  -7.0767639e+00  -2.3280037e+01  -1.0409112e+00  -8.6818550e-01   3.0896692e-01  -2.2636457e+00   8.2109274e+00  -1.4480128e+00   1.0714890e+00   1.1123131e+00   0.0000000e+00   0.0000000e+00   5.0000000e+01   0.0000000e+00
  -1.1563824e+00  -1.5444721e+00   4.2278356e+00   5.6342316e+00  -1.7211954e-02  -8.7343640e+00   5.4710363e+00   3.2468670e+00  -9.6247392e+00  -5.2905292e+00  -7.1403840e+00  -2.3716463e+01  -1.6474482e+00  -4.2904897e-01  -9.0986835e-01  -3.6159998e+00   8.5226900e+00  -3.7599730e+00   7.9744463e-01   7.6990384e-01   0.0000000e+00   0.0000000e+00   5.0000000e+01   0.0000000e+00
  -6.1984498e-01  -2.7982964e+00   3.3401504e+00   6.3370119e+00   1.2232205e+00  -8.5636594e+00   4.3280387e+00   3.1310966e+00  -1.0431044e+01  -6.0234881e+00  -6.9823061e+00  -2.3732273e+01  -1.4512912e+00   8.1914323e-01  -1.8574249e+00  -4.6995717e+00   9.3009927e+00  -6.0551705e+00   1.2859668e-01   3.4843166e-01   0.0000000e+00   0.0000000e+00   5.0000000e+01   0.0000000e+00
   2.2687974e-01  -3.5816431e+00   2.6580316e+00   7.6657391e+00   2.9590607e+00  -7.7124771e+00   3.0212831e+00   3.2262657e+00  -1.0415108e+01  -5.8067594e+00  -6.3909444e+00  -2.3247805e+01  -3.1216154e-01   3.2984470e+00  -1.9284131e+00  -5.0029699e+00   1.0683912e+01  -7.8543288e+00  -5.3528014e-01   1.0805837e-01   0.0000000e+00   0.0000000e+00   5.0000000e+01   0.0000000e+00
   1.3206833e+00  -3.7315020e+00   2.6544389e+00   9.3208628e+00   4.8960755e+00  -6.1652125e+00   2.1966209e+00   3.8216925e+00  -9.6410736e+00  -4.6390607e+00  -5.2913530e+00  -2.2501143e+01   1.4007206e+00   7.0353641e+00  -8.6637800e-01  -4.3272434e+00   1.2415319e+01  -8.9328362e+00  -7.8508637e-01   9.5638645e-02   0.0000000e+00   0.0000000e+00   5.0000000e+01   0.0000000e+00
   2.4113272e+00  -3.4081344e+00   3.4779022e+00   1.0730830e+01   6.4919842e+00  -4.2258939e+00   2.2713159e+00   4.9816056e+00  -8.5016662e+00  -2.9426288e+00  -3.7985615e+00  -2.1950069e+01   2.9710745e+00   1.1508930e+01   1.1095989e+00  -2.8544821e+00   1.3913071e+01  -9.3897739e+00  -3.9361984e-01   1.9493900e-01   0.0000000e+00   0.0000000e+00   5.0000000e+01   0.0000000e+00
   3.1694382e+00  -2.9521769e+00   4.9751208e+00   1.1380108e+01   7.1770983e+00  -2.3633981e+00   3.3158900e+00   6.5453320e+00  -7.5106692e+00  -1.3399534e+00  -2.1634744e+00  -2.2035375e+01   3.6943444e+00   1.5798124e+01   3.4633351e+00  -9.9372835e-01   1.4564688e+01  -9.5283491e+00   6.2554140e-01   3.0500704e-01   0.0000000e+00   0.0000000e+00   5.0000000e+01   0.0000000e+00
   3.3634385e+00  -2.6529441e+00   6.8182710e+00   1.1121545e+01   6.6759116e+00  -9.8754285e-01   5.0752123e+00   8.2153157e+00  -7.0737840e+00  -3.2698848e-01  -6.5376978e-01  -2.2938990e+01   3.2062352e+00   1.8953425e+01   5.6206593e+00   8.2831976e-01   1.4058559e+01  -9.6636842e+00   2.0812910e+00   4.3354815e-01   0.0000000e+00   0.0000000e+00   5.0000000e+01   0.0000000e+00
   2.9681240e+00  -2.6152003e+00   8.6185628e+00   1.0191938e+01   5.1711365e+00  -3.1746894e-01   7.0581493e+00   9.6469021e+00  -7.3789393e+00  -7.7364287e-02   5.3698613e-01  -2.4506343e+01   1.5890346e+00   2.0362717e+01   7.1509522e+00   2.2710938e+00   1.2519089e+01  -1.0011498e+01   3.6817515e+00   6.0892575e-01   0.0000000e+00   0.0000000e+00   5.0000000e+01   0.0000000e+00
   2.1232617e+00  -2.8180788e+00   9.9662084e+00   8.9423077e+00   3.1775082e+00  -4.0719401e-01   8.6359665e+00   1.0492242e+01  -8.4244852e+00  -4.7667793e-01   1.3044610e+00  -2.6372512e+01  -7.5545117e-01   1.9933489e+01   7.7939096e+00   3.0727823e+00   1.0379640e+01  -1.0699362e+01   5.0815393e+00   7.1281586e-01   0.0000000e+00   0.0000000e+00   5.0000000e+01   0.0000000e+00
   1.0058645e+00  -3.2579916e+00   1.0464641e+01   7.5724966e+00   1.2460143e+00  -1.2411367e+00   9.1823515e+00   1.0433868e+01  -1.0087530e+01  -1.2895880e+00   1.6024619e+00  -2.8175241e+01  -3.3288929e+00   1.8059734e+01   7.4378395e+00   3.0331852e+00   8.1301705e+00  -1.1815456e+01   5.9475157e+00   4.0761487e-01   0.0000000e+00   0.0000000e+00   5.0000000e+01   0.0000000e+00
  -2.5248686e-01  -3.9934849e+00   9.8635315e+00   6.1107683e+00  -2.7488133e-01  -2.7668929e+00   8.2975618e+00   9.2703032e+00  -1.2148898e+01  -2.2962366e+00   1.4185340e+00  -2.9709166e+01  -5.7165990e+00   1.5428401e+01   6.1422398e+00   2.0552026e+00   6.1259566e+00  -1.3408211e+01   6.0619053e+00  -7.4910385e-01   0.0000000e+00   0.0000000e+00   5.0000000e+01   0.0000000e+00
  -1.5459141e+00  -5.0423460e+00   8.2579575e+00   4.5900270e+00  -1.2973734e+00  -4.8261692e+00   6.0404209e+00   7.0522117e+00  -1.4288512e+01  -3.3193011e+00   7.8478465e-01  -3.0958482e+01  -7.6719448e+00   1.2755532e+01   4.1776738e+00   2.2298524e-01   4.5400209e+00  -1.5428522e+01   5.4109201e+00  -3.0348700e+00   0.0000000e+00   0.0000000e+00   5.0000000e+01   0.0000000e+00
  -2.7343509e+00  -6.2559590e+00   6.1636952e+00   3.1815192e+00  -1.9036206e+00  -7.0744937e+00   2.9929160e+00   4.1744963e+00  -1.6118267e+01  -4.1834511e+00  -1.8334976e-01  -3.2035730e+01  -9.1153771e+00   1.0566911e+01   2.0008984e+00  -2.1540953e+00   3.4168582e+00  -1.7666263e+01   4.2105052e+00  -6.2797619e+00   0.0000000e+00   0.0000000e+00   5.0000000e+01   0.0000000e+00
  -3.6453663e+00  -7.3252378e+00   4.3236385e+00   2.1330100e+00  -2.2132451e+00  -9.0205488e+00   4.9719904e-02   1.3036054e+00  -1.7283315e+01  -4.6992459e+00  -1.2621510e+00  -3.3090874e+01  -1.0080131e+01   9.1092481e+00   1.3312826e-01  -4.5902903e+00   2.7352376e+00  -1.9754802e+01   2.8624319e+00  -9.7883946e+00   0.0000000e+00   0.0000000e+00   5.0000000e+01   0.0000000e+00
  -4.1668959e+00  -7.9429555e+00   3.3334405e+00   1.5851995e+00  -2.3044822e+00  -1.0220827e+01  -1.9784931e+00  -8.8926969e-01  -1.7591676e+01  -4.7229590e+00  -2.1600029e+00  -3.4239004e+01  -1.0651182e+01   8.3824419e+00  -1.0177395e+00  -6.5695638e+00   2.4207462e+00  -2.1287295e+01   1.8423439e+00  -1.2620097e+01   0.0000000e+00   0.0000000e+00   5.0000000e+01   0.0000000e+00
  -4.3523257e+00  -8.0005383e+00   3.3439391e+00   1.4586003e+00  -2.2232535e+00  -1.0517676e+01  -2.7176575e+00  -2.0605635e+00  -1.7098945e+01  -4.2618063e+00  -2.6324402e+00  -3.5521368e+01  -1.0939068e+01   8.2093486e+00  -1.3140818e+00  -7.7284779e+00   2.3200390e+00  -2.2000395e+01   1.5243195e+00  -1.4122336e+01   0.0000000e+00   0.0000000e+00   5.0000000e+01   0.0000000e+00
  -4.4231140e+00  -7.6626176e+00   4.0344749e+00   1.5190946e+00  -2.0347399e+00  -1.0145805e+01  -2.3482124e+00  -2.3698109e+00  -1.6094621e+01  -3.5321599e+00  -2.6087565e+00  -3.6892070e+01  -1.1077307e+01   8.2891306e+00  -9.4324111e-01  -7.9842576e+00   2.2050242e+00  -2.1906994e+01   2.0003600e+00  -1.4346397e+01   0.0000000e+00   0.0000000e+00   5.0000000e+01   0.0000000e+00
  -4.6293664e+00  -7.2521106e+00   4.8463588e+00   1.5546337e+00  -1.8333850e+00  -9.6098354e+00  -1.4604153e+00  -2.3528080e+00  -1.4976239e+01  -2.8838960e+00  -2.2330269e+00  -3.8219201e+01  -1.1183827e+01   8.2699119e+00  -3.1666946e-01  -7.5420428e+00   1.8666869e+00  -2.1277317e+01   3.0160350e+00  -1.4000951e+01   0.0000000e+00   0.0000000e+00   5.0000000e+01   0.0000000e+00
  -5.0610888e+00  -7.0262614e+00   5.3047598e+00   1.4952638e+00  -1.6848137e+00  -9.3957757e+00  -7.6202595e-01  -2.5659334e+00  -1.4052143e+01  -2.6020502e+00  -1.7760225e+00  -3.9307861e+01  -1.1275352e+01   7.8879718e+00   1.5243925e-01  -6.7778641e+00   1.2623697e+00  -2.0472033e+01   4.1003602e+00  -1.3959885e+01   0.0000000e+00   0.0000000e+00   5.0000000e+01   0.0000000e+00
  -5.5774835e+00  -7.0269200e+00   5.2266343e+00   1.3661501e+00  -1.5749069e+00  -9.7056652e+00  -8.0099821e-01  -3.2566201e+00  -1.3388633e+01  -2.7287330e+00  -1.4806626e+00  -3.9975389e+01  -1.1232879e+01   7.1124301e+00   2.5082045e-01  -6.0581489e+00   5.7317468e-01  -1.9748436e+01   4.8093819e+00  -1.4705803e+01   0.0000000e+00   0.0000000e+00   5.0000000e+01   0.0000000e+00
  -5.9431772e+00  -7.1344126e+00   4.7067049e+00   1.1272020e+00  -1.4553574e+00  -1.0391346e+01  -1.8225159e+00  -4.2849484e+00  -1.2832703e+01  -3.0650847e+00  -1.4566645e+00  -4.0179546e+01  -1.0917473e+01   6.1588925e+00  -3.0349624e-03  -5.5935167e+00   6.2183878e-02  -1.9184725e+01   4.8972678e+00  -1.6106812e+01   0.0000000e+00   0.0000000e+00   5.0000000e+01   0.0000000e+00
  -6.0680669e+00  -7.2573782e+00   3.9374400e+00   5.7038969e-01  -1.3637279e+00  -1.1112512e+01  -3.7787855e+00  -5.3075815e+00  -1.2210119e+01  -3.3533528e+00  -1.6787382e+00  -4.0115372e+01  -1.0368979e+01   5.3311531e+00  -5.0084475e-01  -5.4077947e+00  -1.7851576e-01  -1.8751756e+01   4.3142660e+00  -1.7610917e+01   0.0000000e+00   0.0000000e+00   5.0000000e+01   0.0000000e+00
  -6.1291883e+00  -7.4544749e+00   3.0337566e+00  -6.0367572e-01  -1.4858031e+00  -1.1587969e+01  -6.4164609e+00  -6.0455036e+00  -1.1517445e+01  -3.4638824e+00  -2.0399803e+00  -4.0167503e+01  -9.8755706e+00   4.8150202e+00  -1.2013136e+00  -5.4266770e+00  -3.5414216e-01  -1.8423738e+01   3.1088286e+00  -1.8636790e+01   0.0000000e+00   0.0000000e+00   5.0000000e+01   0.0000000e+00
  -6.4519971e+00  -7.8714509e+00   1.9941161e+00  -2.5748713e+00  -2.0607304e+00  -1.1769492e+01  -9.3560705e+00  -6.4429212e+00  -1.0917381e+01  -3.4257768e+00  -2.3913817e+00  -4.0711702e+01  -9.7936125e+00   4.5837727e+00  -2.1427870e+00  -5.6014926e+00  -8.2594474e-01  -1.8214466e+01   1.3723582e+00  -1.8887074e+01   0.0000000e+00   0.0000000e+00   5.0000000e+01   0.0000000e+00
  -7.2563270e+00  -8.5854290e+00   7.8234900e-01  -5.2213413e+00  -3.1872062e+00  -1.1845838e+01  -1.2153205e+01  -6.6493835e+00  -1.0551097e+01  -3.3203116e+00  -2.5688243e+00  -4.1901891e+01  -1.0255540e+01   4.4595390e+00  -3.3180832e+00  -5.9619634e+00  -1.8186402e+00  -1.8133631e+01  -7.3826267e-01  -1.8447845e+01   0.0000000e+00   0.0000000e+00   5.0000000e+01   0.0000000e+00
  -8.4956706e+00  -9.5414304e+00  -5.8200898e-01  -8.1052510e+00  -4.7048336e+00  -1.2108214e+01  -1.4396089e+01  -6.8917723e+00  -1.0372626e+01  -3.1860858e+00  -2.4561488e+00  -4.3594474e+01  -1.1032202e+01   4.2465504e+00  -4.5676919e+00  -6.5662283e+00  -3.2343311e+00  -1.8140884e+01  -2.9844639e+00  -1.7683820e+01   0.0000000e+00   0.0000000e+00   5.0000000e+01   0.0000000e+00
  -9.9162667e+00  -1.0651240e+01  -2.0037073e+00  -1.0642889e+01  -6.2640328e+00  -1.2790626e+01  -1.5852677e+01  -7.3513672e+00  -1.0173909e+01  -3.0302745e+00  -2.0804705e+00  -4.5442124e+01  -1.1665467e+01   3.8189966e+00  -5.6265520e+00  -7.4147609e+00  -4.7156360e+00  -1.8164988e+01  -5.1094726e+00  -1.7018743e+01   0.0000000e+00   0.0000000e+00   5.0000000e+01   0.0000000e+00
  -1.1247772e+01  -1.1927629e+01  -3.3525301e+00  -1.2350074e+01  -7.5173831e+00  -1.3973279e+01  -1.6571208e+01  -8.1090409e+00  -9.7597447e+00  -2.8925597e+00  -1.6533163e+00  -4.7069150e+01  -1.1739130e+01   3.1179692e+00  -6.2980245e+00  -8.4183097e+00  -5.8663158e+00  -1.8175360e+01  -6.9406274e+00  -1.6720014e+01   0.0000000e+00   0.0000000e+00   5.0000000e+01   0.0000000e+00
  -1.2335350e+01  -1.3470382e+01  -4.5157362e+00  -1.3014741e+01  -8.2651912e+00  -1.5549768e+01  -1.6823297e+01  -9.1454634e+00  -9.0886700e+00  -2.8517858e+00  -1.4838237e+00  -4.8217473e+01  -1.1077620e+01   2.1131315e+00  -6.5999715e+00  -9.4480983e+00  -6.4324211e+00  -1.8223259e+01  -8.4346201e+00  -1.6798154e+01   0.0000000e+00   0.0000000e+00   5.0000000e+01   0.0000000e+00
  -1.3132449e+01  -1.5295582e+01  -5.4366280e+00  -1.2729327e+01  -8.4764359e+00  -1.7236295e+01  -1.6923793e+01  -1.0369632e+01  -8.2600292e+00  -2.9570832e+00  -1.8076683e+00  -4.8809383e+01  -9.7853703e+00   8.0725698e-01  -6.7615662e+00  -1.0421945e+01  -6.3541811e+00  -1.8401617e+01  -9.6514064e+00  -1.7076297e+01   0.0000000e+00   0.0000000e+00   5.0000000e+01   0.0000000e+00
  -1.3647731e+01  -1.7208986e+01  -6.1434250e+00  -1.1835353e+01  -8.2548808e+00  -1.8650902e+01  -1.7090945e+01  -1.1673878e+01  -7.4040216e+00  -3.1758937e+00  -2.6629262e+00  -4.8942897e+01  -8.1826457e+00  -7.1228054e-01  -7.0905665e+00  -1.1352090e+01  -5.7518581e+00  -1.8774325e+01  -1.0726136e+01  -1.7376800e+01   0.0000000e+00   0.0000000e+00   5.0000000e+01   0.0000000e+00
  -1.3957298e+01  -1.8889017e+01  -6.7612043e+00  -1.0853540e+01  -7.8299745e+00  -1.9476856e+01  -1.7434573e+01  -1.2993220e+01  -6.6120057e+00  -3.4308294e+00  -3.8915861e+00  -4.8854668e+01  -6.7104243e+00  -2.2392816e+00  -7.8137878e+00  -1.2308440e+01  -4.9119608e+00  -1.9347753e+01  -1.1851063e+01  -1.7668407e+01   0.0000000e+00   0.0000000e+00   5.0000000e+01   0.0000000e+00
  -1.4243418e+01  -2.0096304e+01  -7.4630142e+00  -1.0377935e+01  -7.5268537e+00  -1.9615279e+01  -1.7984898e+01  -1.4300322e+01  -5.9451125e+00  -3.6686566e+00  -5.2164798e+00  -4.8839535e+01  -5.7989017e+00  -3.4774408e+00  -8.9544130e+00  -1.3312920e+01  -4.2238063e+00  -2.0071931e+01  -1.3180113e+01  -1.8036939e+01   0.0000000e+00   0.0000000e+00   5.0000000e+01   0.0000000e+00
  -1.4723514e+01  -2.0785206e+01  -8.3296207e+00  -1.0859498e+01  -7.6149583e+00  -1.9187332e+01  -1.8657153e+01  -1.5500696e+01  -5.4252147e+00  -3.8465411e+00  -6.2989641e+00  -4.9087169e+01  -5.6645394e+00  -4.1131210e+00  -1.0256326e+01  -1.4233800e+01  -3.9863538e+00  -2.0816091e+01  -1.4632292e+01  -1.8507697e+01   0.0000000e+00   0.0000000e+00   5.0000000e+01   0.0000000e+00
  -1.5445914e+01  -2.1023659e+01  -9.1897184e+00  -1.2322180e+01  -8.0694267e+00  -1.8373407e+01  -1.9197167e+01  -1.6318579e+01  -4.9445512e+00  -3.8361787e+00  -6.7724775e+00  -4.9483080e+01  -6.1032117e+00  -3.8926656e+00  -1.1199296e+01  -1.4760674e+01  -4.1556748e+00  -2.1336229e+01  -1.5764199e+01  -1.8897410e+01   0.0000000e+00   0.0000000e+00   5.0000000e+01   0.0000000e+00
  -1.6127514e+01  -2.0840666e+01  -9.6022443e+00  -1.4226788e+01  -8.4509131e+00  -1.7244997e+01  -1.9228784e+01  -1.6335095e+01  -4.2013650e+00  -3.3967543e+00  -6.3365748e+00  -4.9553466e+01  -6.4722027e+00  -2.7005651e+00  -1.1188671e+01  -1.4511841e+01  -4.2640468e+00  -2.1323940e+01  -1.5929000e+01  -1.8849221e+01   0.0000000e+00   0.0000000e+00   5.0000000e+01   0.0000000e+00
  -1.6235156e+01  -2.0165498e+01  -9.0680402e+00  -1.5676271e+01  -8.0787470e+00  -1.5747047e+01  -1.8412829e+01  -1.5222602e+01  -2.8248709e+00  -2.3282374e+00  -4.9364031e+00  -4.8703525e+01  -5.9925301e+00  -6.4474801e-01  -9.8979503e+00  -1.3252249e+01  -3.6677354e+00  -2.0571530e+01  -1.4694958e+01  -1.8038880e+01   0.0000000e+00   0.0000000e+00   5.0000000e+01   0.0000000e+00
  -1.5303341e+01  -1.8895968e+01  -7.3485044e+00  -1.5895280e+01  -6.4309588e+00  -1.3820875e+01  -1.6599260e+01  -1.3002910e+01  -6.6551667e-01  -6.9663067e-01  -2.8954359e+00  -4.6650001e+01  -4.2345538e+00   1.9038242e+00  -7.5441794e+00  -1.1089274e+01  -1.9837922e+00  -1.9145967e+01  -1.2200139e+01  -1.6393201e+01   0.0000000e+00   0.0000000e+00   5.0000000e+01   0.0000000e+00
  -1.3250505e+01  -1.7011563e+01  -4.6468836e+00  -1.4660861e+01  -3.4945572e+00  -1.1523836e+01  -1.3880794e+01  -1.0097246e+01   1.9955111e+00   1.1083365e+00  -8.2786348e-01  -4.3711628e+01  -1.4338522e+00   4.4012658e+00  -4.8412130e+00  -8.4690924e+00   6.3182741e-01  -1.7401980e+01  -9.1306691e+00  -1.4156204e+01   0.0000000e+00   0.0000000e+00   5.0000000e+01   0.0000000e+00
  -1.0446258e+01  -1.4636257e+01  -1.5146819e+00  -1.2369578e+01   1.8333166e-01  -9.0392908e+00  -1.0566465e+01  -7.1244370e+00   4.5361394e+00   2.5826147e+00   6.7299584e-01  -4.0680294e+01   1.6224462e+00   6.3410050e+00  -2.6181620e+00  -5.9358392e+00   3.5828949e+00  -1.5789572e+01  -6.3384458e+00  -1.1771779e+01   0.0000000e+00   0.0000000e+00   5.0000000e+01   0.0000000e+00
  -7.4961239e+00  -1.2014724e+01   1.4319500e+00  -9.7106383e+00   3.7651151e+00  -6.5975077e+00  -7.1202072e+00  -4.6238040e+00   6.3338880e+00   3.4187365e+00   1.3589818e+00  -3.8351082e+01   4.0521104e+00   7.4455047e+00  -1.3803124e+00  -3.8443546e+00   6.1907215e+00  -1.4605694e+01  -4.4031176e+00  -9.6900399e+00   0.0000000e+00   0.0000000e+00   5.0000000e+01   0.0000000e+00
  -4.9324004e+00  -9.4267655e+00   3.7748529e+00  -7.2298486e+00   6.5126403e+00  -4.3993877e+00  -4.0601463e+00  -2.8952226e+00   7.0869225e+00   3.6528586e+00   1.4235726e+00  -3.7098460e+01   5.3205894e+00   7.7039088e+00  -1.1234977e+00  -2.2696387e+00   8.0048580e+00  -1.3885621e+01  -3.4280187e+00  -8.2168717e+00   0.0000000e+00   0.0000000e+00   5.0000000e+01   0.0000000e+00
  -3.0314206e+00  -7.1039228e+00   5.3762796e+00  -5.1205390e+00   8.0527918e+00  -2.6083241e+00  -1.8198356e+00  -2.0018676e+00   6.8936056e+00   3.5493680e+00   1.3170963e+00  -3.6811444e+01   5.3841162e+00   7.2612675e+00  -1.4747854e+00  -1.1478830e+00   8.8801745e+00  -1.3492162e+01  -3.1364412e+00  -7.4444315e+00   0.0000000e+00   0.0000000e+00   5.0000000e+01   0.0000000e+00
  -1.8228125e+00  -5.2057779e+00   6.2749183e+00  -3.3211635e+00   8.4120905e+00  -1.3910229e+00  -6.3636707e-01  -1.8619204e+00   6.1091874e+00   3.3746274e+00   1.4481050e+00  -3.7128381e+01   4.5572936e+00   6.2909326e+00  -1.9795643e+00  -4.5514949e-01   8.8869487e+00  -1.3301368e+01  -3.1373121e+00  -7.2495633e+00   0.0000000e+00   0.0000000e+00   5.0000000e+01   0.0000000e+00
  -1.1928956e+00  -3.8488054e+00   6.5214603e+00  -1.7268781e+00   7.8849155e+00  -9.2198346e-01  -5.2991220e-01  -2.3396039e+00   5.1564139e+00   3.2758334e+00   1.9892770e+00  -3.7679965e+01   3.3182419e+00   4.9645583e+00  -2.3145971e+00  -2.4164573e-01   8.2250155e+00  -1.3332443e+01  -3.1701325e+00  -7.3585597e+00   0.0000000e+00   0.0000000e+00   5.0000000e+01   0.0000000e+00
  -9.6887718e-01  -3.1236541e+00   6.1054473e+00  -3.1723271e-01   6.8590820e+00  -1.3031690e+00  -1.3560926e+00  -3.2861181e+00   4.3942090e+00   3.3016848e+00   2.8573383e+00  -3.8187226e+01   2.1604983e+00   3.4927943e+00  -2.3594327e+00  -5.4214055e-01   7.1922843e+00  -1.3738660e+01  -3.2054398e+00  -7.4810981e+00   0.0000000e+00   0.0000000e+00   5.0000000e+01   0.0000000e+00
  -9.7204930e-01  -3.0645555e+00   5.0269726e+00   8.1774025e-01   5.6699679e+00  -2.4668393e+00  -2.8618238e+00  -4.5286830e+00   4.0069210e+00   3.4216356e+00   3.7749156e+00  -3.8502594e+01   1.4367930e+00   2.1078631e+00  -2.1958578e+00  -1.3010951e+00   6.1150883e+00  -1.4697534e+01  -3.3964392e+00  -7.4700252e+00   0.0000000e+00   0.0000000e+00   5.0000000e+01   0.0000000e+00
  -1.0828316e+00  -3.6047663e+00   3.4202859e+00   1.4880034e+00   4.5019593e+00  -4.1717438e+00  -4.7133947e+00  -5.8421213e+00   3.8995994e+00   3.4649931e+00   4.3380237e+00  -3.8678315e+01   1.1870450e+00   9.4289761e-01  -2.0824269e+00  -2.3671830e+00   5.1978349e+00  -1.6297867e+01  -3.9531641e+00  -7.4120784e+00   0.0000000e+00   0.0000000e+00   5.0000000e+01   0.0000000e+00
  -1.2962510e+00  -4.5611103e+00   1.5817193e+00   1.4600673e+00   3.3654355e+00  -6.0985736e+00  -6.5228188e+00  -6.9533071e+00   3.7138206e+00   3.1058405e+00   4.1340921e+00  -3.8963180e+01   1.1016399e+00  -6.1716461e-02  -2.3589729e+00  -3.5073286e+00   4.4169543e+00  -1.8472537e+01  -5.0061635e+00  -7.5798614e+00   0.0000000e+00   0.0000000e+00   5.0000000e+01   0.0000000e+00
  -1.6849873e+00  -5.6465110e+00  -1.4272383e-01   6.0406922e-01   2.1845666e+00  -7.9384355e+00  -7.9058217e+00  -7.6134528e+00   3.0481571e+00   2.0400815e+00   2.9510098e+00  -3.9605684e+01   7.3947621e-01  -1.0848679e+00  -3.2536489e+00  -4.4326621e+00   3.6028329e+00  -2.0971886e+01  -6.5017150e+00  -8.2779403e+00   0.0000000e+00   0.0000000e+00   5.0000000e+01   0.0000000e+00
  -2.2649045e+00  -6.5085486e+00  -1.5075510e+00  -9.3343402e-01   9.5486314e-01  -9.4060493e+00  -8.5780102e+00  -7.7185611e+00   1.7458192e+00   2.6519225e-01   9.6569636e-01  -4.0571567e+01  -1.3415577e-01  -2.2446100e+00  -4.6946010e+00  -4.9010353e+00   2.6554313e+00  -2.3397106e+01  -8.1756091e+00  -9.6862973e+00   0.0000000e+00   0.0000000e+00   5.0000000e+01   0.0000000e+00
  -2.8994568e+00  -6.8308544e+00  -2.4284938e+00  -2.6952987e+00  -1.6925197e-01  -1.0243635e+01  -8.4721272e+00  -7.3941584e+00  -7.0798388e-03  -1.8115792e+00  -1.2680197e+00  -4.1460603e+01  -1.3898324e+00  -3.5117494e+00  -6.2897429e+00  -4.8808839e+00   1.6702012e+00  -2.5332216e+01  -9.6474830e+00  -1.1770917e+01   0.0000000e+00   0.0000000e+00   5.0000000e+01   0.0000000e+00
  -3.3715915e+00  -6.4969463e+00  -2.9326351e+00  -4.0991923e+00  -9.5949643e-01  -1.0313256e+01  -7.8267215e+00  -6.9554093e+00  -1.8493080e+00  -3.5783993e+00  -3.0673632e+00  -4.1748896e+01  -2.6917281e+00  -4.7940519e+00  -7.5191345e+00  -4.6188375e+00   8.4042342e-01  -2.6537350e+01  -1.0608354e+01  -1.4262473e+01   0.0000000e+00   0.0000000e+00   5.0000000e+01   0.0000000e+00
  -3.5637821e+00  -5.6980793e+00  -3.0754464e+00  -4.7263033e+00  -1.2955843e+00  -9.7366931e+00  -7.1506591e+00  -6.7358105e+00  -3.4742620e+00  -4.5692668e+00  -3.9345044e+00  -4.1143933e+01  -3.7844642e+00  -6.0471427e+00  -7.9971082e+00  -4.4870012e+00   2.5279517e-01  -2.7071189e+01  -1.0979903e+01  -1.6694001e+01   0.0000000e+00   0.0000000e+00   5.0000000e+01   0.0000000e+00
  -3.5540123e+00  -4.8443006e+00  -2.9006797e+00  -4.5058490e+00  -1.2599572e+00  -8.9120511e+00  -6.9912790e+00  -6.8826990e+00  -4.6770925e+00  -4.6636252e+00  -3.7216441e+00  -3.9734219e+01  -4.6229446e+00  -7.2469144e+00  -7.6100184e+00  -4.7017226e+00  -1.9620019e-01  -2.7229776e+01  -1.0911804e+01  -1.8521223e+01   1.0000000e+03   0.0000000e+00   5.0000000e+01   0.0000000e+00
  -3.5327378e+00  -4.3046760e+00  -2.4518825e+00  -3.6907855e+00  -1.0626479e+00  -8.3151946e+00  -7.5928229e+00  -7.2551594e+00  -5.2233947e+00  -4.0191744e+00  -2.5784231e+00  -3.7859017e+01  -5.2752306e+00  -8.2575666e+00  -6.4705902e+00  -5.1519909e+00  -6.8702021e-01  -2.7333066e+01  -1.0601696e+01  -1.9335848e+01   1.0000000e+03   0.0000000e+00   5.0000000e+01   0.0000000e+00
  -3.6378179e+00  -4.1797815e+00  -1.7937592e+00  -2.6943005e+00  -8.8624870e-01  -8.2138017e+00  -8.6988597e+00  -7.4988343e+00  -4.7797158e+00  -2.8796986e+00  -7.9032138e-01  -3.5891577e+01  -5.7714955e+00  -8.7852193e+00  -4.7911138e+00  -5.4810443e+00  -1.3063388e+00  -2.7527955e+01  -1.0084919e+01  -1.9087903e+01   1.0000000e+03   0.0000000e+00   5.0000000e+01   0.0000000e+00
  -3.8585546e+00  -4.2796763e+00  -1.0112112e+00  -1.9313841e+00  -7.8245092e-01  -8.5191741e+00  -9.7014025e+00  -7.2552480e+00  -3.0828300e+00  -1.4601979e+00   1.3391219e+00  -3.4122282e+01  -6.0733630e+00  -8.5247943e+00  -2.7981113e+00  -5.3373930e+00  -1.9891888e+00  -2.7759383e+01  -9.1878371e+00  -1.8150773e+01   1.0000000e+03   0.0000000e+00   5.0000000e+01   0.0000000e+00
  -4.0614796e+00  -4.2945736e+00  -1.9817150e-01  -1.7378254e+00  -6.6555699e-01  -8.8714427e+00  -1.0059987e+01  -6.3751275e+00  -2.3230751e-01   3.6716991e-02   3.5094098e+00  -3.2742657e+01  -6.1575286e+00  -7.3931873e+00  -7.1332911e-01  -4.5883814e+00  -2.5951696e+00  -2.7899367e+01  -7.7001480e+00  -1.7134601e+01   1.0000000e+03   0.0000000e+00   5.0000000e+01   0.0000000e+00
  -4.0917121e+00  -4.0173357e+00   5.3915184e-01  -2.3287892e+00  -3.7591511e-01  -8.8656526e+00  -9.6744086e+00  -5.0118321e+00   3.1918849e+00   1.3732428e+00   5.4105394e+00  -3.1839833e+01  -6.0839416e+00  -5.6419670e+00   1.2465472e+00  -3.3703216e+00  -3.0133096e+00  -2.7895185e+01  -5.6155105e+00  -1.6563173e+01   0.0000000e+00   0.0000000e+00   5.0000000e+01   0.0000000e+00
  -3.8799322e+00  -3.4821432e+00   1.0779802e+00  -3.7461030e+00   2.1991517e-01  -8.2630797e+00  -8.9324597e+00  -3.5557896e+00   6.3515201e+00   2.3074916e+00   6.7594176e+00  -3.1377645e+01  -5.9644982e+00  -3.7486516e+00   2.8867780e+00  -2.0081941e+00  -3.2032225e+00  -2.7818767e+01  -3.2194857e+00  -1.6647346e+01   0.0000000e+00   0.0000000e+00   5.0000000e+01   0.0000000e+00
  -3.4995126e+00  -2.9494988e+00   1.3081659e+00  -5.8214335e+00   1.1258106e+00  -7.0935713e+00  -8.4229869e+00  -2.4590584e+00   8.5698668e+00   2.7057391e+00   7.3925163e+00  -3.1215616e+01  -5.8738616e+00  -2.1722801e+00   4.0634472e+00  -8.9981790e-01  -3.1693352e+00  -2.7802017e+01  -9.4983120e-01  -1.7266892e+01   0.0000000e+00   0.0000000e+00   5.0000000e+01   0.0000000e+00
  -3.1449197e+00  -2.7498280e+00   1.1885513e+00  -8.2206221e+00   2.1679597e+00  -5.6366720e+00  -8.5554095e+00  -2.0397741e+00   9.6328090e+00   2.6318043e+00   7.3357760e+00  -3.1195615e+01  -5.8045825e+00  -1.1564380e+00   4.7038938e+00  -4.0826286e-01  -2.9257061e+00  -2.7925955e+01   8.2922705e-01  -1.8076521e+01   0.0000000e+00   0.0000000e+00   5.0000000e+01   0.0000000e+00
  -3.0422193e+00  -3.0827025e+00   7.8222622e-01  -1.0567864e+01   3.0599665e+00  -4.3040549e+00  -9.3531285e+00  -2.3449739e+00   9.7688884e+00   2.3081496e+00   6.7703789e+00  -3.1252793e+01  -5.7122531e+00  -6.9731031e-01   4.8094829e+00  -7.5198444e-01  -2.4977495e+00  -2.8155888e+01   1.9465720e+00  -1.8613564e+01   0.0000000e+00   0.0000000e+00   5.0000000e+01   0.0000000e+00
  -3.3341924e+00  -3.8997815e+00   2.4069313e-01  -1.2563865e+01   3.5734159e+00  -3.4495550e+00  -1.0503338e+01  -3.1151426e+00   9.3857179e+00   1.9642139e+00   5.9133953e+00  -3.1465708e+01  -5.5900977e+00  -6.3390040e-01   4.4561779e+00  -1.8942118e+00  -1.9425208e+00  -2.8360455e+01   2.4070335e+00  -1.8383178e+01   0.0000000e+00   0.0000000e+00   5.0000000e+01   0.0000000e+00
  -3.9909779e+00  -4.9376849e+00  -2.5414886e-01  -1.4018347e+01   3.7131196e+00  -3.1688435e+00  -1.1552837e+01  -3.8721718e+00   8.8163442e+00   1.7125826e+00   4.9265847e+00  -3.1982150e+01  -5.4693630e+00  -7.3078550e-01   3.8144898e+00  -3.4898426e+00  -1.3269266e+00  -2.8364509e+01   2.3595905e+00  -1.6966083e+01   0.0000000e+00   0.0000000e+00   5.0000000e+01   0.0000000e+00
  -4.7948880e+00  -5.8576932e+00  -5.6912033e-01  -1.4804196e+01   3.7617211e+00  -3.2107594e+00  -1.2101749e+01  -4.1287289e+00   8.2525397e+00   1.5690168e+00   3.9312443e+00  -3.2842367e+01  -5.3187803e+00  -6.9738416e-01   3.1721989e+00  -4.9752842e+00  -6.5038428e-01  -2.7975981e+01   2.1229673e+00  -1.4176235e+01   0.0000000e+00   0.0000000e+00   5.0000000e+01   0.0000000e+00
  -5.4262832e+00  -6.3828710e+00  -6.8790216e-01  -1.4807015e+01   4.1357483e+00  -3.0941399e+00  -1.1922810e+01  -3.6394715e+00   7.8306161e+00   1.5725053e+00   3.0801804e+00  -3.3830898e+01  -4.9448992e+00  -2.0171587e-01   2.9023040e+00  -5.8122835e+00   2.1441533e-01  -2.6999566e+01   2.1847269e+00  -1.0225078e+01   0.0000000e+00   0.0000000e+00   5.0000000e+01   0.0000000e+00
  -5.6155214e+00  -6.3582670e+00  -7.1785326e-01  -1.3928610e+01   5.1399449e+00  -2.3718829e+00  -1.0995144e+01  -2.5332010e+00   7.7160776e+00   1.8540181e+00   2.5786505e+00  -3.4509595e+01  -4.0289582e+00   1.0584752e+00   3.3449615e+00  -5.7536308e+00   1.4790430e+00  -2.5285057e+01   3.0585685e+00  -5.7680278e+00   0.0000000e+00   0.0000000e+00   5.0000000e+01   0.0000000e+00
  -5.2659331e+00  -5.7541473e+00  -8.1100431e-01  -1.2142487e+01   6.7925779e+00  -8.6125638e-01  -9.4610731e+00  -1.2165577e+00   8.0856067e+00   2.5679436e+00   2.6161352e+00  -3.4443070e+01  -2.3155619e+00   3.2385227e+00   4.6548659e+00  -4.9444408e+00   3.2988489e+00  -2.2813363e+01   5.0272381e+00  -1.7161411e+00   0.0000000e+00   0.0000000e+00   5.0000000e+01   0.0000000e+00
  -4.4695166e+00  -4.6655173e+00  -1.0465187e+00  -9.5589517e+00   8.8344741e+00   1.2932117e+00  -7.5351184e+00  -1.1891024e-01   9.0278762e+00   3.7495492e+00   3.2683441e+00  -3.3444632e+01   1.8582840e-01   6.2425716e+00   6.7148319e+00  -3.7977160e+00   5.6281057e+00  -1.9770941e+01   7.9489822e+00   1.1379378e+00   0.0000000e+00   0.0000000e+00   5.0000000e+01   0.0000000e+00
  -3.4252290e+00  -3.2992259e+00  -1.3601648e+00  -6.4549324e+00   1.0885315e+01   3.7132301e+00  -5.4137384e+00   5.3389239e-01   1.0456619e+01   5.2321627e+00   4.4474851e+00  -3.1655622e+01   3.1479956e+00   9.6985274e+00   9.1773797e+00  -2.7593233e+00   8.1771915e+00  -1.6551008e+01   1.1293074e+01   2.4474010e+00   0.0000000e+00   0.0000000e+00   5.0000000e+01   0.0000000e+00
  -2.3392781e+00  -1.9022337e+00  -1.5675187e+00  -3.2431893e+00   1.2616889e+01   5.9458968e+00  -3.2270293e+00   7.8723561e-01   1.2113204e+01   6.6985936e+00   5.9302309e+00  -2.9439232e+01   6.0596064e+00   1.3059753e+01   1.1608495e+01  -2.1216049e+00   1.0513377e+01  -1.3650457e+01   1.4397304e+01   2.3846810e+00   0.0000000e+00   0.0000000e+00   5.0000000e+01   0.0000000e+00
  -1.3744866e+00  -6.5022102e-01  -1.4568637e+00  -3.8502210e-01   1.3846932e+01   7.6189424e+00  -1.0500224e+00   8.7919178e-01   1.3668021e+01   7.8316604e+00   7.4464821e+00  -2.7215227e+01   8.4485664e+00   1.5813312e+01   1.3651151e+01  -1.9519584e+00   1.2254065e+01  -1.1495762e+01   1.6774547e+01   1.4675812e+00   0.0000000e+00   0.0000000e+00   5.0000000e+01   0.0000000e+00
  -6.4932793e-01   4.1369799e-01  -8.8646465e-01   1.7246164e+00   1.4550612e+01   8.5597113e+00   1.0327046e+00   1.1123202e+00   1.4866152e+01   8.4650042e+00   8.7905861e+00  -2.5340983e+01   1.0064934e+01   1.7686032e+01   1.5135575e+01  -2.1080999e+00   1.3242440e+01  -1.0281452e+01   1.8285079e+01   3.0602221e-01   0.0000000e+00   0.0000000e+00   5.0000000e+01   0.0000000e+00
  -2.4430862e-01   1.3328936e+00   1.6782403e-01   2.8639348e+00   1.4828595e+01   8.8400625e+00   2.8435206e+00   1.7539636e+00   1.5633812e+01   8.6427543e+00   9.9005433e+00  -2.4048204e+01   1.0946121e+01   1.8720958e+01   1.6103011e+01  -2.2979750e+00   1.3604676e+01  -9.9010795e+00   1.9107879e+01  -5.8943664e-01   0.0000000e+00   0.0000000e+00   5.0000000e+01   0.0000000e+00
  -1.9508743e-01   2.1174088e+00   1.6209720e+00   3.0459365e+00   1.4842262e+01   8.7007457e+00   4.0694868e+00   2.9667969e+00   1.6076015e+01   8.5493869e+00   1.0848840e+01  -2.3421552e+01   1.1347598e+01   1.9180922e+01   1.6734486e+01  -2.1778377e+00   1.3652741e+01  -1.0012466e+01   1.9558558e+01  -9.1360158e-01   0.0000000e+00   0.0000000e+00   5.0000000e+01   0.0000000e+00
  -4.9169440e-01   2.6397553e+00   3.3116110e+00   2.4943103e+00   1.4712860e+01   8.3704260e+00   4.3199731e+00   4.7309801e+00   1.6361530e+01   8.3525569e+00   1.1737367e+01  -2.3434219e+01   1.1569633e+01   1.9355759e+01   1.7200843e+01  -1.4922006e+00   1.3685633e+01  -1.0217750e+01   1.9860155e+01  -6.2207578e-01   0.0000000e+00   0.0000000e+00   5.0000000e+01   0.0000000e+00
  -1.0923013e+00   2.6378689e+00   5.0345252e+00   1.5231479e+00   1.4434960e+01   7.9043250e+00   3.2957204e+00   6.7763244e+00   1.6581937e+01   8.0786041e+00   1.2571218e+01  -2.4025124e+01   1.1771470e+01   1.9408514e+01   1.7507530e+01  -2.1438659e-01   1.3813046e+01  -1.0257136e+01   1.9995060e+01   6.4298469e-02   0.0000000e+00   0.0000000e+00   5.0000000e+01   0.0000000e+00
  -1.9224345e+00   1.8671947e+00   6.5780524e+00   3.8596820e-01   1.3892093e+01   7.1899229e+00   9.9696007e-01   8.6206503e+00   1.6701087e+01   7.6314761e+00   1.3217367e+01  -2.5135846e+01   1.1899744e+01   1.9351478e+01   1.7451799e+01   1.4015791e+00   1.3920883e+01  -1.0088133e+01   1.9736456e+01   7.5738827e-01   0.0000000e+00   0.0000000e+00   5.0000000e+01   0.0000000e+00
  -2.8489111e+00   3.2984209e-01   7.7756220e+00  -7.9527501e-01   1.2984167e+01   6.1279167e+00  -2.1669544e+00   9.7660208e+00   1.6631502e+01   6.9419450e+00   1.3487101e+01  -2.6650634e+01   1.1788153e+01   1.9141004e+01   1.6756858e+01   2.9241026e+00   1.3798253e+01  -9.8102254e+00   1.8853576e+01   1.1194604e+00   0.0000000e+00   0.0000000e+00   5.0000000e+01   0.0000000e+00
  -3.6778160e+00  -1.6025228e+00   8.5507806e+00  -1.9736828e+00   1.1753930e+01   4.8199761e+00  -5.4716369e+00   9.9477730e+00   1.6357390e+01   6.1043366e+00   1.3273308e+01  -2.8305212e+01   1.1343126e+01   1.8799704e+01   1.5307982e+01   3.9679251e+00   1.3322182e+01  -9.5195347e+00   1.7359295e+01   1.0874890e+00   0.0000000e+00   0.0000000e+00   5.0000000e+01   0.0000000e+00
  -4.2228388e+00  -3.3201851e+00   8.9181049e+00  -3.0695362e+00   1.0396971e+01   3.5779072e+00  -8.1465725e+00   9.2480750e+00   1.5980541e+01   5.3599322e+00   1.2625612e+01  -2.9696200e+01   1.0655184e+01   1.8459950e+01   1.3311624e+01   4.3979744e+00   1.2553601e+01  -9.2201341e+00   1.5616794e+01   9.0640868e-01   0.0000000e+00   0.0000000e+00   5.0000000e+01   0.0000000e+00
  -4.4089406e+00  -4.3025465e+00   8.9374410e+00  -3.9402293e+00   9.1588468e+00   2.7414448e+00  -9.6661167e+00   7.9927951e+00   1.5631595e+01   4.9251860e+00   1.1703191e+01  -3.0436722e+01   9.9400335e+00   1.8286341e+01   1.1237620e+01   4.3597595e+00   1.1675742e+01  -8.8558439e+00   1.4201024e+01   9.0135819e-01   0.0000000e+00   0.0000000e+00   5.0000000e+01   0.0000000e+00
  -4.3287722e+00  -4.3999075e+00   8.6699607e+00  -4.4844686e+00   8.2046427e+00   2.4671883e+00  -9.9112560e+00   6.5338884e+00   1.5313736e+01   4.8072364e+00   1.0654564e+01  -3.0359922e+01   9.3523384e+00   1.8342207e+01   9.5683777e+00   4.1082504e+00   1.0840061e+01  -8.4175635e+00   1.3584790e+01   1.1838447e+00   0.0000000e+00   0.0000000e+00   5.0000000e+01   0.0000000e+00
  -4.2179127e+00  -3.8756849e+00   8.1762795e+00  -4.8077675e+00   7.5207110e+00   2.6429908e+00  -9.1582159e+00   5.0852045e+00   1.4824384e+01   4.7628261e+00   9.5302917e+00  -2.9624610e+01   8.8203062e+00   1.8512948e+01   8.5302399e+00   3.7781649e+00   1.0054009e+01  -8.0187516e+00   1.3854771e+01   1.5784189e+00   0.0000000e+00   0.0000000e+00   5.0000000e+01   0.0000000e+00
  -4.3789142e+00  -3.2292220e+00   7.5340879e+00  -5.2929834e+00   6.8738225e+00   2.9384039e+00  -7.9423265e+00   3.6942918e+00   1.3849267e+01   4.4342173e+00   8.2929391e+00  -2.8652115e+01   8.0473051e+00   1.8538503e+01   7.9922538e+00   3.2886448e+00   9.1927236e+00  -7.8726234e+00   1.4642323e+01   1.8289705e+00   0.0000000e+00   0.0000000e+00   5.0000000e+01   0.0000000e+00
  -5.0802415e+00  -2.9531255e+00   6.8278649e+00  -6.4541065e+00   5.8745555e+00   2.9240510e+00  -6.8594829e+00   2.3217216e+00   1.2178272e+01   3.5624984e+00   6.9079309e+00  -2.7928975e+01   6.7076737e+00   1.8129610e+01   7.5904035e+00   2.4523488e+00   8.1147169e+00  -8.1917747e+00   1.5309685e+01   1.8526319e+00   0.0000000e+00   0.0000000e+00   5.0000000e+01   0.0000000e+00
  -6.4333956e+00  -3.3373078e+00   6.1100690e+00  -8.6161005e+00   4.1797257e+00   2.2313758e+00  -6.3568674e+00   9.4864186e-01   9.8904289e+00   2.1451117e+00   5.4465836e+00  -2.7775345e+01   4.7067541e+00   1.7118649e+01   6.9819393e+00   1.1835679e+00   6.8013516e+00  -9.0742953e+00   1.5284081e+01   1.7868767e+00   0.0000000e+00   0.0000000e+00   5.0000000e+01   0.0000000e+00
  -8.2919341e+00  -4.3569559e+00   5.3733785e+00  -1.1649224e+01   1.7461660e+00   7.3367980e-01  -6.5832978e+00  -3.7175164e-01   7.3819245e+00   4.5935537e-01   4.1188103e+00  -2.8197711e+01   2.3105825e+00   1.5578647e+01   6.0560725e+00  -3.7696045e-01   5.4291301e+00  -1.0442781e+01   1.4349357e+01   1.8104638e+00   0.0000000e+00   0.0000000e+00   5.0000000e+01   0.0000000e+00
  -1.0269428e+01  -5.6818118e+00   4.5545739e+00  -1.4997093e+01  -1.0662002e+00  -1.3444414e+00  -7.3771042e+00  -1.5639677e+00   5.2205664e+00  -1.0541139e+00   3.1866197e+00  -2.8913420e+01   4.1405476e-02   1.3827167e+01   4.9652187e+00  -1.9275053e+00   4.3131703e+00  -1.2084738e+01   1.2718661e+01   1.9279910e+00   0.0000000e+00   0.0000000e+00   5.0000000e+01   0.0000000e+00
  -1.1916134e+01  -6.8374602e+00   3.5631528e+00  -1.8008452e+01  -3.6643879e+00  -3.4979106e+00  -8.4063810e+00  -2.6300176e+00   3.9072271e+00  -1.9945432e+00   2.8027312e+00  -2.9539252e+01  -1.5902052e+00   1.2289731e+01   3.9769958e+00  -3.1992327e+00   3.7450719e+00  -1.3774205e+01   1.0849926e+01   1.9115970e+00   0.0000000e+00   0.0000000e+00   5.0000000e+01   0.0000000e+00
  -1.2941069e+01  -7.4490717e+00   2.3337888e+00  -2.0310728e+01  -5.5455203e+00  -5.1734872e+00  -9.3707848e+00  -3.6748880e+00   3.6659415e+00  -2.1869948e+00   2.9050113e+00  -2.9814037e+01  -2.3276012e+00   1.1306050e+01   3.2881794e+00  -4.0936656e+00   3.8398416e+00  -1.5370128e+01   9.1607340e+00   1.4528124e+00   0.0000000e+00   0.0000000e+00   5.0000000e+01   0.0000000e+00
  -1.3294423e+01  -7.3955325e+00   9.0141253e-01  -2.1921462e+01  -6.5058753e+00  -6.0024222e+00  -1.0119782e+01  -4.7906904e+00   4.3740814e+00  -1.7311371e+00   3.2685214e+00  -2.9686950e+01  -2.2250030e+00   1.1002587e+01   2.9617723e+00  -4.6295382e+00   4.5036027e+00  -1.6796830e+01   7.8749496e+00   4.2614941e-01   0.0000000e+00   0.0000000e+00   5.0000000e+01   0.0000000e+00
  -1.3049905e+01  -6.7553743e+00  -5.3797563e-01  -2.3033900e+01  -6.5897009e+00  -5.8824324e+00  -1.0608615e+01  -5.8831118e+00   5.6756599e+00  -8.7149004e-01   3.6748249e+00  -2.9221729e+01  -1.5089491e+00   1.1295669e+01   3.0141027e+00  -4.7660246e+00   5.5295315e+00  -1.7928981e+01   7.0917203e+00  -9.2581546e-01   0.0000000e+00   0.0000000e+00   5.0000000e+01   0.0000000e+00
  -1.2231373e+01  -5.6239143e+00  -1.6401817e+00  -2.3709144e+01  -5.8914454e+00  -4.9107179e+00  -1.0769014e+01  -6.6115447e+00   7.1977937e+00   1.9767880e-01   4.0438020e+00  -2.8445650e+01  -3.7949526e-01   1.1996365e+01   3.5166866e+00  -4.3201952e+00   6.7281179e+00  -1.8513590e+01   6.9349475e+00  -2.0600691e+00   0.0000000e+00   0.0000000e+00   5.0000000e+01   0.0000000e+00
  -1.0781162e+01  -4.0102329e+00  -2.0222116e+00  -2.3772153e+01  -4.4405969e+00  -3.2898449e+00  -1.0464826e+01  -6.5426072e+00   8.7054055e+00   1.4064139e+00   4.4150139e+00  -2.7314310e+01   1.0889376e+00   1.2924695e+01   4.5653695e+00  -3.1117230e+00   7.9875832e+00  -1.8250991e+01   7.5666708e+00  -2.4569790e+00   0.0000000e+00   0.0000000e+00   5.0000000e+01   0.0000000e+00
  -8.6986048e+00  -1.9183853e+00  -1.4264949e+00  -2.2980986e+01  -2.2639379e+00  -1.2882386e+00  -9.6026194e+00  -5.4397350e+00   1.0095596e+01   2.7084993e+00   4.8259078e+00  -2.5818533e+01   2.8933943e+00   1.3951524e+01   6.1323047e+00  -1.2169355e+00   9.2406787e+00  -1.7008075e+01   9.0224122e+00  -1.9655127e+00   0.0000000e+00   0.0000000e+00   5.0000000e+01   0.0000000e+00
  -6.1809781e+00   5.0423786e-01   1.3603940e-01  -2.1266559e+01   4.8344935e-01   7.8092659e-01  -8.2731006e+00  -3.4831475e+00   1.1298361e+01   3.9586282e+00   5.2305892e+00  -2.4099153e+01   4.9789398e+00   1.4970166e+01   7.9681867e+00   9.2157857e-01   1.0406964e+01  -1.4979362e+01   1.1050874e+01  -8.7862595e-01   0.0000000e+00   0.0000000e+00   5.0000000e+01   0.0000000e+00
  -3.6044561e+00   2.9398184e+00   2.3306368e+00  -1.8819897e+01   3.4734216e+00   2.6238449e+00  -6.7568539e+00  -1.2515253e+00   1.2221873e+01   4.9362490e+00   5.5245100e+00  -2.2435327e+01   7.1765393e+00   1.5868583e+01   9.6796798e+00   2.6528996e+00   1.1388261e+01  -1.2634781e+01   1.3151956e+01   3.1374527e-01   0.0000000e+00   0.0000000e+00   5.0000000e+01   0.0000000e+00
  -1.3669590e+00   5.0316318e+00   4.5604088e+00  -1.6019889e+01   6.2847417e+00   4.0527671e+00  -5.3895167e+00   5.3353073e-01   1.2785128e+01   5.4879796e+00   5.6045420e+00  -2.1112531e+01   9.2494135e+00   1.6547284e+01   1.0923668e+01   3.4287114e+00   1.2111774e+01  -1.0494294e+01   1.4803315e+01   1.2563402e+00   0.0000000e+00   0.0000000e+00   5.0000000e+01   0.0000000e+00
   2.5274703e-01   6.5388486e+00   6.1242180e+00  -1.3342697e+01   8.5345500e+00   5.0214121e+00  -4.4281230e+00   1.3374068e+00   1.2962645e+01   5.6132639e+00   5.3845649e+00  -2.0294029e+01   1.0978604e+01   1.6949357e+01   1.1550022e+01   3.0494548e+00   1.2551843e+01  -8.9145879e+00   1.5687096e+01   1.8714352e+00   0.0000000e+00   0.0000000e+00   5.0000000e+01   0.0000000e+00
