nt = 720
nc = 24
channels = F7 T3 T5 Fp1 F3 C3 P3 O1 F8 T4 T6 Fp2 F4 C4 P4 O2 Fz Cz Pz Oz TR SOn Occ RAp
ne = 20
type = B
fsmp = 120.0000000000
band = 0.1 0.2 44 58 0
orig.file = s4_bl1
orig.nt = 290840
orig.sample_range = 205276 208871
orig.fsmp = 600
orig.subject = 4
orig.run = 36
   1.2285129e+01   1.6876103e+01   5.3991158e-01  -2.7668859e+00  -2.8437279e+00  -4.2576548e+00  -7.1207939e+00   3.5280276e+00  -1.6984755e+00  -1.7327895e+01  -5.0807275e+00  -9.3874571e+00  -1.4052228e+01  -1.7213849e+01  -1.3644883e+01   6.2720540e+00   2.0905632e-01   3.0584035e+00  -1.2910318e+01  -6.9997777e-01   0.0000000e+00   0.0000000e+00   0.0000000e+00   0.0000000e+00
   8.2375273e+00   1.5555314e+01  -7.3084435e-02  -4.1729957e+00  -2.7138863e+00  -6.2977797e+00  -8.6777170e+00   2.8625221e+00  -2.9319692e+00  -1.7905000e+01  -8.2626860e+00  -9.5022601e+00  -1.7510623e+01  -2.0141607e+01  -1.6175486e+01   6.6012086e+00   1.6631223e-01  -6.5971362e-01  -1.4305815e+01  -3.1839222e+00   0.0000000e+00   0.0000000e+00   0.0000000e+00   0.0000000e+00
   4.5003961e+00   1.4980230e+01  -8.5093160e-01  -4.6754279e+00  -1.8211590e+00  -7.1153344e+00  -9.6268025e+00   2.3437546e+00  -1.0393485e+00  -2.0375205e+01  -9.6766217e+00  -9.0344402e+00  -1.9247536e+01  -2.1255020e+01  -1.7187098e+01   6.7306235e+00   5.0447863e-01  -2.9202460e+00  -1.5171955e+01  -4.8353049e+00   0.0000000e+00   0.0000000e+00   0.0000000e+00   0.0000000e+00
   2.7062946e+00   1.4889441e+01  -2.0213885e+00  -4.8771428e+00  -1.9853554e+00  -7.9237225e+00  -1.0637959e+01   1.3058500e+00   4.5031846e-01  -2.2669872e+01  -1.0250941e+01  -8.9373728e+00  -2.1146812e+01  -2.2645989e+01  -1.7886035e+01   6.4062739e+00   3.9995288e-01  -5.0289284e+00  -1.6096018e+01  -6.1978084e+00   0.0000000e+00   0.0000000e+00   0.0000000e+00   0.0000000e+00
   2.1485130e+00   1.4717105e+01  -3.0668201e+00  -4.9630160e+00  -2.8785908e+00  -9.0787393e+00  -1.1783666e+01   2.3702664e-01   1.4713253e+00  -2.3265705e+01  -1.0507547e+01  -9.1605794e+00  -2.3154690e+01  -2.4842475e+01  -1.8769839e+01   6.2536143e+00  -1.6613785e-02  -6.9891205e+00  -1.7179763e+01  -7.1418732e+00   0.0000000e+00   0.0000000e+00   0.0000000e+00   0.0000000e+00
   1.8588481e+00   1.4158270e+01  -3.5255453e+00  -4.7178103e+00  -3.8226929e+00  -1.0121061e+01  -1.2700679e+01  -3.0004764e-01   2.4760259e+00  -2.3076821e+01  -1.0775021e+01  -9.0731333e+00  -2.4035181e+01  -2.6904616e+01  -1.9539378e+01   6.5153381e+00  -1.8542350e-01  -8.0077290e+00  -1.8104278e+01  -7.5001761e+00   0.0000000e+00   0.0000000e+00   0.0000000e+00   0.0000000e+00
   1.6867469e+00   1.3591056e+01  -3.6667862e+00  -4.3759012e+00  -4.8639730e+00  -1.0799071e+01  -1.3269042e+01  -4.6781329e-01   2.9036536e+00  -2.2711404e+01  -1.1271938e+01  -8.6512216e+00  -2.3522247e+01  -2.7643880e+01  -1.9755946e+01   6.7949652e+00   1.8058413e-01  -8.0333157e+00  -1.8451900e+01  -7.4077600e+00   0.0000000e+00   0.0000000e+00   0.0000000e+00   0.0000000e+00
   1.6318892e+00   1.3316422e+01  -3.8887582e+00  -4.1148487e+00  -6.2674408e+00  -1.1208032e+01  -1.3509661e+01  -3.9653673e-01   3.8531136e+00  -2.2057455e+01  -1.1963905e+01  -8.1631734e+00  -2.2654031e+01  -2.7419621e+01  -1.9579900e+01   6.7672045e+00   8.6028878e-01  -7.7406520e+00  -1.8259548e+01  -7.0100841e+00   0.0000000e+00   0.0000000e+00   0.0000000e+00   0.0000000e+00
   1.5218083e+00   1.3214272e+01  -3.9857273e+00  -3.6402638e+00  -7.5762095e+00  -1.1548142e+01  -1.3492974e+01  -1.0545081e-02   5.4860452e+00  -2.1568821e+01  -1.2802182e+01  -7.8550666e+00  -2.1980802e+01  -2.6935164e+01  -1.9449915e+01   6.3800074e+00   1.4908642e+00  -7.4238720e+00  -1.8042207e+01  -6.4627473e+00   0.0000000e+00   0.0000000e+00   0.0000000e+00   0.0000000e+00
   4.2995881e-01   1.3062597e+01  -3.8371020e+00  -2.9931978e+00  -7.9572013e+00  -1.1876415e+01  -1.3337540e+01   6.9847454e-01   6.8774128e+00  -2.1455232e+01  -1.3313998e+01  -7.9241461e+00  -2.1791127e+01  -2.6483071e+01  -1.9401764e+01   6.0745760e+00   1.8452803e+00  -6.8246932e+00  -1.8018450e+01  -5.6939761e+00   0.0000000e+00   0.0000000e+00   0.0000000e+00   0.0000000e+00
  -1.5729981e+00   1.2669399e+01  -3.6156632e+00  -2.4325644e+00  -7.8472813e+00  -1.2235758e+01  -1.3174779e+01   1.5351766e+00   7.6706748e+00  -2.1557637e+01  -1.3087784e+01  -8.4276212e+00  -2.2477258e+01  -2.6556769e+01  -1.9447209e+01   6.0443920e+00   1.7475169e+00  -6.2128902e+00  -1.8071998e+01  -4.7488921e+00   0.0000000e+00   0.0000000e+00   0.0000000e+00   0.0000000e+00
  -3.2144006e+00   1.2270313e+01  -3.5319458e+00  -1.9624568e+00  -8.1119620e+00  -1.2538707e+01  -1.3125608e+01   2.0015004e+00   7.7527414e+00  -2.2158873e+01  -1.2332206e+01  -9.2214182e+00  -2.3536184e+01  -2.6722690e+01  -1.9580031e+01   5.9769490e+00   1.3290454e+00  -6.2813792e+00  -1.8061384e+01  -3.9833440e+00   0.0000000e+00   0.0000000e+00   0.0000000e+00   0.0000000e+00
  -4.4154198e+00   1.2078493e+01  -3.5305235e+00  -1.9678293e+00  -9.1833404e+00  -1.2927785e+01  -1.3114776e+01   2.0104954e+00   7.1312269e+00  -2.3383819e+01  -1.1254764e+01  -1.0256988e+01  -2.4209734e+01  -2.6329398e+01  -1.9657430e+01   5.9374660e+00   5.4927041e-01  -6.9632567e+00  -1.8047853e+01  -3.4200296e+00   0.0000000e+00   0.0000000e+00   0.0000000e+00   0.0000000e+00
  -5.6746100e+00   1.2050861e+01  -3.3393766e+00  -2.1944448e+00  -1.0725438e+01  -1.3716016e+01  -1.3021288e+01   2.0199016e+00   6.0617241e+00  -2.4553612e+01  -1.0104497e+01  -1.1129056e+01  -2.4587784e+01  -2.6008956e+01  -1.9731381e+01   6.2076302e+00  -5.7195042e-01  -7.5162977e+00  -1.8174207e+01  -2.8444791e+00   0.0000000e+00   0.0000000e+00   0.0000000e+00   0.0000000e+00
  -6.6971350e+00   1.2282790e+01  -3.0091460e+00  -1.7235875e+00  -1.1752641e+01  -1.4579418e+01  -1.3003537e+01   2.4681631e+00   5.2110126e+00  -2.5003333e+01  -9.4087182e+00  -1.1009567e+01  -2.4553962e+01  -2.6066504e+01  -1.9734407e+01   6.7763638e+00  -1.2036784e+00  -7.5505006e+00  -1.8160936e+01  -2.1277069e+00   0.0000000e+00   0.0000000e+00   0.0000000e+00   0.0000000e+00
  -7.1035516e+00   1.2580163e+01  -2.7545506e+00  -3.6249048e-01  -1.2014778e+01  -1.4929650e+01  -1.3065629e+01   3.1754212e+00   4.8609015e+00  -2.4673712e+01  -9.3804817e+00  -9.4880286e+00  -2.3824335e+01  -2.5874767e+01  -1.9382373e+01   7.4092348e+00  -6.8705734e-01  -7.3077224e+00  -1.7705320e+01  -1.2385887e+00   0.0000000e+00   0.0000000e+00   0.0000000e+00   0.0000000e+00
  -6.8676355e+00   1.2782567e+01  -2.7375294e+00   1.5463111e+00  -1.1656228e+01  -1.4670496e+01  -1.3078009e+01   3.7971993e+00   5.0644167e+00  -2.3650267e+01  -9.6632495e+00  -6.7260100e+00  -2.2498382e+01  -2.5065674e+01  -1.8572536e+01   7.8444135e+00   9.1946107e-01  -6.7358210e+00  -1.6844011e+01  -3.9039323e-01   0.0000000e+00   0.0000000e+00   0.0000000e+00   0.0000000e+00
  -6.0590489e+00   1.3175784e+01  -2.8147501e+00   3.9273426e+00  -1.0690050e+01  -1.3913798e+01  -1.2677744e+01   4.3112957e+00   5.7080093e+00  -2.2068326e+01  -9.9261168e+00  -3.2232759e+00  -2.0617067e+01  -2.3535450e+01  -1.7358039e+01   7.9813423e+00   3.3557982e+00  -5.2328576e+00  -1.5626840e+01   2.6541061e-01   0.0000000e+00   0.0000000e+00   0.0000000e+00   0.0000000e+00
  -5.0281938e+00   1.3851593e+01  -2.7036860e+00   6.7620105e+00  -9.1475717e+00  -1.2688888e+01  -1.1778520e+01   4.6187134e+00   6.5246884e+00  -2.0064076e+01  -1.0239158e+01   5.5436347e-01  -1.8294564e+01  -2.1463957e+01  -1.6080813e+01   7.8325273e+00   6.2890626e+00  -2.7710989e+00  -1.4230497e+01   6.5093846e-01   0.0000000e+00   0.0000000e+00   0.0000000e+00   0.0000000e+00
  -4.3935284e+00   1.4748231e+01  -2.4875988e+00   9.4255817e+00  -7.1610567e+00  -1.1189117e+01  -1.0755685e+01   4.5423290e+00   7.0754822e+00  -1.7948621e+01  -1.0599708e+01   3.9848425e+00  -1.6057970e+01  -1.9413588e+01  -1.5192195e+01   7.4888185e+00   9.1070360e+00  -1.7491848e-01  -1.2973291e+01   6.6777483e-01   0.0000000e+00   0.0000000e+00   0.0000000e+00   0.0000000e+00
  -3.9288571e+00   1.5920140e+01  -2.3990301e+00   1.1078173e+01  -5.3917137e+00  -9.8269934e+00  -9.7244235e+00   4.1425946e+00   6.8417459e+00  -1.6131510e+01  -1.0915453e+01   6.1441939e+00  -1.4769679e+01  -1.7910271e+01  -1.4897885e+01   7.0118241e+00   1.1011618e+01   1.9563649e+00  -1.2128646e+01   3.4014343e-01   0.0000000e+00   0.0000000e+00   0.0000000e+00   0.0000000e+00
  -3.4535133e+00   1.7141941e+01  -2.6501578e+00   1.1273619e+01  -4.6622404e+00  -9.1461101e+00  -8.9127908e+00   3.5537640e+00   5.5045184e+00  -1.4944849e+01  -1.1047585e+01   6.3591312e+00  -1.4948030e+01  -1.7296181e+01  -1.5191072e+01   6.4001483e+00   1.1441427e+01   3.5832312e+00  -1.1812318e+01  -1.6186888e-01   0.0000000e+00   0.0000000e+00   0.0000000e+00   0.0000000e+00
  -3.4167772e+00   1.7948526e+01  -3.3804583e+00   1.0142216e+01  -5.0027984e+00  -9.2362765e+00  -8.6439869e+00   2.6144207e+00   3.2030114e+00  -1.4278526e+01  -1.0806908e+01   4.8208514e+00  -1.6147570e+01  -1.7409984e+01  -1.5705228e+01   5.8549709e+00   1.0571633e+01   4.6200588e+00  -1.1799104e+01  -5.9960656e-01   0.0000000e+00   0.0000000e+00   0.0000000e+00   0.0000000e+00
  -4.0034002e+00   1.7856882e+01  -4.4909021e+00   8.3834954e+00  -5.8872282e+00  -9.7195483e+00  -8.9472765e+00   1.2086878e+00   5.8930323e-01  -1.3775684e+01  -1.0219846e+01   2.4357781e+00  -1.7680760e+01  -1.7883605e+01  -1.6104938e+01   5.5212309e+00   9.1002343e+00   4.6984031e+00  -1.1901189e+01  -9.7221803e-01   0.0000000e+00   0.0000000e+00   0.0000000e+00   0.0000000e+00
  -4.3842647e+00   1.7293252e+01  -5.7149453e+00   7.4732002e+00  -6.3323132e+00  -1.0252559e+01  -9.4164203e+00  -3.5572810e-01  -1.4607023e+00  -1.3185955e+01  -9.4046490e+00   5.6710134e-01  -1.8834479e+01  -1.8098924e+01  -1.6116558e+01   5.2294772e+00   8.0969834e+00   4.1761484e+00  -1.1992516e+01  -1.4374328e+00   0.0000000e+00   0.0000000e+00   0.0000000e+00   0.0000000e+00
  -3.6141038e+00   1.7413096e+01  -6.6947836e+00   8.9473345e+00  -5.0621072e+00  -1.0304941e+01  -9.3372600e+00  -1.6407077e+00  -2.1619773e+00  -1.1913322e+01  -8.2315214e+00   7.8008972e-01  -1.8560044e+01  -1.7287335e+01  -1.5289186e+01   4.8856024e+00   8.8067405e+00   4.3363502e+00  -1.1660614e+01  -1.8944369e+00   0.0000000e+00   0.0000000e+00   0.0000000e+00   0.0000000e+00
  -1.2700473e+00   1.8899956e+01  -7.0928324e+00   1.3225486e+01  -1.3511705e+00  -9.1108123e+00  -8.3681616e+00  -2.7039853e+00  -8.4725648e-01  -9.5112052e+00  -6.8357587e+00   4.0851879e+00  -1.5990316e+01  -1.5170068e+01  -1.3490887e+01   4.3117306e+00   1.2020801e+01   5.8744411e+00  -1.0468144e+01  -2.4451621e+00   0.0000000e+00   0.0000000e+00   0.0000000e+00   0.0000000e+00
   2.9253443e+00   2.1510567e+01  -7.0258019e+00   1.9296518e+01   3.9478574e+00  -6.5726783e+00  -6.6577464e+00  -3.9500022e+00   2.6824030e+00  -6.1371105e+00  -5.7337493e+00   1.0327420e+01  -1.1043494e+01  -1.1907304e+01  -1.0975964e+01   3.2703756e+00   1.7527885e+01   8.4137255e+00  -8.4429853e+00  -3.3621564e+00   0.0000000e+00   0.0000000e+00   0.0000000e+00   0.0000000e+00
   8.3087851e+00   2.4217286e+01  -6.8559459e+00   2.5611615e+01   9.5351932e+00  -3.1933456e+00  -4.4240998e+00  -5.3969673e+00   7.8144340e+00  -2.3142215e+00  -5.2268023e+00   1.8285877e+01  -4.3613980e+00  -7.8470154e+00  -8.1090198e+00   1.9868506e+00   2.4374301e+01   1.1681239e+01  -6.1023508e+00  -4.5872167e+00   0.0000000e+00   0.0000000e+00   0.0000000e+00   0.0000000e+00
   1.3520218e+01   2.6559420e+01  -6.3083640e+00   3.1487721e+01   1.4899783e+01   4.6354655e-01  -1.8918210e+00  -6.5000930e+00   1.3081427e+01   1.2073938e+00  -5.4561632e+00   2.6572586e+01   2.6457824e+00  -3.9131164e+00  -5.4296282e+00   7.7078100e-01   3.1303473e+01   1.5791638e+01  -3.9968283e+00  -5.7659533e+00   0.0000000e+00   0.0000000e+00   0.0000000e+00   0.0000000e+00
   1.7103816e+01   2.8991662e+01  -5.3829958e+00   3.6871745e+01   1.9754685e+01   3.5163761e+00   3.0828509e-01  -7.0052233e+00   1.7179722e+01   3.8318043e+00  -6.3237798e+00   3.4469311e+01   8.6671229e+00  -1.1513411e+00  -3.5873082e+00  -3.5694870e-01   3.7224742e+01   2.0230651e+01  -2.4260546e+00  -6.7290688e+00   0.0000000e+00   0.0000000e+00   0.0000000e+00   0.0000000e+00
   1.8955195e+01   3.1576218e+01  -4.7192808e+00   4.1085840e+01   2.3299669e+01   5.4737406e+00   1.5005641e+00  -7.2979606e+00   1.8957799e+01   4.7230793e+00  -7.6855798e+00   4.0955408e+01   1.2602335e+01  -1.8824696e-01  -3.0704089e+00  -1.4583382e+00   4.1220349e+01   2.3740390e+01  -1.4835591e+00  -7.5607380e+00   0.0000000e+00   0.0000000e+00   0.0000000e+00   0.0000000e+00
   2.0007516e+01   3.3502698e+01  -4.4479005e+00   4.3256809e+01   2.4745373e+01   6.2850390e+00   1.7959630e+00  -7.3061873e+00   1.7819195e+01   3.3984695e+00  -9.1051535e+00   4.4613391e+01   1.3252925e+01  -1.2476686e+00  -3.7347269e+00  -2.1802033e+00   4.2593916e+01   2.5756832e+01  -1.1070270e+00  -7.9592221e+00   0.0000000e+00   0.0000000e+00   0.0000000e+00   0.0000000e+00
   2.0263947e+01   3.4132261e+01  -4.2772412e+00   4.3561616e+01   2.4487860e+01   6.0572354e+00   1.8651577e+00  -6.6053231e+00   1.4546296e+01   7.8058818e-01  -9.7622144e+00   4.5238080e+01   1.1409010e+01  -3.3362081e+00  -4.7004057e+00  -1.8642704e+00   4.1903353e+01   2.6989231e+01  -8.2667920e-01  -7.3584597e+00   0.0000000e+00   0.0000000e+00   0.0000000e+00   0.0000000e+00
   1.9271353e+01   3.3513563e+01  -4.3445733e+00   4.2635697e+01   2.3197309e+01   5.0202944e+00   1.7973105e+00  -5.5734507e+00   1.0383457e+01  -1.8322026e+00  -9.3813869e+00   4.3539528e+01   9.0165995e+00  -4.8061617e+00  -5.2020426e+00  -6.8360987e-01   4.0297642e+01   2.7708939e+01  -1.5697935e-01  -5.8136168e+00   0.0000000e+00   0.0000000e+00   0.0000000e+00   0.0000000e+00
   1.7127771e+01   3.2286514e+01  -4.9198375e+00   4.0700072e+01   2.1380863e+01   3.5695548e+00   1.3942529e+00  -4.8538363e+00   7.0119208e+00  -3.6069851e+00  -8.3278770e+00   4.0394424e+01   7.2279397e+00  -4.7704069e+00  -4.9390144e+00   6.2514250e-01   3.8456798e+01   2.7458795e+01   1.0163070e+00  -3.9340463e+00   0.0000000e+00   0.0000000e+00   0.0000000e+00   0.0000000e+00
   1.5114250e+01   3.1654798e+01  -5.6897476e+00   3.8006905e+01   1.9742898e+01   2.5706057e+00   1.1619452e+00  -4.5793359e+00   5.6463224e+00  -4.0107100e+00  -6.8890664e+00   3.6399314e+01   6.2233408e+00  -3.6543738e+00  -3.8938451e+00   1.7975639e+00   3.6609749e+01   2.6509525e+01   2.5520809e+00  -2.1720710e+00   0.0000000e+00   0.0000000e+00   0.0000000e+00   0.0000000e+00
   1.4355205e+01   3.2124123e+01  -6.3247396e+00   3.4624721e+01   1.8230394e+01   2.3250540e+00   1.1909931e+00  -4.7709979e+00   5.4769465e+00  -3.4677019e+00  -5.6482808e+00   3.1917886e+01   5.3249693e+00  -2.4195849e+00  -2.6271308e+00   2.5998876e+00   3.4636390e+01   2.5466398e+01   3.8656267e+00  -1.1009387e+00   0.0000000e+00   0.0000000e+00   0.0000000e+00   0.0000000e+00
   1.5070916e+01   3.2911262e+01  -6.8882192e+00   3.0920766e+01   1.6655857e+01   2.2326360e+00   1.0123961e+00  -5.4421217e+00   5.8643312e+00  -2.3360921e+00  -5.3204976e+00   2.7991628e+01   4.3975946e+00  -1.4909459e+00  -2.0596114e+00   2.5866056e+00   3.2684483e+01   2.4481127e+01   4.3492129e+00  -1.2057203e+00   0.0000000e+00   0.0000000e+00   0.0000000e+00   0.0000000e+00
   1.6779661e+01   3.3425873e+01  -7.5350037e+00   2.8077282e+01   1.5648065e+01   1.8417366e+00   4.8184233e-01  -6.6908391e+00   6.8199685e+00  -7.8885108e-01  -6.0788765e+00   2.5377303e+01   3.7151784e+00  -8.8058448e-01  -2.5677671e+00   1.4835252e+00   3.1064275e+01   2.3379444e+01   3.8085940e+00  -2.5617221e+00   0.0000000e+00   0.0000000e+00   0.0000000e+00   0.0000000e+00
   1.8199889e+01   3.4084173e+01  -8.2305524e+00   2.6649890e+01   1.5669734e+01   8.0407080e-01  -6.1484496e-01  -8.2748832e+00   7.5253856e+00  -1.7030285e-01  -7.6116978e+00   2.3584925e+01   2.8150350e+00  -8.8976334e-01  -4.0168287e+00  -4.9126543e-01   2.9621176e+01   2.2101045e+01   2.2809409e+00  -4.8565894e+00   0.0000000e+00   0.0000000e+00   0.0000000e+00   0.0000000e+00
   1.8144211e+01   3.5083655e+01  -8.4493236e+00   2.5958542e+01   1.6470960e+01  -6.1332461e-01  -1.7212348e+00  -9.2893589e+00   7.0025324e+00  -1.3911986e+00  -9.0619653e+00   2.1979756e+01   1.3959492e+00  -1.5565849e+00  -5.7398845e+00  -2.4727081e+00   2.8268353e+01   2.1067859e+01   5.4727597e-01  -7.0071086e+00   0.0000000e+00   0.0000000e+00   0.0000000e+00   0.0000000e+00
   1.7535996e+01   3.5991741e+01  -7.8230969e+00   2.5480695e+01   1.7432316e+01  -1.1627379e+00  -1.7953953e+00  -9.0925625e+00   4.9237710e+00  -3.5977857e+00  -9.9197439e+00   2.0552426e+01   6.0916580e-02  -2.5778787e+00  -7.0280482e+00  -3.8022965e+00   2.7452184e+01   2.0551098e+01  -3.8337269e-01  -8.0211432e+00   0.0000000e+00   0.0000000e+00   0.0000000e+00   0.0000000e+00
   1.7837879e+01   3.6571078e+01  -6.4700762e+00   2.5876408e+01   1.8812206e+01   8.3438855e-02  -5.9554321e-01  -7.8458970e+00   2.0290607e+00  -6.0455916e+00  -1.0199188e+01   1.9641670e+01  -6.9275722e-01  -3.5076269e+00  -7.7102499e+00  -4.4621450e+00   2.7751113e+01   2.0344521e+01  -2.3669636e-01  -7.7797193e+00   0.0000000e+00   0.0000000e+00   0.0000000e+00   0.0000000e+00
   1.8115005e+01   3.7038138e+01  -5.1503222e+00   2.7295142e+01   2.0721334e+01   1.6467417e+00   8.1327529e-01  -6.3817171e+00  -1.0324554e+00  -8.4100934e+00  -9.9948790e+00   1.9250085e+01  -1.0685725e+00  -4.0504693e+00  -8.0281778e+00  -4.6935685e+00   2.8912320e+01   2.0070240e+01   2.8887469e-01  -6.9916003e+00   0.0000000e+00   0.0000000e+00   0.0000000e+00   0.0000000e+00
   1.7379542e+01   3.6675917e+01  -4.6084848e+00   2.8797424e+01   2.2294511e+01   2.4149477e+00   1.6132916e+00  -5.3289153e+00  -3.6693273e+00  -9.7067682e+00  -9.1257870e+00   1.9113152e+01  -1.2600178e+00  -4.3275325e+00  -7.8845625e+00  -4.5148424e+00   3.0346644e+01   1.9740928e+01   5.9327305e-01  -6.2712575e+00   0.0000000e+00   0.0000000e+00   0.0000000e+00   0.0000000e+00
   1.6229115e+01   3.5472569e+01  -4.8615973e+00   2.9747980e+01   2.2976657e+01   2.7271762e+00   1.6217649e+00  -4.7603734e+00  -4.9634943e+00  -9.2899554e+00  -7.5736720e+00   1.9144979e+01  -1.2667462e+00  -4.3044202e+00  -7.2609487e+00  -4.0558218e+00   3.1864189e+01   1.9370916e+01   7.6697243e-01  -5.7515683e+00   0.0000000e+00   0.0000000e+00   0.0000000e+00   0.0000000e+00
   1.5069803e+01   3.4641555e+01  -5.5422150e+00   3.0022941e+01   2.2996287e+01   2.6490309e+00   8.9238621e-01  -4.7241982e+00  -4.8508318e+00  -7.4346833e+00  -5.8365480e+00   1.9095969e+01  -1.4050376e+00  -3.9543702e+00  -6.5141782e+00  -3.7373917e+00   3.3335985e+01   1.8585970e+01   8.8736626e-01  -5.4760110e+00   0.0000000e+00   0.0000000e+00   0.0000000e+00   0.0000000e+00
   1.4155432e+01   3.4646763e+01  -5.9684381e+00   3.0063700e+01   2.2882318e+01   2.7393878e+00   2.4763522e-01  -5.1198460e+00  -3.5377355e+00  -4.8449413e+00  -4.4281723e+00   1.8916591e+01  -1.5337277e+00  -3.3262456e+00  -5.6695776e+00  -3.8535785e+00   3.4781714e+01   1.7681874e+01   9.8876323e-01  -5.5140309e+00   0.0000000e+00   0.0000000e+00   0.0000000e+00   0.0000000e+00
   1.3660459e+01   3.5205184e+01  -5.6078227e+00   3.0091981e+01   2.2727165e+01   3.0331770e+00   2.3236411e-01  -5.6024324e+00  -1.6738874e+00  -2.5612327e+00  -3.7643674e+00   1.8645502e+01  -1.4157571e+00  -2.5991605e+00  -4.8937083e+00  -4.4644218e+00   3.6100366e+01   1.7357093e+01   1.0239688e+00  -5.9407816e+00   0.0000000e+00   0.0000000e+00   0.0000000e+00   0.0000000e+00
   1.3406509e+01   3.6125984e+01  -4.6657172e+00   2.9708802e+01   2.2628755e+01   3.3401701e+00   6.9685769e-01  -5.9723358e+00  -8.7792020e-01  -1.6379337e+00  -4.1023218e+00   1.7872322e+01  -1.5783327e+00  -2.1701800e+00  -4.3982608e+00  -5.4237144e+00   3.7051324e+01   1.7552102e+01   1.0820451e+00  -6.4986695e+00   0.0000000e+00   0.0000000e+00   0.0000000e+00   0.0000000e+00
   1.3920857e+01   3.7717631e+01  -3.5385924e+00   2.8951909e+01   2.2817041e+01   3.8230829e+00   1.3487670e+00  -6.2270977e+00  -1.9372665e+00  -2.3578135e+00  -5.3341674e+00   1.6334796e+01  -2.2819584e+00  -2.0149139e+00  -4.2405323e+00  -6.4432073e+00   3.7477372e+01   1.7671303e+01   1.4093624e+00  -6.7397062e+00   0.0000000e+00   0.0000000e+00   0.0000000e+00   0.0000000e+00
   1.5540783e+01   3.9787948e+01  -2.1312411e+00   2.7764696e+01   2.2566787e+01   4.0844080e+00   2.0091238e+00  -6.3037272e+00  -4.8408723e+00  -4.3819078e+00  -7.1796206e+00   1.3647025e+01  -3.8814282e+00  -2.3503458e+00  -4.3806437e+00  -7.3731610e+00   3.6752870e+01   1.7245791e+01   1.7434662e+00  -6.6108781e+00   0.0000000e+00   0.0000000e+00   0.0000000e+00   0.0000000e+00
   1.7280610e+01   4.1807986e+01  -6.3232463e-01   2.5398655e+01   2.1131057e+01   3.7296039e+00   2.3419797e+00  -6.2014807e+00  -9.2636560e+00  -7.3159015e+00  -9.1193172e+00   9.3031403e+00  -7.0860242e+00  -4.1788977e+00  -5.1571631e+00  -8.1419943e+00   3.4159891e+01   1.6174956e+01   1.5382119e+00  -6.3834303e+00   0.0000000e+00   0.0000000e+00   0.0000000e+00   0.0000000e+00
   1.8245215e+01   4.2920514e+01   4.3059754e-01   2.1424871e+01   1.8595048e+01   2.9066537e+00   1.9134629e+00  -6.1458778e+00  -1.4355715e+01  -1.0574556e+01  -1.0749397e+01   3.7609975e+00  -1.1569670e+01  -7.3514005e+00  -6.7192942e+00  -8.8097642e+00   2.9726067e+01   1.4335355e+01   6.0523715e-01  -6.3491589e+00   0.0000000e+00   0.0000000e+00   0.0000000e+00   0.0000000e+00
   1.7547643e+01   4.2322671e+01   3.0082107e-01   1.6295048e+01   1.4740262e+01   7.1264336e-01  -4.9266948e-02  -6.7452935e+00  -1.9107510e+01  -1.3493195e+01  -1.2257636e+01  -1.9052531e+00  -1.6461582e+01  -1.1183517e+01  -9.1648063e+00  -9.8216147e+00   2.3723464e+01   1.1076796e+01  -1.4013777e+00  -7.0107630e+00   0.0000000e+00   0.0000000e+00   0.0000000e+00   0.0000000e+00
   1.5496653e+01   3.9897858e+01  -1.0732735e+00   1.1346771e+01   1.0060590e+01  -3.0217218e+00  -3.3124205e+00  -8.1050981e+00  -2.2499298e+01  -1.5458324e+01  -1.3420714e+01  -6.6652178e+00  -2.0976916e+01  -1.5316922e+01  -1.2236284e+01  -1.1103381e+01   1.7193755e+01   6.6642471e+00  -4.4040594e+00  -8.5101733e+00   0.0000000e+00   0.0000000e+00   0.0000000e+00   0.0000000e+00
   1.3459786e+01   3.6168878e+01  -3.1542647e+00   7.9353335e+00   5.4964616e+00  -6.9425439e+00  -6.7949326e+00  -9.8023870e+00  -2.3913160e+01  -1.5824540e+01  -1.3805088e+01  -9.4553051e+00  -2.4181157e+01  -1.8938733e+01  -1.5113656e+01  -1.2177048e+01   1.1744891e+01   2.4692718e+00  -7.6766333e+00  -1.0408166e+01   0.0000000e+00   0.0000000e+00   0.0000000e+00   0.0000000e+00
   1.1694510e+01   3.1756542e+01  -5.7150423e+00   6.2759454e+00   1.5263441e+00  -9.9661896e+00  -1.0197991e+01  -1.1526862e+01  -2.3416940e+01  -1.4421452e+01  -1.3579801e+01  -9.9041524e+00  -2.5621520e+01  -2.1425515e+01  -1.7389104e+01  -1.3188511e+01   8.1237710e+00  -8.5395951e-01  -1.0710034e+01  -1.2292559e+01   0.0000000e+00   0.0000000e+00   0.0000000e+00   0.0000000e+00
   9.8189710e+00   2.7184179e+01  -8.6222557e+00   5.6669614e+00  -1.5262601e+00  -1.2435276e+01  -1.3573931e+01  -1.2994499e+01  -2.1483355e+01  -1.1957128e+01  -1.3121125e+01  -8.6199619e+00  -2.5714626e+01  -2.2927361e+01  -1.9250759e+01  -1.4352488e+01   6.0864154e+00  -3.6016911e+00  -1.3341348e+01  -1.3904204e+01   0.0000000e+00   0.0000000e+00   0.0000000e+00   0.0000000e+00
   7.3823124e+00   2.3108332e+01  -1.1115751e+01   5.6547587e+00  -3.1385731e+00  -1.4530396e+01  -1.6224675e+01  -1.3768879e+01  -1.8679409e+01  -9.6892809e+00  -1.2391652e+01  -6.3623332e+00  -2.4913574e+01  -2.3447640e+01  -2.0467551e+01  -1.5115295e+01   5.3095738e+00  -5.4813154e+00  -1.5217247e+01  -1.4835504e+01   0.0000000e+00   0.0000000e+00   0.0000000e+00   0.0000000e+00
   4.8307923e+00   2.0003481e+01  -1.2251119e+01   6.2900832e+00  -3.0483584e+00  -1.5422339e+01  -1.7266606e+01  -1.3561688e+01  -1.5599243e+01  -8.3163343e+00  -1.1270910e+01  -3.7160405e+00  -2.3306125e+01  -2.2590639e+01  -2.0463208e+01  -1.4905622e+01   5.7296351e+00  -5.5932476e+00  -1.5700342e+01  -1.4639959e+01   0.0000000e+00   0.0000000e+00   0.0000000e+00   0.0000000e+00
   3.7080693e+00   1.8234840e+01  -1.2138903e+01   7.1547038e+00  -2.2009561e+00  -1.5195722e+01  -1.6853475e+01  -1.2689641e+01  -1.3300080e+01  -7.7744561e+00  -1.0179629e+01  -1.5522436e+00  -2.1566530e+01  -2.0987216e+01  -1.9566802e+01  -1.3958589e+01   6.8272849e+00  -4.2046642e+00  -1.4710312e+01  -1.3451566e+01   0.0000000e+00   0.0000000e+00   0.0000000e+00   0.0000000e+00
   3.9725127e+00   1.7897110e+01  -1.1363867e+01   7.4276206e+00  -1.3804107e+00  -1.4162998e+01  -1.5482886e+01  -1.1505375e+01  -1.2681361e+01  -7.9441329e+00  -9.4852304e+00  -6.7049511e-01  -2.0304284e+01  -1.9274612e+01  -1.8324071e+01  -1.2753833e+01   8.0900293e+00  -2.5227166e+00  -1.2603179e+01  -1.1713780e+01   0.0000000e+00   0.0000000e+00   0.0000000e+00   0.0000000e+00
   4.5969865e+00   1.8197979e+01  -9.9183545e+00   6.8624047e+00  -6.1772696e-01  -1.2350870e+01  -1.3170896e+01  -9.8403640e+00  -1.3455907e+01  -8.6118853e+00  -8.7119996e+00  -1.0730430e+00  -1.9295757e+01  -1.7217235e+01  -1.6585234e+01  -1.1200206e+01   9.4524699e+00  -9.3506330e-01  -9.6737522e+00  -9.4811821e+00   0.0000000e+00   0.0000000e+00   0.0000000e+00   0.0000000e+00
   5.0711277e+00   1.8284085e+01  -7.9646691e+00   5.6693154e+00   1.9865660e-01  -9.9394344e+00  -1.0120695e+01  -7.7215835e+00  -1.4901740e+01  -9.3808308e+00  -7.3563323e+00  -2.3828923e+00  -1.8395589e+01  -1.4669718e+01  -1.4186596e+01  -9.1317607e+00   1.0797589e+01   9.4916102e-01  -6.3073802e+00  -6.8191342e+00   0.0000000e+00   0.0000000e+00   0.0000000e+00   0.0000000e+00
   5.0707818e+00   1.7942187e+01  -6.2316920e+00   3.6202137e+00   5.0682531e-01  -7.5779247e+00  -7.2036914e+00  -5.8296686e+00  -1.6801180e+01  -9.9048064e+00  -5.7858964e+00  -4.4750778e+00  -1.8107077e+01  -1.2234387e+01  -1.1796165e+01  -7.0325025e+00   1.1459945e+01   2.6828157e+00  -3.2211818e+00  -4.2436730e+00   0.0000000e+00   0.0000000e+00   0.0000000e+00   0.0000000e+00
   3.7997776e+00   1.7045595e+01  -5.3955396e+00   1.1235185e-01  -7.5020220e-01  -6.2143361e+00  -5.4984699e+00  -4.7960036e+00  -1.9377671e+01  -1.0472982e+01  -4.7057413e+00  -7.6884473e+00  -1.9294365e+01  -1.1085921e+01  -1.0661316e+01  -5.5084833e+00   1.0386532e+01   2.9191014e+00  -1.3864182e+00  -2.3977397e+00   0.0000000e+00   0.0000000e+00   0.0000000e+00   0.0000000e+00
   9.0056261e-01   1.5293974e+01  -5.4441233e+00  -4.8541596e+00  -3.6692609e+00  -6.6029677e+00  -5.3610839e+00  -4.6101989e+00  -2.2367094e+01  -1.1491290e+01  -4.2406598e+00  -1.1943603e+01  -2.2136745e+01  -1.1822964e+01  -1.1019635e+01  -4.7429083e+00   7.2049087e+00   1.3539041e+00  -1.3384498e+00  -1.5413975e+00   0.0000000e+00   0.0000000e+00   0.0000000e+00   0.0000000e+00
  -2.4336458e+00   1.2605247e+01  -5.8998936e+00  -1.0360253e+01  -7.4827224e+00  -8.7105758e+00  -6.3716927e+00  -4.8964052e+00  -2.4909014e+01  -1.2614108e+01  -3.8329434e+00  -1.6179001e+01  -2.5515840e+01  -1.3716305e+01  -1.2286337e+01  -4.4420013e+00   2.8237454e+00  -8.8145823e-01  -2.5955659e+00  -1.3242045e+00   0.0000000e+00   0.0000000e+00   0.0000000e+00   0.0000000e+00
  -5.4680525e+00   9.1121547e+00  -6.4324564e+00  -1.5460815e+01  -1.1225743e+01  -1.1765648e+01  -8.1220501e+00  -5.4093841e+00  -2.6618421e+01  -1.3400587e+01  -3.2955133e+00  -1.9449303e+01  -2.8453468e+01  -1.5830020e+01  -1.3901275e+01  -4.2877454e+00  -1.4820453e+00  -3.0427165e+00  -4.3390383e+00  -1.2872351e+00   0.0000000e+00   0.0000000e+00   0.0000000e+00   0.0000000e+00
  -8.6811431e+00   5.0147241e+00  -7.2551796e+00  -1.9821349e+01  -1.4672199e+01  -1.5091543e+01  -1.0327524e+01  -6.2204954e+00  -2.7566461e+01  -1.3668950e+01  -2.9391996e+00  -2.1567457e+01  -3.0793804e+01  -1.7822840e+01  -1.5741130e+01  -4.4202007e+00  -5.0626895e+00  -5.3117042e+00  -6.1678600e+00  -1.4898037e+00   0.0000000e+00   0.0000000e+00   0.0000000e+00   0.0000000e+00
  -1.2021459e+01   8.5821020e-01  -8.4397730e+00  -2.3111087e+01  -1.7739832e+01  -1.7799186e+01  -1.2203326e+01  -7.0997128e+00  -2.7424729e+01  -1.3156243e+01  -2.6535371e+00  -2.2220016e+01  -3.1991865e+01  -1.8952535e+01  -1.7125375e+01  -4.8440185e+00  -7.3499236e+00  -7.2277260e+00  -7.6308491e+00  -2.0820539e+00   0.0000000e+00   0.0000000e+00   0.0000000e+00   0.0000000e+00
  -1.4879478e+01  -2.4356000e+00  -9.4872722e+00  -2.5019571e+01  -1.9950760e+01  -1.9278011e+01  -1.3062898e+01  -7.5608380e+00  -2.5919667e+01  -1.1927121e+01  -2.2680529e+00  -2.1292989e+01  -3.1542097e+01  -1.8632639e+01  -1.7178405e+01  -5.4539401e+00  -7.9418484e+00  -7.8197270e+00  -8.2395695e+00  -2.9768922e+00   0.0000000e+00   0.0000000e+00   0.0000000e+00   0.0000000e+00
  -1.6860570e+01  -4.3379726e+00  -9.9430392e+00  -2.5579903e+01  -2.0877858e+01  -1.9485201e+01  -1.2841764e+01  -7.6855141e+00  -2.3708041e+01  -1.0747789e+01  -1.9020169e+00  -1.9447374e+01  -2.9829170e+01  -1.7016344e+01  -1.6146160e+01  -6.4328659e+00  -7.0482521e+00  -7.1078493e+00  -7.8808340e+00  -4.0248141e+00   0.0000000e+00   0.0000000e+00   0.0000000e+00   0.0000000e+00
  -1.7815238e+01  -4.8562410e+00  -9.7185610e+00  -2.5158052e+01  -2.0094931e+01  -1.8288226e+01  -1.1769657e+01  -7.6549351e+00  -2.1644183e+01  -9.7921146e+00  -1.4725045e+00  -1.7469043e+01  -2.7578277e+01  -1.4628401e+01  -1.4441705e+01  -7.5744158e+00  -5.2355921e+00  -5.8504896e+00  -6.6743917e+00  -4.7807071e+00   0.0000000e+00   0.0000000e+00   0.0000000e+00   0.0000000e+00
  -1.7917917e+01  -4.2632021e+00  -8.8737034e+00  -2.4415824e+01  -1.8439306e+01  -1.6182247e+01  -1.0137838e+01  -7.3548993e+00  -2.0217182e+01  -9.0390060e+00  -6.8216195e-01  -1.5848329e+01  -2.5598384e+01  -1.2118252e+01  -1.2311878e+01  -8.3301825e+00  -3.3623359e+00  -4.5298762e+00  -4.8944719e+00  -4.9063803e+00   0.0000000e+00   0.0000000e+00   0.0000000e+00   0.0000000e+00
  -1.7222105e+01  -3.1109744e+00  -7.7164308e+00  -2.3546935e+01  -1.6875563e+01  -1.3844992e+01  -8.3230099e+00  -6.8155439e+00  -1.9904463e+01  -8.8790403e+00   5.3087600e-01  -1.4839598e+01  -2.4568948e+01  -1.0234923e+01  -1.0068868e+01  -8.6191890e+00  -1.9326624e+00  -3.1362215e+00  -2.8693626e+00  -4.5229899e+00   0.0000000e+00   0.0000000e+00   0.0000000e+00   0.0000000e+00
  -1.5945109e+01  -1.8419147e+00  -6.8158945e+00  -2.2707416e+01  -1.5640303e+01  -1.1483937e+01  -6.7373328e+00  -6.2285807e+00  -2.1125232e+01  -9.7893217e+00   1.6745125e+00  -1.4939489e+01  -2.4864941e+01  -9.6981477e+00  -8.3104847e+00  -8.8300328e+00  -1.1429350e+00  -2.0386314e+00  -9.8757072e-01  -3.8180819e+00   0.0000000e+00   0.0000000e+00   0.0000000e+00   0.0000000e+00
  -1.5071259e+01  -7.7316856e-01  -6.0691222e+00  -2.2486102e+01  -1.5130281e+01  -9.7388195e+00  -5.6940283e+00  -5.4441583e+00  -2.3942096e+01  -1.1919321e+01   2.1519702e+00  -1.6591803e+01  -2.6890681e+01  -1.0776257e+01  -7.6501168e+00  -9.0957412e+00  -1.4220387e+00  -2.0713355e+00   2.5759961e-01  -2.8614857e+00   0.0000000e+00   0.0000000e+00   0.0000000e+00   0.0000000e+00
  -1.4901555e+01  -2.1509624e-01  -4.9756090e+00  -2.2978099e+01  -1.5429428e+01  -9.0851979e+00  -5.1710473e+00  -4.3762767e+00  -2.7418903e+01  -1.4297193e+01   2.1109570e+00  -1.9303531e+01  -3.0207645e+01  -1.2823635e+01  -7.8565576e+00  -9.1090184e+00  -2.7644761e+00  -3.0765942e+00   6.0246224e-01  -1.8754218e+00   0.0000000e+00   0.0000000e+00   0.0000000e+00   0.0000000e+00
  -1.4719203e+01  -1.1411908e-01  -3.9974453e+00  -2.3727599e+01  -1.6173292e+01  -9.4743618e+00  -5.1328787e+00  -3.6527614e+00  -3.0225994e+01  -1.5721917e+01   1.9716153e+00  -2.1948126e+01  -3.3373395e+01  -1.4617158e+01  -8.4755025e+00  -8.8014066e+00  -4.5070279e+00  -4.0869384e+00   9.2013060e-02  -1.4433851e+00   0.0000000e+00   0.0000000e+00   0.0000000e+00   0.0000000e+00
  -1.4660234e+01  -3.0166712e-01  -4.0267182e+00  -2.4385557e+01  -1.6794802e+01  -1.0520151e+01  -5.7619948e+00  -3.8392598e+00  -3.1605199e+01  -1.5979522e+01   1.7077653e+00  -2.3628029e+01  -3.5360381e+01  -1.5379766e+01  -9.3444032e+00  -8.6113121e+00  -5.9680998e+00  -4.8374154e+00  -1.0848474e+00  -1.9848363e+00   0.0000000e+00   0.0000000e+00   0.0000000e+00   0.0000000e+00
  -1.5780467e+01  -1.2795243e+00  -5.1804267e+00  -2.5078508e+01  -1.7151455e+01  -1.1729892e+01  -7.0961741e+00  -4.6995519e+00  -3.1394804e+01  -1.5574938e+01   1.1383590e+00  -2.4238128e+01  -3.6369229e+01  -1.5336006e+01  -1.0522862e+01  -8.9962758e+00  -7.0152619e+00  -5.8782464e+00  -2.8158699e+00  -3.3166060e+00   0.0000000e+00   0.0000000e+00   0.0000000e+00   0.0000000e+00
  -1.7932476e+01  -3.2827472e+00  -6.7221591e+00  -2.6279574e+01  -1.8120468e+01  -1.3116568e+01  -8.8136087e+00  -5.6201489e+00  -3.0425045e+01  -1.4809989e+01   4.3651872e-01  -2.4492232e+01  -3.7372566e+01  -1.5154690e+01  -1.1865555e+01  -9.8125616e+00  -8.1816052e+00  -7.3344462e+00  -4.9838474e+00  -4.9529552e+00   0.0000000e+00   0.0000000e+00   0.0000000e+00   0.0000000e+00
  -2.0537666e+01  -5.9292667e+00  -7.8788754e+00  -2.8182335e+01  -2.0315625e+01  -1.4888623e+01  -1.0492017e+01  -6.1273426e+00  -2.9460198e+01  -1.3891278e+01   7.2402934e-02  -2.4925032e+01  -3.8858550e+01  -1.5168461e+01  -1.2983192e+01  -1.0503903e+01  -9.7612893e+00  -8.6619924e+00  -7.1269553e+00  -6.3057829e+00   0.0000000e+00   0.0000000e+00   0.0000000e+00   0.0000000e+00
  -2.3249650e+01  -8.8440514e+00  -8.6123730e+00  -3.0277586e+01  -2.2803960e+01  -1.6670075e+01  -1.1949675e+01  -6.1736673e+00  -2.8481315e+01  -1.3180256e+01   2.7674853e-01  -2.5303713e+01  -4.0387170e+01  -1.5209226e+01  -1.3568431e+01  -1.0834616e+01  -1.1219048e+01  -9.6305093e+00  -8.7025658e+00  -6.9014803e+00   0.0000000e+00   0.0000000e+00   0.0000000e+00   0.0000000e+00
  -2.5491520e+01  -1.1655229e+01  -9.4457383e+00  -3.2259398e+01  -2.4998171e+01  -1.8398599e+01  -1.3447282e+01  -6.0915075e+00  -2.7994287e+01  -1.3201776e+01   6.4436821e-01  -2.5676846e+01  -4.1721444e+01  -1.5448392e+01  -1.3941019e+01  -1.1002237e+01  -1.2480301e+01  -1.0865420e+01  -9.7243895e+00  -6.7739078e+00   0.0000000e+00   0.0000000e+00   0.0000000e+00   0.0000000e+00
  -2.6953138e+01  -1.3867401e+01  -1.0275553e+01  -3.3988430e+01  -2.6892344e+01  -1.9989347e+01  -1.4839800e+01  -5.8637015e+00  -2.8084645e+01  -1.3819778e+01   1.0513750e+00  -2.6068619e+01  -4.2696446e+01  -1.5783664e+01  -1.4127098e+01  -1.0866395e+01  -1.3730653e+01  -1.2473820e+01  -1.0137837e+01  -5.9371280e+00   0.0000000e+00   0.0000000e+00   0.0000000e+00   0.0000000e+00
  -2.7579107e+01  -1.5254219e+01  -1.0598115e+01  -3.5303308e+01  -2.8331900e+01  -2.0927095e+01  -1.5650257e+01  -5.2672178e+00  -2.8131461e+01  -1.4330060e+01   1.7101599e+00  -2.6146256e+01  -4.3132262e+01  -1.5767394e+01  -1.3824607e+01  -1.0152346e+01  -1.4751376e+01  -1.3828143e+01  -9.8360129e+00  -4.4852720e+00   0.0000000e+00   0.0000000e+00   0.0000000e+00   0.0000000e+00
  -2.7900271e+01  -1.6040923e+01  -1.0636074e+01  -3.6568171e+01  -2.9612787e+01  -2.1394728e+01  -1.6064925e+01  -4.5868678e+00  -2.8225068e+01  -1.4596233e+01   2.4479787e+00  -2.6031337e+01  -4.3328404e+01  -1.5632620e+01  -1.3420317e+01  -9.1307580e+00  -1.5563021e+01  -1.5105797e+01  -9.3359508e+00  -3.1101370e+00   0.0000000e+00   0.0000000e+00   0.0000000e+00   0.0000000e+00
  -2.8401877e+01  -1.6347515e+01  -1.0933765e+01  -3.7886644e+01  -3.0693072e+01  -2.1826030e+01  -1.6392849e+01  -4.4232406e+00  -2.8637353e+01  -1.4700232e+01   3.0103117e+00  -2.5981843e+01  -4.3455653e+01  -1.5708139e+01  -1.3372235e+01  -8.3137819e+00  -1.6206209e+01  -1.6911274e+01  -9.2114568e+00  -2.5673005e+00   0.0000000e+00   0.0000000e+00   0.0000000e+00   0.0000000e+00
  -2.8944979e+01  -1.6455144e+01  -1.1263555e+01  -3.9080255e+01  -3.1360809e+01  -2.2188908e+01  -1.6597257e+01  -4.7957911e+00  -2.9178806e+01  -1.4742545e+01   3.4762096e+00  -2.6126578e+01  -4.3360300e+01  -1.5757741e+01  -1.3510988e+01  -7.8819605e+00  -1.6675998e+01  -1.8889404e+01  -9.6163684e+00  -3.0212032e+00   0.0000000e+00   0.0000000e+00   0.0000000e+00   0.0000000e+00
  -2.9371325e+01  -1.6712481e+01  -1.1190597e+01  -4.0273089e+01  -3.1951664e+01  -2.2443609e+01  -1.6484910e+01  -5.3428817e+00  -2.9392404e+01  -1.4638801e+01   4.1457548e+00  -2.6582647e+01  -4.2829532e+01  -1.5355307e+01  -1.3388719e+01  -7.5473781e+00  -1.6943223e+01  -1.9977572e+01  -1.0288220e+01  -4.0459063e+00   0.0000000e+00   0.0000000e+00   0.0000000e+00   0.0000000e+00
  -2.9971068e+01  -1.7068309e+01  -1.0839743e+01  -4.1769868e+01  -3.2794254e+01  -2.2732697e+01  -1.6227841e+01  -5.8013218e+00  -2.9338639e+01  -1.4466456e+01   4.9266104e+00  -2.7553098e+01  -4.2094930e+01  -1.4749693e+01  -1.2992749e+01  -7.2123483e+00  -1.7020573e+01  -2.0010965e+01  -1.0924690e+01  -5.0762433e+00   0.0000000e+00   0.0000000e+00   0.0000000e+00   0.0000000e+00
  -3.0864750e+01  -1.7504257e+01  -1.0720866e+01  -4.3478797e+01  -3.3903599e+01  -2.3045486e+01  -1.6148021e+01  -5.8830912e+00  -2.9428889e+01  -1.4350346e+01   5.6590808e+00  -2.8778822e+01  -4.1499898e+01  -1.4347592e+01  -1.2579382e+01  -6.9327624e+00  -1.7019711e+01  -1.9723359e+01  -1.1315386e+01  -5.6509168e+00   0.0000000e+00   0.0000000e+00   0.0000000e+00   0.0000000e+00
  -3.1746750e+01  -1.8149323e+01  -1.1139787e+01  -4.5078224e+01  -3.5017743e+01  -2.3195695e+01  -1.6094655e+01  -5.3751469e+00  -2.9570663e+01  -1.4154562e+01   6.6248114e+00  -2.9794010e+01  -4.0922200e+01  -1.4117435e+01  -1.2151683e+01  -6.3355009e+00  -1.6976976e+01  -1.9303523e+01  -1.1341475e+01  -5.4725391e+00   0.0000000e+00   0.0000000e+00   0.0000000e+00   0.0000000e+00
  -3.2472583e+01  -1.8854974e+01  -1.1833797e+01  -4.6468839e+01  -3.5768749e+01  -2.3281499e+01  -1.5905756e+01  -4.4607820e+00  -2.9241366e+01  -1.3894170e+01   7.8616908e+00  -3.0422212e+01  -4.0267659e+01  -1.3899955e+01  -1.1601791e+01  -5.1506422e+00  -1.6892389e+01  -1.8340558e+01  -1.1115152e+01  -4.6737305e+00   0.0000000e+00   0.0000000e+00   0.0000000e+00   0.0000000e+00
  -3.2731251e+01  -1.9384978e+01  -1.2501364e+01  -4.7420983e+01  -3.6174664e+01  -2.3415608e+01  -1.5760611e+01  -3.8253446e+00  -2.8318522e+01  -1.3596678e+01   8.7560724e+00  -3.0514496e+01  -3.9514591e+01  -1.3570520e+01  -1.0993550e+01  -3.8093588e+00  -1.6588530e+01  -1.6945007e+01  -1.0743250e+01  -3.8037008e+00   0.0000000e+00   0.0000000e+00   0.0000000e+00   0.0000000e+00
  -3.2196492e+01  -1.9644646e+01  -1.3016963e+01  -4.7718518e+01  -3.6329370e+01  -2.3476121e+01  -1.5893040e+01  -3.9454584e+00  -2.7143162e+01  -1.3232423e+01   8.9225154e+00  -3.0034474e+01  -3.8502022e+01  -1.3153727e+01  -1.0488834e+01  -2.8922309e+00  -1.5889943e+01  -1.5799900e+01  -1.0255360e+01  -3.2549651e+00   0.0000000e+00   0.0000000e+00   0.0000000e+00   0.0000000e+00
  -3.1347688e+01  -1.9423476e+01  -1.3166522e+01  -4.7503923e+01  -3.6011060e+01  -2.3364985e+01  -1.6125849e+01  -4.6345150e+00  -2.6085775e+01  -1.2845320e+01   8.4956916e+00  -2.9304262e+01  -3.7396880e+01  -1.2822468e+01  -1.0131168e+01  -2.5732998e+00  -1.4938907e+01  -1.5113944e+01  -9.7641862e+00  -3.0780829e+00   0.0000000e+00   0.0000000e+00   0.0000000e+00   0.0000000e+00
  -3.0213484e+01  -1.8883939e+01  -1.2737090e+01  -4.6826277e+01  -3.5000889e+01  -2.2886799e+01  -1.5862124e+01  -5.3321447e+00  -2.5272641e+01  -1.2427545e+01   7.8745840e+00  -2.8551700e+01  -3.6386929e+01  -1.2539754e+01  -9.7534067e+00  -2.6489365e+00  -1.3811923e+01  -1.4290903e+01  -9.2482214e+00  -3.1315654e+00   0.0000000e+00   0.0000000e+00   0.0000000e+00   0.0000000e+00
  -2.8537178e+01  -1.8124614e+01  -1.1850747e+01  -4.5912295e+01  -3.3603951e+01  -2.2078938e+01  -1.5006329e+01  -5.8645704e+00  -2.4757054e+01  -1.2050022e+01   7.2348823e+00  -2.8015007e+01  -3.5766883e+01  -1.2289471e+01  -9.4864729e+00  -3.0416382e+00  -1.2780691e+01  -1.3188231e+01  -8.7140862e+00  -3.3740104e+00   0.0000000e+00   0.0000000e+00   0.0000000e+00   0.0000000e+00
  -2.7066423e+01  -1.7028332e+01  -1.0792722e+01  -4.5358728e+01  -3.2375338e+01  -2.1399190e+01  -1.4003030e+01  -6.4947763e+00  -2.4770124e+01  -1.1788668e+01   6.4912590e+00  -2.8074808e+01  -3.5796160e+01  -1.2295581e+01  -9.6002504e+00  -3.7420628e+00  -1.2310835e+01  -1.2460540e+01  -8.3440809e+00  -3.9037227e+00   0.0000000e+00   0.0000000e+00   0.0000000e+00   0.0000000e+00
  -2.6224724e+01  -1.6125527e+01  -9.5246792e+00  -4.5289732e+01  -3.1455454e+01  -2.1051961e+01  -1.3008695e+01  -7.1729794e+00  -2.5310878e+01  -1.1598253e+01   5.8235370e+00  -2.8806816e+01  -3.6207910e+01  -1.2554913e+01  -9.7874137e+00  -4.4328473e+00  -1.2338887e+01  -1.2135925e+01  -8.1555981e+00  -4.5093281e+00   0.0000000e+00   0.0000000e+00   0.0000000e+00   0.0000000e+00
  -2.5842708e+01  -1.5752707e+01  -8.0280365e+00  -4.5441994e+01  -3.0955190e+01  -2.1070331e+01  -1.2059264e+01  -7.5631171e+00  -2.6387442e+01  -1.1694113e+01   5.4036818e+00  -3.0089866e+01  -3.6786772e+01  -1.2952482e+01  -9.7465301e+00  -4.8268785e+00  -1.2681611e+01  -1.1655478e+01  -8.1044238e+00  -4.8118621e+00   0.0000000e+00   0.0000000e+00   0.0000000e+00   0.0000000e+00
  -2.6073237e+01  -1.5791342e+01  -6.5846394e+00  -4.5451704e+01  -3.0644670e+01  -2.1408957e+01  -1.1371228e+01  -7.5581428e+00  -2.7718165e+01  -1.2070525e+01   5.2351394e+00  -3.1554224e+01  -3.7343601e+01  -1.3390633e+01  -9.6614513e+00  -4.9022600e+00  -1.3118087e+01  -1.0994302e+01  -8.1316927e+00  -4.7038858e+00   0.0000000e+00   0.0000000e+00   0.0000000e+00   0.0000000e+00
  -2.6729981e+01  -1.6363032e+01  -5.4321065e+00  -4.5041325e+01  -3.0104631e+01  -2.1655667e+01  -1.0957847e+01  -7.3100871e+00  -2.8563496e+01  -1.2189889e+01   5.2883573e+00  -3.2722713e+01  -3.7551477e+01  -1.3714489e+01  -9.7686894e+00  -4.7542057e+00  -1.3244068e+01  -1.0558506e+01  -8.0858104e+00  -4.2469534e+00   0.0000000e+00   0.0000000e+00   0.0000000e+00   0.0000000e+00
  -2.7304268e+01  -1.7411769e+01  -4.4534868e+00  -4.4146632e+01  -2.9283025e+01  -2.1465087e+01  -1.0499886e+01  -6.8242561e+00  -2.8698397e+01  -1.1892373e+01   5.6037025e+00  -3.3110565e+01  -3.7042741e+01  -1.3516391e+01  -9.8349163e+00  -4.2637467e+00  -1.2743965e+01  -1.0239865e+01  -7.7897599e+00  -3.4471072e+00   0.0000000e+00   0.0000000e+00   0.0000000e+00   0.0000000e+00
  -2.7516815e+01  -1.8433391e+01  -3.4525733e+00  -4.2817811e+01  -2.7857398e+01  -2.0990395e+01  -9.9385471e+00  -6.2070002e+00  -2.8023724e+01  -1.1439120e+01   6.0873777e+00  -3.2354638e+01  -3.5621259e+01  -1.2669053e+01  -9.5828073e+00  -3.4566376e+00  -1.1545069e+01  -9.4922013e+00  -7.2970444e+00  -2.4923736e+00   0.0000000e+00   0.0000000e+00   0.0000000e+00   0.0000000e+00
  -2.7311739e+01  -1.9228652e+01  -2.8141610e+00  -4.1363498e+01  -2.5798810e+01  -2.0655221e+01  -9.7883216e+00  -5.7698998e+00  -2.6379612e+01  -1.1069567e+01   6.4486394e+00  -3.0667004e+01  -3.3469032e+01  -1.1423765e+01  -9.1680765e+00  -2.6816178e+00  -9.9644239e+00  -8.4273459e+00  -6.8308902e+00  -1.7237935e+00   0.0000000e+00   0.0000000e+00   0.0000000e+00   0.0000000e+00
  -2.6766975e+01  -1.9613931e+01  -2.8700023e+00  -4.0162069e+01  -2.3836746e+01  -2.0462869e+01  -1.0229378e+01  -5.6996243e+00  -2.4151168e+01  -1.0500529e+01   6.5939504e+00  -2.8487768e+01  -3.1065075e+01  -9.9451131e+00  -8.7594809e+00  -2.2854824e+00  -8.3740352e+00  -7.6582604e+00  -6.4121657e+00  -1.3478619e+00   0.0000000e+00   0.0000000e+00   0.0000000e+00   0.0000000e+00
  -2.6075935e+01  -1.9592657e+01  -3.2345373e+00  -3.9497221e+01  -2.2334912e+01  -2.0188823e+01  -1.0769415e+01  -5.9862796e+00  -2.2075974e+01  -9.5432300e+00   6.5496306e+00  -2.6295481e+01  -2.9166500e+01  -8.7305409e+00  -8.4820677e+00  -2.4176615e+00  -7.0598500e+00  -7.3171860e+00  -6.1182325e+00  -1.4329342e+00   0.0000000e+00   0.0000000e+00   0.0000000e+00   0.0000000e+00
  -2.5341303e+01  -1.9735966e+01  -3.5022581e+00  -3.9415460e+01  -2.1376802e+01  -1.9936975e+01  -1.1148129e+01  -6.5443199e+00  -2.0725536e+01  -8.7995705e+00   6.2066240e+00  -2.4779056e+01  -2.8594286e+01  -8.4150885e+00  -8.6447084e+00  -3.0611222e+00  -6.4834458e+00  -7.1351397e+00  -6.2932194e+00  -2.1156388e+00   1.0000000e+03   0.0000000e+00   0.0000000e+00   0.0000000e+00
  -2.5031233e+01  -2.0458554e+01  -3.7756903e+00  -3.9762328e+01  -2.1201485e+01  -2.0142997e+01  -1.1823545e+01  -7.5328728e+00  -2.0372484e+01  -8.6929844e+00   5.4121430e+00  -2.4434312e+01  -2.9561581e+01  -9.2018711e+00  -9.7215565e+00  -4.2585080e+00  -7.1013923e+00  -7.3600567e+00  -7.2857423e+00  -3.5771266e+00   1.0000000e+03   0.0000000e+00   0.0000000e+00   0.0000000e+00
  -2.5915448e+01  -2.1868907e+01  -4.3464584e+00  -4.0517180e+01  -2.1735674e+01  -2.1079381e+01  -1.3163475e+01  -8.9671916e+00  -2.0765935e+01  -9.0642225e+00   4.3742586e+00  -2.5148277e+01  -3.1413424e+01  -1.0634235e+01  -1.1642084e+01  -5.8855303e+00  -8.7659343e+00  -8.5411816e+00  -9.1028389e+00  -5.6452157e+00   1.0000000e+03   0.0000000e+00   0.0000000e+00   0.0000000e+00
  -2.7460814e+01  -2.3487791e+01  -5.0602524e+00  -4.1511286e+01  -2.2826926e+01  -2.2691433e+01  -1.4637923e+01  -1.0240429e+01  -2.1427731e+01  -9.4625365e+00   3.7097633e+00  -2.6289667e+01  -3.3227850e+01  -1.1927831e+01  -1.3681169e+01  -7.4874861e+00  -1.0759131e+01  -1.0256155e+01  -1.1294990e+01  -7.8084427e+00   1.0000000e+03   3.0000000e+01   0.0000000e+00   0.0000000e+00
  -2.8539960e+01  -2.4594769e+01  -5.4960855e+00  -4.2428759e+01  -2.4092429e+01  -2.4479266e+01  -1.5443497e+01  -1.0735184e+01  -2.1850478e+01  -9.5403033e+00   3.7388000e+00  -2.7232360e+01  -3.4442770e+01  -1.2729047e+01  -1.5150658e+01  -8.5766060e+00  -1.2316490e+01  -1.1330363e+01  -1.3120527e+01  -9.4185902e+00   1.0000000e+03   3.0000000e+01   0.0000000e+00   0.0000000e+00
  -2.8588962e+01  -2.5069029e+01  -5.6949367e+00  -4.3011756e+01  -2.4658721e+01  -2.5749460e+01  -1.5525175e+01  -1.0553570e+01  -2.1717441e+01  -9.6520808e+00   4.2370168e+00  -2.7670484e+01  -3.4883267e+01  -1.3129416e+01  -1.5874172e+01  -9.0437930e+00  -1.2972067e+01  -1.1425526e+01  -1.4134237e+01  -1.0157830e+01   0.0000000e+00   3.0000000e+01   0.0000000e+00   0.0000000e+00
  -2.7755506e+01  -2.5230062e+01  -6.1693176e+00  -4.3214981e+01  -2.3980740e+01  -2.6047408e+01  -1.5443981e+01  -1.0290341e+01  -2.1293557e+01  -1.0163459e+01   4.6236493e+00  -2.7700739e+01  -3.4564532e+01  -1.3145366e+01  -1.6103000e+01  -9.2158643e+00  -1.2600088e+01  -1.1351577e+01  -1.4495587e+01  -1.0325550e+01   0.0000000e+00   3.0000000e+01   0.0000000e+00   0.0000000e+00
  -2.6509452e+01  -2.4693885e+01  -6.9970129e+00  -4.2891427e+01  -2.2110534e+01  -2.5434520e+01  -1.5282210e+01  -1.0225841e+01  -2.0627082e+01  -1.0449133e+01   4.7011534e+00  -2.7282206e+01  -3.3508052e+01  -1.2502867e+01  -1.5843837e+01  -9.1688206e+00  -1.1252950e+01  -1.1432407e+01  -1.4325157e+01  -1.0135131e+01   0.0000000e+00   3.0000000e+01   0.0000000e+00   0.0000000e+00
  -2.4835596e+01  -2.3133062e+01  -7.5771039e+00  -4.2121419e+01  -1.9963112e+01  -2.4300511e+01  -1.4773864e+01  -1.0221731e+01  -1.9692892e+01  -1.0154524e+01   4.6295576e+00  -2.6433737e+01  -3.1937709e+01  -1.1217436e+01  -1.5073949e+01  -8.8099172e+00  -9.4389062e+00  -1.1246697e+01  -1.3642189e+01  -9.5950351e+00   0.0000000e+00   3.0000000e+01   0.0000000e+00   0.0000000e+00
  -2.3052864e+01  -2.1267210e+01  -7.5343741e+00  -4.1387220e+01  -1.8599273e+01  -2.3078135e+01  -1.4082312e+01  -1.0139758e+01  -1.8863857e+01  -9.6360348e+00   4.3003880e+00  -2.5590939e+01  -3.0603424e+01  -1.0081874e+01  -1.4261910e+01  -8.3268619e+00  -8.0636020e+00  -1.0904932e+01  -1.2722920e+01  -8.9071383e+00   0.0000000e+00   3.0000000e+01   0.0000000e+00   0.0000000e+00
  -2.1707417e+01  -1.9801191e+01  -6.9452162e+00  -4.0823558e+01  -1.8255895e+01  -2.2282432e+01  -1.3575026e+01  -1.0082815e+01  -1.8614584e+01  -9.3850303e+00   3.6013175e+00  -2.5158862e+01  -3.0129911e+01  -9.8244248e+00  -1.3987134e+01  -8.1166107e+00  -7.7316228e+00  -1.0971054e+01  -1.1968860e+01  -8.4978481e+00   0.0000000e+00   3.0000000e+01   0.0000000e+00   0.0000000e+00
  -2.0826881e+01  -1.8868418e+01  -5.9927431e+00  -4.0525078e+01  -1.8813030e+01  -2.2222072e+01  -1.3231717e+01  -1.0240586e+01  -1.9210521e+01  -9.9220307e+00   2.4748546e+00  -2.5491688e+01  -3.0719139e+01  -1.0615668e+01  -1.4548336e+01  -8.4650780e+00  -8.6291256e+00  -1.1495979e+01  -1.1843956e+01  -8.7522312e+00   0.0000000e+00   3.0000000e+01   0.0000000e+00   0.0000000e+00
  -2.0818911e+01  -1.8628352e+01  -4.9199401e+00  -4.1133465e+01  -2.0472733e+01  -2.3113711e+01  -1.3095970e+01  -1.0670315e+01  -2.0728708e+01  -1.1431187e+01   1.0306228e+00  -2.7003679e+01  -3.2244310e+01  -1.2260668e+01  -1.6002374e+01  -9.3300690e+00  -1.0885777e+01  -1.2060926e+01  -1.2743482e+01  -9.7071573e+00   0.0000000e+00   3.0000000e+01   0.0000000e+00   0.0000000e+00
  -2.2398003e+01  -1.9500471e+01  -4.1261546e+00  -4.3117687e+01  -2.3196141e+01  -2.4948231e+01  -1.3688021e+01  -1.1363562e+01  -2.3046969e+01  -1.3430835e+01  -3.9076043e-01  -2.9598823e+01  -3.4246128e+01  -1.4456046e+01  -1.8240302e+01  -1.0419640e+01  -1.4273599e+01  -1.2647767e+01  -1.4695020e+01  -1.1013350e+01   0.0000000e+00   3.0000000e+01   0.0000000e+00   0.0000000e+00
  -2.5137609e+01  -2.1199782e+01  -4.0180533e+00  -4.5782514e+01  -2.6351087e+01  -2.7496772e+01  -1.5290235e+01  -1.2214008e+01  -2.5416563e+01  -1.5348659e+01  -1.5192262e+00  -3.2385091e+01  -3.6379171e+01  -1.7202115e+01  -2.1031179e+01  -1.1395360e+01  -1.8042356e+01  -1.3688428e+01  -1.7350172e+01  -1.2261576e+01   0.0000000e+00   3.0000000e+01   0.0000000e+00   0.0000000e+00
  -2.7585790e+01  -2.2855099e+01  -4.3827202e+00  -4.7814116e+01  -2.9201571e+01  -3.0103297e+01  -1.7106736e+01  -1.2831855e+01  -2.6893315e+01  -1.6735796e+01  -2.0879075e+00  -3.4317380e+01  -3.8099388e+01  -1.9852809e+01  -2.3556102e+01  -1.1791452e+01  -2.1075385e+01  -1.4877822e+01  -1.9862529e+01  -1.3048202e+01   0.0000000e+00   3.0000000e+01   0.0000000e+00   0.0000000e+00
  -2.8888956e+01  -2.3627605e+01  -4.8699526e+00  -4.8525608e+01  -3.0841306e+01  -3.1732670e+01  -1.8120710e+01  -1.2820045e+01  -2.7200277e+01  -1.7220506e+01  -1.8670412e+00  -3.4991968e+01  -3.8782995e+01  -2.1249939e+01  -2.4713487e+01  -1.1185006e+01  -2.2459844e+01  -1.5157795e+01  -2.1278497e+01  -1.3022332e+01   0.0000000e+00   3.0000000e+01   0.0000000e+00   0.0000000e+00
  -2.8917377e+01  -2.3061616e+01  -5.4324709e+00  -4.8056991e+01  -3.0900424e+01  -3.1874700e+01  -1.8209423e+01  -1.2216290e+01  -2.6584223e+01  -1.6951395e+01  -1.2219692e+00  -3.4381089e+01  -3.7964902e+01  -2.0917414e+01  -2.4202416e+01  -9.7620899e+00  -2.1933948e+01  -1.4256423e+01  -2.1133314e+01  -1.2248597e+01   0.0000000e+00   3.0000000e+01   0.0000000e+00   0.0000000e+00
  -2.7616109e+01  -2.1442096e+01  -5.7699982e+00  -4.6347326e+01  -2.9412288e+01  -3.0544155e+01  -1.7486567e+01  -1.1333465e+01  -2.5414535e+01  -1.6489756e+01  -6.2814178e-01  -3.2241674e+01  -3.5393624e+01  -1.8881848e+01  -2.2420571e+01  -8.1175095e+00  -1.9498327e+01  -1.2715732e+01  -1.9419127e+01  -1.1047659e+01   0.0000000e+00   3.0000000e+01   0.0000000e+00   0.0000000e+00
  -2.5372378e+01  -1.9513636e+01  -5.3194546e+00  -4.3344182e+01  -2.6524280e+01  -2.7881356e+01  -1.5794327e+01  -1.0123544e+01  -2.4142417e+01  -1.6005668e+01   8.3663971e-03  -2.9052723e+01  -3.1705904e+01  -1.5630218e+01  -1.9715940e+01  -6.4952718e+00  -1.5607508e+01  -1.0708718e+01  -1.6426751e+01  -9.4779914e+00   0.0000000e+00   3.0000000e+01   0.0000000e+00   0.0000000e+00
  -2.3312684e+01  -1.7889159e+01  -3.9469386e+00  -4.0062279e+01  -2.3220268e+01  -2.4391007e+01  -1.3251648e+01  -8.5157308e+00  -2.3383757e+01  -1.5331172e+01   8.2682278e-01  -2.6082648e+01  -2.8340332e+01  -1.2380140e+01  -1.6617223e+01  -4.8982117e+00  -1.1539708e+01  -8.2670175e+00  -1.2870628e+01  -7.5389261e+00   0.0000000e+00   3.0000000e+01   0.0000000e+00   0.0000000e+00
  -2.1969767e+01  -1.6780706e+01  -2.0964866e+00  -3.7652981e+01  -2.0778615e+01  -2.1050339e+01  -1.0507938e+01  -6.7856814e+00  -2.3682140e+01  -1.5018509e+01   1.6792980e+00  -2.4325986e+01  -2.6437458e+01  -1.0251706e+01  -1.3962089e+01  -3.5190985e+00  -8.5647497e+00  -6.0094547e+00  -9.5816634e+00  -5.3927730e+00   0.0000000e+00   3.0000000e+01   0.0000000e+00   0.0000000e+00
  -2.1035672e+01  -1.6160064e+01  -6.3570086e-02  -3.6278493e+01  -1.9436905e+01  -1.8243886e+01  -7.9257020e+00  -5.0061626e+00  -2.4896891e+01  -1.5265671e+01   2.5228755e+00  -2.3904712e+01  -2.6011678e+01  -9.4411277e+00  -1.2066782e+01  -2.3627252e+00  -6.9852481e+00  -4.5211504e+00  -6.8617538e+00  -3.1344262e+00   0.0000000e+00   3.0000000e+01   0.0000000e+00   0.0000000e+00
  -2.0628698e+01  -1.5788988e+01   2.0243175e+00  -3.5815247e+01  -1.9192490e+01  -1.6250223e+01  -5.6436385e+00  -3.2787278e+00  -2.6387681e+01  -1.5613732e+01   3.5658648e+00  -2.4459871e+01  -2.6548280e+01  -9.5428377e+00  -1.0795734e+01  -1.2950642e+00  -6.6867464e+00  -3.7699332e+00  -4.9755943e+00  -1.0795845e+00   0.0000000e+00   3.0000000e+01   0.0000000e+00   0.0000000e+00
  -2.1172800e+01  -1.5674534e+01   3.8912116e+00  -3.6322182e+01  -2.0272610e+01  -1.5731529e+01  -3.9735232e+00  -1.9348449e+00  -2.7885282e+01  -1.5782283e+01   4.8157236e+00  -2.5655102e+01  -2.7586707e+01  -1.0072853e+01  -1.0031490e+01  -2.9083788e-01  -7.3826120e+00  -3.3929963e+00  -4.1564321e+00   3.4969375e-01   0.0000000e+00   3.0000000e+01   0.0000000e+00   0.0000000e+00
  -2.2560297e+01  -1.6328665e+01   5.0366906e+00  -3.7665976e+01  -2.2263658e+01  -1.6661071e+01  -3.2381775e+00  -1.3630762e+00  -2.9121925e+01  -1.5387627e+01   6.0164414e+00  -2.7062423e+01  -2.8656745e+01  -1.0663905e+01  -9.7071035e+00   3.5103157e-01  -8.4694192e+00  -3.4281960e+00  -4.1566969e+00   8.7814269e-01   0.0000000e+00   3.0000000e+01   0.0000000e+00   0.0000000e+00
  -2.4287730e+01  -1.7962845e+01   5.1459112e+00  -3.9273243e+01  -2.4272247e+01  -1.7952716e+01  -3.4453896e+00  -1.6885809e+00  -2.9667410e+01  -1.4235909e+01   7.0670733e+00  -2.8143979e+01  -2.9480505e+01  -1.1040108e+01  -9.6587565e+00   1.4773605e-01  -9.4148172e+00  -4.2121912e+00  -4.5566553e+00   5.7708410e-01   0.0000000e+00   3.0000000e+01   0.0000000e+00   0.0000000e+00
  -2.6151922e+01  -1.9902288e+01   4.3625952e+00  -4.0706889e+01  -2.5875172e+01  -1.9008286e+01  -4.2823242e+00  -2.6640309e+00  -2.9583914e+01  -1.2754216e+01   7.9186522e+00  -2.8710526e+01  -3.0337315e+01  -1.1372461e+01  -9.8524094e+00  -9.5340865e-01  -1.0308695e+01  -5.6741436e+00  -5.3609196e+00  -3.2561448e-01   0.0000000e+00   3.0000000e+01   0.0000000e+00   0.0000000e+00
  -2.7746036e+01  -2.1514746e+01   2.9664321e+00  -4.2023000e+01  -2.7450549e+01  -2.0284624e+01  -5.5179803e+00  -3.9802641e+00  -2.9458559e+01  -1.1647015e+01   8.2098939e+00  -2.9179392e+01  -3.1649208e+01  -1.2112882e+01  -1.0574419e+01  -2.5521408e+00  -1.1609497e+01  -7.4612934e+00  -6.7736485e+00  -1.7585087e+00   0.0000000e+00   3.0000000e+01   0.0000000e+00   0.0000000e+00
  -2.8818598e+01  -2.3006831e+01   1.3087989e+00  -4.3234093e+01  -2.9129326e+01  -2.1739903e+01  -7.0217660e+00  -5.4122848e+00  -2.9801262e+01  -1.1238802e+01   7.6663856e+00  -2.9874229e+01  -3.3274485e+01  -1.3296908e+01  -1.2016740e+01  -4.3017258e+00  -1.3239092e+01  -9.5063708e+00  -8.5796842e+00  -3.5267344e+00   0.0000000e+00   3.0000000e+01   0.0000000e+00   0.0000000e+00
  -2.9398261e+01  -2.4362466e+01   1.7342689e-01  -4.4093935e+01  -3.0682708e+01  -2.3048673e+01  -8.5420795e+00  -6.6537577e+00  -3.0608158e+01  -1.1522984e+01   6.4368903e+00  -3.0685296e+01  -3.4567055e+01  -1.4421746e+01  -1.3928066e+01  -5.9714769e+00  -1.4710668e+01  -1.1926229e+01  -1.0355277e+01  -5.2303936e+00   0.0000000e+00   3.0000000e+01   0.0000000e+00   0.0000000e+00
  -2.9666396e+01  -2.5037348e+01   2.4892373e-01  -4.4715443e+01  -3.2002953e+01  -2.4244859e+01  -9.6863174e+00  -7.2717959e+00  -3.1578244e+01  -1.2492424e+01   5.0035133e+00  -3.1469954e+01  -3.5248088e+01  -1.5046851e+01  -1.5755861e+01  -7.3674124e+00  -1.5899269e+01  -1.4354797e+01  -1.1886627e+01  -6.5798172e+00   0.0000000e+00   3.0000000e+01   0.0000000e+00   0.0000000e+00
  -3.0537079e+01  -2.5015895e+01   1.2307171e+00  -4.5680728e+01  -3.3271998e+01  -2.5487394e+01  -1.0300883e+01  -7.2511905e+00  -3.2536722e+01  -1.3881660e+01   3.8731303e+00  -3.2333208e+01  -3.5667417e+01  -1.5249883e+01  -1.7119987e+01  -8.3736792e+00  -1.7088929e+01  -1.6180109e+01  -1.3162075e+01  -7.5529868e+00   0.0000000e+00   3.0000000e+01   0.0000000e+00   0.0000000e+00
  -3.2176859e+01  -2.4981205e+01   2.3786246e+00  -4.7211896e+01  -3.4833803e+01  -2.6540647e+01  -1.0551062e+01  -6.8665283e+00  -3.3649425e+01  -1.5211206e+01   3.3856258e+00  -3.3311799e+01  -3.6334567e+01  -1.5277666e+01  -1.7954721e+01  -9.0031643e+00  -1.8472750e+01  -1.7375984e+01  -1.4059760e+01  -8.0493385e+00   0.0000000e+00   3.0000000e+01   0.0000000e+00   0.0000000e+00
  -3.3837565e+01  -2.5327788e+01   3.3261970e+00  -4.9058305e+01  -3.6641766e+01  -2.7001698e+01  -1.0572979e+01  -6.2359503e+00  -3.4946672e+01  -1.6217095e+01   3.5675358e+00  -3.4324700e+01  -3.7389890e+01  -1.5145145e+01  -1.8320021e+01  -9.3840687e+00  -1.9968902e+01  -1.8408878e+01  -1.4372624e+01  -7.9686970e+00   0.0000000e+00   3.0000000e+01   0.0000000e+00   0.0000000e+00
  -3.5123678e+01  -2.5773092e+01   4.3236522e+00  -5.0887779e+01  -3.8176958e+01  -2.6919803e+01  -1.0163917e+01  -5.2931948e+00  -3.6032447e+01  -1.6753528e+01   4.1870770e+00  -3.5288183e+01  -3.8527989e+01  -1.4765579e+01  -1.8145201e+01  -9.4180721e+00  -2.1351670e+01  -1.9252574e+01  -1.4054738e+01  -7.3373862e+00   0.0000000e+00   3.0000000e+01   0.0000000e+00   0.0000000e+00
  -3.6363402e+01  -2.6462428e+01   5.5182947e+00  -5.2637874e+01  -3.9282778e+01  -2.6580576e+01  -9.2736632e+00  -4.1171429e+00  -3.6908678e+01  -1.6793575e+01   4.9259690e+00  -3.6229701e+01  -3.9557269e+01  -1.4243697e+01  -1.7488150e+01  -8.9770484e+00  -2.2634586e+01  -1.9578990e+01  -1.3325109e+01  -6.3879343e+00   0.0000000e+00   3.0000000e+01   0.0000000e+00   0.0000000e+00
  -3.7782633e+01  -2.7699869e+01   6.4537793e+00  -5.4272903e+01  -4.0076486e+01  -2.6226553e+01  -8.2858464e+00  -3.1536677e+00  -3.7845095e+01  -1.6553088e+01   5.5772676e+00  -3.6961989e+01  -4.0230893e+01  -1.3621259e+01  -1.6744394e+01  -8.2497417e+00  -2.3812170e+01  -1.9669796e+01  -1.2486055e+01  -5.5456659e+00   0.0000000e+00   3.0000000e+01   0.0000000e+00   0.0000000e+00
  -3.9150423e+01  -2.9133669e+01   6.8452918e+00  -5.5507572e+01  -4.0344590e+01  -2.5857721e+01  -7.3398845e+00  -2.4745673e+00  -3.8421726e+01  -1.5925822e+01   6.1332372e+00  -3.7060213e+01  -4.0254558e+01  -1.2513665e+01  -1.6018427e+01  -7.6020587e+00  -2.4573968e+01  -2.0083537e+01  -1.1530307e+01  -4.8498246e+00   0.0000000e+00   3.0000000e+01   0.0000000e+00   0.0000000e+00
  -4.0377643e+01  -3.0373154e+01   6.8439364e+00  -5.6122533e+01  -3.9839961e+01  -2.5373757e+01  -6.2670796e+00  -1.6706248e+00  -3.7839670e+01  -1.4348103e+01   6.8274316e+00  -3.6250988e+01  -3.9471268e+01  -1.0529191e+01  -1.4920417e+01  -7.2092118e+00  -2.4648506e+01  -2.0724129e+01  -1.0189990e+01  -3.9862909e+00   0.0000000e+00   3.0000000e+01   0.0000000e+00   0.0000000e+00
  -4.1449501e+01  -3.1410929e+01   6.5810778e+00  -5.5900565e+01  -3.8583788e+01  -2.4820147e+01  -5.0325447e+00  -7.2745003e-01  -3.5879973e+01  -1.1893453e+01   7.8539773e+00  -3.4516472e+01  -3.7798910e+01  -7.8327437e+00  -1.3217898e+01  -7.0067018e+00  -2.3912700e+01  -2.0978285e+01  -8.3516467e+00  -2.9613545e+00   0.0000000e+00   3.0000000e+01   0.0000000e+00   0.0000000e+00
  -4.1954894e+01  -3.2151452e+01   5.9242726e+00  -5.4678030e+01  -3.7013942e+01  -2.4163084e+01  -3.9339191e+00  -2.0583542e-01  -3.3135325e+01  -9.3344886e+00   8.8134697e+00  -3.2032746e+01  -3.5537619e+01  -5.0477400e+00  -1.1261565e+01  -7.0532095e+00  -2.2409480e+01  -2.0762661e+01  -6.2101040e+00  -2.1795824e+00   0.0000000e+00   3.0000000e+01   0.0000000e+00   0.0000000e+00
  -4.1661145e+01  -3.2274317e+01   4.9842252e+00  -5.2670603e+01  -3.5345267e+01  -2.3133779e+01  -3.0752533e+00  -3.5222933e-01  -3.0369369e+01  -7.2800310e+00   9.0643185e+00  -2.9008337e+01  -3.3138831e+01  -2.6886400e+00  -9.5562688e+00  -7.4602269e+00  -2.0345582e+01  -2.0510789e+01  -4.1213091e+00  -1.8626437e+00   0.0000000e+00   3.0000000e+01   0.0000000e+00   0.0000000e+00
  -4.1044577e+01  -3.1551292e+01   4.6017782e+00  -5.0572552e+01  -3.3885235e+01  -2.1931977e+01  -2.2321603e+00  -4.1244828e-01  -2.8232235e+01  -6.2928108e+00   8.3731164e+00  -2.6112661e+01  -3.1058907e+01  -1.0418007e+00  -8.4447456e+00  -8.0229053e+00  -1.8335024e+01  -2.0306193e+01  -2.5755226e+00  -1.7396881e+00   0.0000000e+00   3.0000000e+01   0.0000000e+00   0.0000000e+00
  -4.0603603e+01  -3.0374587e+01   5.2485981e+00  -4.9164403e+01  -3.3237742e+01  -2.1053120e+01  -1.2654439e+00   3.0636651e-01  -2.7282456e+01  -6.6493357e+00   7.1125161e+00  -2.4161036e+01  -2.9684943e+01  -1.5024600e-01  -8.0536354e+00  -8.3087969e+00  -1.7020627e+01  -1.9775770e+01  -1.8764697e+00  -1.5139472e+00   0.0000000e+00   3.0000000e+01   0.0000000e+00   0.0000000e+00
  -4.0186434e+01  -2.9398355e+01   6.3182444e+00  -4.8428937e+01  -3.3281939e+01  -2.0400425e+01  -2.9817126e-01   1.4500939e+00  -2.7450635e+01  -7.8218889e+00   5.9945623e+00  -2.3274658e+01  -2.8987787e+01   3.3369077e-01  -8.1705339e+00  -8.2279068e+00  -1.6152763e+01  -1.8809453e+01  -1.7523763e+00  -1.2662837e+00   0.0000000e+00   3.0000000e+01   0.0000000e+00   0.0000000e+00
  -3.9628115e+01  -2.8600367e+01   7.2446080e+00  -4.7906155e+01  -3.3564351e+01  -1.9743969e+01   4.0191639e-01   2.4616286e+00  -2.8243875e+01  -9.0070297e+00   5.4899156e+00  -2.3127265e+01  -2.8475025e+01   7.0479176e-01  -8.4434200e+00  -8.0261950e+00  -1.5155381e+01  -1.7784544e+01  -1.8502548e+00  -1.1747833e+00   0.0000000e+00   3.0000000e+01   0.0000000e+00   0.0000000e+00
  -3.9162496e+01  -2.7957223e+01   8.0877070e+00  -4.7713219e+01  -3.4105558e+01  -1.9075272e+01   8.5642208e-01   3.3925398e+00  -2.9452300e+01  -9.7241479e+00   5.7049479e+00  -2.3507885e+01  -2.7821428e+01   9.7646353e-01  -8.4469610e+00  -7.6011657e+00  -1.4059728e+01  -1.6828692e+01  -1.9582597e+00  -1.1244687e+00   0.0000000e+00   3.0000000e+01   0.0000000e+00   0.0000000e+00
  -3.9054903e+01  -2.7622235e+01   9.0318437e+00  -4.8099759e+01  -3.5033215e+01  -1.8566348e+01   1.2119839e+00   4.3714561e+00  -3.1030852e+01  -9.9199434e+00   6.5286697e+00  -2.4408295e+01  -2.7248374e+01   1.2426073e+00  -7.9026560e+00  -6.6536411e+00  -1.3286812e+01  -1.5683523e+01  -1.8840562e+00  -8.0484911e-01   0.0000000e+00   3.0000000e+01   0.0000000e+00   0.0000000e+00
  -3.9810746e+01  -2.7684839e+01   9.8756070e+00  -4.8992051e+01  -3.6377761e+01  -1.8467458e+01   1.3027424e+00   5.0789095e+00  -3.2791221e+01  -9.7694432e+00   7.6797378e+00  -2.5794084e+01  -2.6891444e+01   1.6160202e+00  -7.0179973e+00  -5.3432230e+00  -1.3039014e+01  -1.4662238e+01  -1.5675997e+00  -1.3828320e-01   0.0000000e+00   3.0000000e+01   0.0000000e+00   0.0000000e+00
  -4.1859517e+01  -2.8196124e+01   1.0344449e+01  -5.0374719e+01  -3.7994702e+01  -1.8875546e+01   9.9519404e-01   5.3284723e+00  -3.4629934e+01  -9.4990906e+00   8.8626456e+00  -2.7667302e+01  -2.6695783e+01   2.0436760e+00  -6.2127092e+00  -4.0980043e+00  -1.3255182e+01  -1.4523110e+01  -1.0342937e+00   6.5742160e-01   0.0000000e+00   3.0000000e+01   0.0000000e+00   0.0000000e+00
  -4.4687249e+01  -2.9223982e+01   1.0454332e+01  -5.1997681e+01  -3.9852255e+01  -1.9732826e+01   4.9019144e-01   5.3311240e+00  -3.6478044e+01  -9.3693574e+00   9.8907587e+00  -2.9711112e+01  -2.6695201e+01   2.3753773e+00  -5.6751866e+00  -3.0660678e+00  -1.3795423e+01  -1.5181976e+01  -4.8765552e-01   1.3555184e+00   0.0000000e+00   3.0000000e+01   0.0000000e+00   0.0000000e+00
  -4.7324940e+01  -3.0807658e+01   1.0284816e+01  -5.3350053e+01  -4.1663737e+01  -2.0842984e+01   8.0866066e-02   5.1130486e+00  -3.7965357e+01  -9.4944353e+00   1.0599443e+01  -3.1339486e+01  -2.6891012e+01   2.4696913e+00  -5.3382345e+00  -2.2736407e+00  -1.4322148e+01  -1.5837729e+01  -2.4103809e-01   1.7829298e+00   0.0000000e+00   3.0000000e+01   0.0000000e+00   0.0000000e+00
  -4.9287328e+01  -3.2627942e+01   9.7676035e+00  -5.4259851e+01  -4.2676691e+01  -2.1881975e+01  -3.3422845e-01   4.5110510e+00  -3.8839411e+01  -9.7977339e+00   1.0829509e+01  -3.2337939e+01  -2.7193759e+01   2.2953462e+00  -5.3117166e+00  -1.9138705e+00  -1.4497940e+01  -1.6268987e+01  -5.1855467e-01   1.8483423e+00   0.0000000e+00   3.0000000e+01   0.0000000e+00   0.0000000e+00
  -5.0371944e+01  -3.4142155e+01   8.9835818e+00  -5.4786918e+01  -4.2680043e+01  -2.2617665e+01  -1.0102937e+00   3.5643703e+00  -3.9144468e+01  -9.9887067e+00   1.0591779e+01  -3.2729737e+01  -2.7450506e+01   1.9670851e+00  -5.6758850e+00  -2.1183742e+00  -1.4232267e+01  -1.6894924e+01  -1.2800234e+00   1.5565106e+00   0.0000000e+00   3.0000000e+01   0.0000000e+00   0.0000000e+00
  -5.0667611e+01  -3.5125702e+01   8.2156757e+00  -5.4730082e+01  -4.1957421e+01  -2.2920411e+01  -1.7974298e+00   2.4607605e+00  -3.9063608e+01  -9.9086692e+00   1.0126904e+01  -3.2548460e+01  -2.7445903e+01   1.6429981e+00  -6.1389754e+00  -2.7894549e+00  -1.3528767e+01  -1.7652457e+01  -2.2777579e+00   8.9124629e-01   0.0000000e+00   3.0000000e+01   0.0000000e+00   0.0000000e+00
  -5.0505949e+01  -3.5392477e+01   7.8745800e+00  -5.3920948e+01  -4.0505364e+01  -2.2304840e+01  -2.0712048e+00   1.5961693e+00  -3.8734883e+01  -9.6413074e+00   9.9473656e+00  -3.1749698e+01  -2.6924442e+01   1.6604584e+00  -6.1339313e+00  -3.4349204e+00  -1.2295104e+01  -1.7668691e+01  -2.9332298e+00   1.2464277e-01   0.0000000e+00   3.0000000e+01   0.0000000e+00   0.0000000e+00
  -5.0283602e+01  -3.4875079e+01   8.0470727e+00  -5.2974290e+01  -3.8659188e+01  -2.0793223e+01  -1.6868012e+00   1.0361552e+00  -3.8284307e+01  -9.1918358e+00   1.0222818e+01  -3.0776234e+01  -2.6123325e+01   2.0679047e+00  -5.6077729e+00  -3.7920360e+00  -1.0875980e+01  -1.6733038e+01  -2.8397860e+00  -4.7146595e-01   0.0000000e+00   3.0000000e+01   0.0000000e+00   0.0000000e+00
  -5.0067771e+01  -3.3820424e+01   8.3784642e+00  -5.2488604e+01  -3.7289819e+01  -1.9181922e+01  -1.1320735e+00   4.8897163e-01  -3.7822316e+01  -8.4073324e+00   1.0699730e+01  -3.0174583e+01  -2.5380518e+01   2.6310758e+00  -4.9474878e+00  -4.1431227e+00  -9.8516040e+00  -1.5721634e+01  -2.2263323e+00  -8.7248162e-01   0.0000000e+00   3.0000000e+01   0.0000000e+00   0.0000000e+00
  -4.9861249e+01  -3.2929096e+01   8.5499371e+00  -5.2546818e+01  -3.6782238e+01  -1.8125234e+01  -7.3482144e-01  -1.8609136e-01  -3.7514056e+01  -7.2331183e+00   1.1181440e+01  -3.0130109e+01  -2.4877418e+01   3.1155400e+00  -4.3758720e+00  -4.8064430e+00  -9.5656118e+00  -1.5219580e+01  -1.7514595e+00  -1.2554868e+00   0.0000000e+00   3.0000000e+01   0.0000000e+00   0.0000000e+00
  -4.9568002e+01  -3.2893725e+01   8.2808247e+00  -5.2848908e+01  -3.7082970e+01  -1.7827282e+01  -7.5726516e-01  -9.2930691e-01  -3.7267371e+01  -5.8144415e+00   1.1606719e+01  -3.0311067e+01  -2.4682606e+01   3.3687578e+00  -4.0815309e+00  -5.6968882e+00  -9.9782932e+00  -1.4985722e+01  -2.0021086e+00  -1.8340024e+00   0.0000000e+00   3.0000000e+01   0.0000000e+00   0.0000000e+00
  -4.9097030e+01  -3.3509451e+01   7.3891376e+00  -5.2997812e+01  -3.7861235e+01  -1.8124990e+01  -1.4680518e+00  -1.7159169e+00  -3.7089439e+01  -4.4703574e+00   1.1783606e+01  -3.0159502e+01  -2.4608920e+01   3.4149218e+00  -4.2445677e+00  -6.5587006e+00  -1.0649242e+01  -1.4869124e+01  -3.0151246e+00  -2.6025828e+00   0.0000000e+00   3.0000000e+01   0.0000000e+00   0.0000000e+00
  -4.8506567e+01  -3.4463898e+01   6.0433592e+00  -5.2882647e+01  -3.8553257e+01  -1.8702238e+01  -2.8229734e+00  -2.6025990e+00  -3.7192260e+01  -3.5628941e+00   1.1481379e+01  -2.9501988e+01  -2.4498417e+01   3.3875003e+00  -4.9164681e+00  -7.4188069e+00  -1.1149234e+01  -1.5216871e+01  -4.4994690e+00  -3.4924925e+00   0.0000000e+00   3.0000000e+01   0.0000000e+00   0.0000000e+00
  -4.7671144e+01  -3.5301670e+01   5.0164122e+00  -5.2356101e+01  -3.8701173e+01  -1.9167832e+01  -4.0622518e+00  -3.3278706e+00  -3.7363382e+01  -3.0570166e+00   1.0880841e+01  -2.8353823e+01  -2.4218823e+01   3.5272933e+00  -5.6672476e+00  -8.0687731e+00  -1.1169425e+01  -1.5751277e+01  -5.8870413e+00  -4.3065878e+00   0.0000000e+00   3.0000000e+01   0.0000000e+00   0.0000000e+00
  -4.6656873e+01  -3.5629841e+01   4.6659879e+00  -5.1528454e+01  -3.8423789e+01  -1.9429438e+01  -4.5144809e+00  -3.7156279e+00  -3.7293521e+01  -2.6163401e+00   1.0368187e+01  -2.6899441e+01  -2.3684470e+01   3.9659904e+00  -5.9384968e+00  -8.2985075e+00  -1.0760119e+01  -1.5672575e+01  -6.6734626e+00  -4.8207719e+00   0.0000000e+00   3.0000000e+01   0.0000000e+00   0.0000000e+00
  -4.5718942e+01  -3.5788602e+01   4.4591692e+00  -5.0893477e+01  -3.8159407e+01  -1.9719794e+01  -4.4324386e+00  -4.0254497e+00  -3.6796134e+01  -2.1125177e+00   9.9748539e+00  -2.5461399e+01  -2.2948815e+01   4.4752454e+00  -5.7982418e+00  -8.3564189e+00  -1.0325862e+01  -1.5028239e+01  -6.9657834e+00  -5.0674384e+00   0.0000000e+00   3.0000000e+01   0.0000000e+00   0.0000000e+00
  -4.5108513e+01  -3.6299976e+01   4.1029575e+00  -5.0662750e+01  -3.7986163e+01  -2.0162663e+01  -4.3384327e+00  -4.4202208e+00  -3.5951616e+01  -1.6011642e+00   9.8094943e+00  -2.4309583e+01  -2.2170953e+01   4.6684438e+00  -5.5467215e+00  -8.3265024e+00  -1.0168803e+01  -1.4498971e+01  -7.1305405e+00  -5.1055670e+00   0.0000000e+00   3.0000000e+01   0.0000000e+00   0.0000000e+00
  -4.4750233e+01  -3.7134236e+01   3.9601606e+00  -5.0813498e+01  -3.7791625e+01  -2.0574097e+01  -4.2900262e+00  -4.7828429e+00  -3.5042446e+01  -1.1268996e+00   1.0153999e+01  -2.3572076e+01  -2.1420300e+01   4.6934305e+00  -5.1506330e+00  -7.9618039e+00  -1.0297126e+01  -1.4099740e+01  -7.2887892e+00  -4.8292510e+00   0.0000000e+00   3.0000000e+01   0.0000000e+00   0.0000000e+00
  -4.4603453e+01  -3.7846566e+01   4.1875166e+00  -5.1419433e+01  -3.7667566e+01  -2.0979242e+01  -4.4409189e+00  -5.0383198e+00  -3.4377460e+01  -7.7507327e-01   1.0824155e+01  -2.3375137e+01  -2.0928549e+01   4.6155674e+00  -4.7399205e+00  -7.4071885e+00  -1.0740609e+01  -1.3450952e+01  -7.6050328e+00  -4.3703475e+00   0.0000000e+00   3.0000000e+01   0.0000000e+00   0.0000000e+00
  -4.4657506e+01  -3.8264379e+01   4.3662242e+00  -5.2389222e+01  -3.7770579e+01  -2.1613386e+01  -5.1610992e+00  -5.2433042e+00  -3.4210468e+01  -5.3853456e-01   1.1265299e+01  -2.3755169e+01  -2.0779415e+01   4.1103222e+00  -4.7576761e+00  -7.1799200e+00  -1.1472522e+01  -1.2761996e+01  -8.2607162e+00  -4.0415798e+00   0.0000000e+00   3.0000000e+01   0.0000000e+00   0.0000000e+00
  -4.4565145e+01  -3.8368802e+01   4.2098666e+00  -5.3493538e+01  -3.7934398e+01  -2.2300672e+01  -6.3585455e+00  -5.6112130e+00  -3.4538123e+01  -4.3084526e-01   1.0990508e+01  -2.4621598e+01  -2.0765356e+01   3.0976404e+00  -5.3969663e+00  -7.5853815e+00  -1.2323339e+01  -1.2602441e+01  -9.1897300e+00  -3.9786508e+00   0.0000000e+00   3.0000000e+01   0.0000000e+00   0.0000000e+00
  -4.4039030e+01  -3.8155001e+01   3.8750345e+00  -5.4343434e+01  -3.7757562e+01  -2.2676931e+01  -7.4685920e+00  -6.2842610e+00  -3.4785758e+01  -3.9308862e-01   9.8927239e+00  -2.5593531e+01  -2.0690088e+01   1.7000761e+00  -6.3577094e+00  -8.4927400e+00  -1.2992718e+01  -1.2908978e+01  -1.0147341e+01  -4.1534843e+00   0.0000000e+00   3.0000000e+01   0.0000000e+00   0.0000000e+00
  -4.3250186e+01  -3.8077105e+01   3.4392060e+00  -5.4642769e+01  -3.7093113e+01  -2.2581660e+01  -8.1002212e+00  -7.0537547e+00  -3.4572764e+01  -2.6993018e-01   8.3808350e+00  -2.6137369e+01  -2.0261983e+01   1.3821623e-01  -7.2348986e+00  -9.4885591e+00  -1.3077130e+01  -1.3032993e+01  -1.0815576e+01  -4.3750388e+00   0.0000000e+00   3.0000000e+01   0.0000000e+00   0.0000000e+00
  -4.2764141e+01  -3.8484625e+01   2.8399846e+00  -5.4725415e+01  -3.6210520e+01  -2.2273999e+01  -8.4749719e+00  -7.6443724e+00  -3.4355975e+01  -1.8534082e-01   6.8542773e+00  -2.6419386e+01  -1.9453568e+01  -1.3315190e+00  -7.9682005e+00  -1.0453701e+01  -1.2605256e+01  -1.2968905e+01  -1.1021207e+01  -4.4613759e+00   0.0000000e+00   3.0000000e+01   0.0000000e+00   0.0000000e+00
  -4.2438338e+01  -3.9435777e+01   2.1494609e+00  -5.4780250e+01  -3.5389971e+01  -2.2024737e+01  -8.7983049e+00  -7.9462623e+00  -3.4509234e+01  -4.0519655e-01   5.5419327e+00  -2.6754221e+01  -1.8342939e+01  -2.3798338e+00  -8.4786452e+00  -1.1433514e+01  -1.1828238e+01  -1.3238779e+01  -1.0729267e+01  -4.3311456e+00   0.0000000e+00   3.0000000e+01   0.0000000e+00   0.0000000e+00
  -4.1884201e+01  -4.0634218e+01   1.8457227e+00  -5.4414413e+01  -3.4423583e+01  -2.1622356e+01  -8.6493777e+00  -7.7862998e+00  -3.4855037e+01  -8.6364314e-01   4.8321197e+00  -2.6844730e+01  -1.6802680e+01  -2.7246855e+00  -8.3996965e+00  -1.2082177e+01  -1.0714931e+01  -1.3567847e+01  -9.8750382e+00  -3.8303070e+00   0.0000000e+00   3.0000000e+01   0.0000000e+00   0.0000000e+00
  -4.1035097e+01  -4.1381474e+01   2.4640448e+00  -5.3758242e+01  -3.3175879e+01  -2.0901133e+01  -7.5953237e+00  -7.0412291e+00  -3.5331129e+01  -1.3306524e+00   4.6912215e+00  -2.6703657e+01  -1.5072434e+01  -2.4895496e+00  -7.5501849e+00  -1.2162204e+01  -9.3792612e+00  -1.3169704e+01  -8.4964030e+00  -2.9459675e+00   0.0000000e+00   3.0000000e+01   0.0000000e+00   0.0000000e+00
  -3.9981875e+01  -4.1559214e+01   3.6245889e+00  -5.3173380e+01  -3.1803819e+01  -1.9969024e+01  -5.8746982e+00  -6.0481680e+00  -3.5995134e+01  -1.7389230e+00   4.8093160e+00  -2.6605184e+01  -1.3487178e+01  -1.9060089e+00  -6.2259814e+00  -1.1873450e+01  -7.9792881e+00  -1.2083074e+01  -6.8451281e+00  -1.9285781e+00   0.0000000e+00   3.0000000e+01   0.0000000e+00   0.0000000e+00
  -3.9272964e+01  -4.1260153e+01   4.5938116e+00  -5.2791948e+01  -3.0497798e+01  -1.9022265e+01  -4.0989821e+00  -5.2890423e+00  -3.6756154e+01  -2.1946280e+00   4.9112699e+00  -2.6695294e+01  -1.2210589e+01  -1.2974782e+00  -5.0615996e+00  -1.1474283e+01  -6.6904106e+00  -1.1083825e+01  -5.2853385e+00  -1.1043948e+00   0.0000000e+00   3.0000000e+01   0.0000000e+00   0.0000000e+00
  -3.9121710e+01  -4.0366976e+01   5.5303612e+00  -5.2755531e+01  -2.9637739e+01  -1.8339183e+01  -2.5822380e+00  -4.7617996e+00  -3.7369224e+01  -2.6926833e+00   4.9370438e+00  -2.6967592e+01  -1.1309722e+01  -9.6515127e-01  -4.2733752e+00  -1.1044636e+01  -5.8989194e+00  -1.0342684e+01  -4.0968055e+00  -5.2639014e-01   0.0000000e+00   3.0000000e+01   0.0000000e+00   0.0000000e+00
  -3.9470844e+01  -3.9345433e+01   6.5531538e+00  -5.3143008e+01  -2.9431540e+01  -1.8174625e+01  -1.5360589e+00  -4.4266270e+00  -3.7796600e+01  -3.0634296e+00   4.9663131e+00  -2.7298442e+01  -1.0731519e+01  -9.4290920e-01  -3.7263905e+00  -1.0646079e+01  -5.8461599e+00  -9.5365854e+00  -3.4843455e+00  -5.8091713e-02   0.0000000e+00   3.0000000e+01   0.0000000e+00   0.0000000e+00
  -4.0211807e+01  -3.8901914e+01   7.1426252e+00  -5.3884956e+01  -2.9632779e+01  -1.8440078e+01  -1.1674746e+00  -4.4790671e+00  -3.8179183e+01  -3.1321074e+00   5.0565884e+00  -2.7553237e+01  -1.0248144e+01  -9.7607625e-01  -3.3088253e+00  -1.0409717e+01  -6.2167451e+00  -8.8151244e+00  -3.3406966e+00   3.3226846e-01   0.0000000e+00   3.0000000e+01   0.0000000e+00   0.0000000e+00
  -4.0674181e+01  -3.9411275e+01   7.1828159e+00  -5.4638627e+01  -2.9897909e+01  -1.8637763e+01  -1.3110738e+00  -4.9729844e+00  -3.8336675e+01  -2.7996278e+00   5.2944652e+00  -2.7457272e+01  -9.7446977e+00  -8.2035178e-01  -2.9963035e+00  -1.0345228e+01  -6.5006063e+00  -8.5666497e+00  -3.2988761e+00   6.7692893e-01   0.0000000e+00   3.0000000e+01   0.0000000e+00   0.0000000e+00
  -4.0725416e+01  -4.0352220e+01   6.9080305e+00  -5.5246668e+01  -2.9847430e+01  -1.8497429e+01  -1.5101290e+00  -5.6291818e+00  -3.7953843e+01  -2.1836957e+00   5.7048524e+00  -2.7002556e+01  -9.5387944e+00  -6.4316583e-01  -2.8508668e+00  -1.0258943e+01  -6.6057743e+00  -8.6584874e+00  -3.2360729e+00   1.0141747e+00   0.0000000e+00   3.0000000e+01   0.0000000e+00   0.0000000e+00
  -4.0648130e+01  -4.0767338e+01   6.4814573e+00  -5.5614035e+01  -2.9412375e+01  -1.8482722e+01  -1.5501608e+00  -6.0833710e+00  -3.7148328e+01  -1.5605887e+00   6.0940695e+00  -2.6287573e+01  -9.7612136e+00  -6.7295897e-01  -3.0100587e+00  -1.0025398e+01  -6.6057602e+00  -8.5423019e+00  -3.3596299e+00   1.2399468e+00   0.0000000e+00   3.0000000e+01   5.0000000e+01   0.0000000e+00
  -4.0385070e+01  -4.0678479e+01   5.9261759e+00  -5.5353370e+01  -2.8657753e+01  -1.8766450e+01  -1.7249947e+00  -6.3095036e+00  -3.6164713e+01  -1.0207071e+00   6.2281216e+00  -2.5225153e+01  -1.0001052e+01  -8.9627252e-01  -3.5038720e+00  -9.8129193e+00  -6.2489707e+00  -8.1270722e+00  -3.7693239e+00   1.0981380e+00   0.0000000e+00   3.0000000e+01   5.0000000e+01   0.0000000e+00
  -3.9772232e+01  -4.0552720e+01   5.1061074e+00  -5.4057939e+01  -2.7177510e+01  -1.8901561e+01  -2.2231993e+00  -6.4494916e+00  -3.5144137e+01  -5.7877560e-01   6.0511402e+00  -2.3710638e+01  -9.7387858e+00  -1.0621538e+00  -4.0173356e+00  -9.8199036e+00  -5.0812771e+00  -7.6908512e+00  -4.1750539e+00   4.4977309e-01   0.0000000e+00   3.0000000e+01   5.0000000e+01   0.0000000e+00
  -3.8521519e+01  -4.0420089e+01   4.2137814e+00  -5.1769229e+01  -2.4628128e+01  -1.8490491e+01  -2.5969139e+00  -6.2801267e+00  -3.4105553e+01  -4.4398351e-02   5.8874919e+00  -2.1579438e+01  -8.6277763e+00  -8.0036662e-01  -4.0042220e+00  -9.7577660e+00  -2.8871153e+00  -6.9166041e+00  -4.1638760e+00  -3.2147982e-01   0.0000000e+00   3.0000000e+01   5.0000000e+01   0.0000000e+00
  -3.6651916e+01  -3.9840093e+01   3.8133837e+00  -4.8923183e+01  -2.1371918e+01  -1.7560159e+01  -2.3519866e+00  -5.6242809e+00  -3.2986018e+01   6.8376789e-01   5.9433880e+00  -1.8932050e+01  -6.7188107e+00   5.7042269e-02  -3.3117016e+00  -9.3072899e+00   1.0579756e-01  -5.1564576e+00  -3.6826539e+00  -7.4664924e-01   0.0000000e+00   3.0000000e+01   5.0000000e+01   0.0000000e+00
  -3.4691940e+01  -3.8654150e+01   4.0432435e+00  -4.6030305e+01  -1.8331553e+01  -1.6558696e+01  -1.7660440e+00  -4.7917104e+00  -3.1942737e+01   1.0871864e+00   5.8820025e+00  -1.6358055e+01  -4.5355392e+00   1.2115080e+00  -2.4788862e+00  -8.7400095e+00   3.1448534e+00  -2.6607482e+00  -3.0333535e+00  -8.0317037e-01   0.0000000e+00   3.0000000e+01   5.0000000e+01   0.0000000e+00
  -3.3283416e+01  -3.7130716e+01   4.5750202e+00  -4.3628761e+01  -1.6206697e+01  -1.5744035e+01  -1.3074903e+00  -4.1496656e+00  -3.1127492e+01   9.8138495e-01   5.4757941e+00  -1.4403394e+01  -2.6517949e+00   2.2680784e+00  -1.9215066e+00  -8.3797325e+00   5.3879968e+00  -3.7419639e-01  -2.3880675e+00  -6.0359080e-01   0.0000000e+00   3.0000000e+01   5.0000000e+01   0.0000000e+00
  -3.2543244e+01  -3.5520817e+01   5.2883371e+00  -4.1855689e+01  -1.4963458e+01  -1.4960682e+01  -8.0740887e-01  -3.7596044e+00  -3.0455249e+01   7.5432389e-01   4.9240419e+00  -1.3032898e+01  -1.3589448e+00   3.1368015e+00  -1.3952289e+00  -8.1740358e+00   6.6096216e+00   1.4234879e+00  -1.6323844e+00  -2.5078166e-01   0.0000000e+00   3.0000000e+01   5.0000000e+01   0.0000000e+00
  -3.2383089e+01  -3.3918503e+01   6.1659380e+00  -4.0335911e+01  -1.4178883e+01  -1.4026274e+01   3.1965960e-02  -3.4785301e+00  -2.9729519e+01   6.1063949e-01   4.4448334e+00  -1.1982650e+01  -6.2273857e-01   3.9720541e+00  -6.8834555e-01  -8.1309554e+00   7.1425925e+00   3.1932258e+00  -6.6876321e-01   3.4792661e-02   0.0000000e+00   3.0000000e+01   5.0000000e+01   0.0000000e+00
  -3.2306912e+01  -3.2340405e+01   6.8302635e+00  -3.8748257e+01  -1.3624416e+01  -1.3057196e+01   8.6382629e-01  -3.4444242e+00  -2.8936932e+01   5.8619603e-01   3.9059582e+00  -1.1175348e+01  -3.0597175e-01   4.7832721e+00  -1.1979690e-01  -8.4845316e+00   7.3901867e+00   4.9176093e+00   3.4693667e-01  -3.3624208e-02   0.0000000e+00   3.0000000e+01   5.0000000e+01   0.0000000e+00
  -3.1905004e+01  -3.0844732e+01   6.7659815e+00  -3.7158053e+01  -1.3080183e+01  -1.2287060e+01   1.1249889e+00  -3.9434332e+00  -2.8208972e+01   7.7707580e-01   3.0472904e+00  -1.0696658e+01  -3.5831965e-01   5.2042826e+00  -1.5825854e-01  -9.2841505e+00   7.5510049e+00   5.9134250e+00   9.6661495e-01  -5.8544660e-01   0.0000000e+00   3.0000000e+01   5.0000000e+01   0.0000000e+00
  -3.1091847e+01  -2.9587911e+01   5.8107717e+00  -3.5751803e+01  -1.2600607e+01  -1.2068275e+01   6.9495261e-01  -4.8940638e+00  -2.7795323e+01   1.0344436e+00   1.8959482e+00  -1.0759105e+01  -9.1616943e-01   4.9566911e+00  -1.0582969e+00  -1.0356709e+01   7.4935389e+00   6.0075709e+00   5.6816060e-01  -1.7522344e+00   0.0000000e+00   3.0000000e+01   5.0000000e+01   0.0000000e+00
  -3.0035237e+01  -2.8697579e+01   4.4957235e+00  -3.4628786e+01  -1.2432356e+01  -1.2479908e+01  -1.6171966e-01  -5.8414837e+00  -2.7588094e+01   1.2538500e+00   7.6548287e-01  -1.1322280e+01  -1.9709441e+00   4.2295092e+00  -2.5160295e+00  -1.1514202e+01   7.1552917e+00   5.8591341e+00  -8.6303857e-01  -3.3901197e+00   0.0000000e+00   3.0000000e+01   5.0000000e+01   0.0000000e+00
  -2.9317959e+01  -2.8293983e+01   3.2906355e+00  -3.3817981e+01  -1.2617235e+01  -1.3215932e+01  -1.3412563e+00  -6.5985863e+00  -2.7300568e+01   1.5434234e+00  -3.8541427e-01  -1.2077132e+01  -3.3109514e+00   3.3771117e+00  -4.1313961e+00  -1.2779617e+01   6.7626822e+00   5.7014793e+00  -2.6283920e+00  -5.0396450e+00   0.0000000e+00   3.0000000e+01   5.0000000e+01   0.0000000e+00
  -2.8961592e+01  -2.8067227e+01   2.4185855e+00  -3.2982478e+01  -1.2856120e+01  -1.3726591e+01  -2.5722668e+00  -7.1308875e+00  -2.7066087e+01   1.7753812e+00  -1.6704930e+00  -1.2648042e+01  -4.6460202e+00   2.8286562e+00  -5.6007683e+00  -1.3984392e+01   6.6376208e+00   5.3164113e+00  -3.9610167e+00  -6.3462158e+00   0.0000000e+00   3.0000000e+01   5.0000000e+01   0.0000000e+00
  -2.8491508e+01  -2.7649528e+01   2.2202722e+00  -3.1737692e+01  -1.2807122e+01  -1.3525319e+01  -3.2492049e+00  -7.2184484e+00  -2.7104680e+01   1.5203222e+00  -2.8312300e+00  -1.2792202e+01  -5.5521294e+00   2.9211826e+00  -6.4755258e+00  -1.4702419e+01   6.8285883e+00   5.0204641e+00  -4.4948442e+00  -7.1298494e+00   0.0000000e+00   3.0000000e+01   5.0000000e+01   0.0000000e+00
  -2.7587490e+01  -2.7138806e+01   2.6009629e+00  -2.9996874e+01  -1.2282958e+01  -1.2601980e+01  -3.0485483e+00  -6.7302747e+00  -2.7235027e+01   8.5522383e-01  -3.5676287e+00  -1.2530775e+01  -5.5562101e+00   3.8003496e+00  -6.3826531e+00  -1.4670836e+01   7.3268478e+00   5.5376639e+00  -4.0929749e+00  -7.3982771e+00   0.0000000e+00   3.0000000e+01   5.0000000e+01   0.0000000e+00
  -2.6516289e+01  -2.6758752e+01   3.0062920e+00  -2.7940666e+01  -1.1353082e+01  -1.1279640e+01  -2.3598910e+00  -5.7927390e+00  -2.7227756e+01   2.8118100e-01  -3.9023007e+00  -1.1911701e+01  -4.6112252e+00   5.2740274e+00  -5.3816520e+00  -1.4041428e+01   8.1793868e+00   6.7850195e+00  -2.8021750e+00  -7.2292311e+00   0.0000000e+00   3.0000000e+01   5.0000000e+01   0.0000000e+00
  -2.5759999e+01  -2.6636227e+01   3.2706979e+00  -2.6114089e+01  -1.0404174e+01  -9.9617620e+00  -1.7407533e+00  -4.5526894e+00  -2.7219755e+01  -8.0118401e-02  -4.0188670e+00  -1.1064759e+01  -3.0482189e+00   6.9193168e+00  -3.8795386e+00  -1.3270574e+01   9.1713678e+00   7.8938840e+00  -9.2169438e-01  -6.6981592e+00   0.0000000e+00   3.0000000e+01   5.0000000e+01   0.0000000e+00
  -2.5562789e+01  -2.6828983e+01   3.6100634e+00  -2.5205304e+01  -9.7567873e+00  -8.8596415e+00  -1.1541710e+00  -3.1538685e+00  -2.7414976e+01  -2.9701836e-01  -4.1204354e+00  -1.0429648e+01  -1.4418287e+00   8.3666004e+00  -2.3408736e+00  -1.2584996e+01   9.9056050e+00   8.4907475e+00   1.1575867e+00  -5.8872649e+00   0.0000000e+00   3.0000000e+01   5.0000000e+01   0.0000000e+00
  -2.5903608e+01  -2.7278051e+01   4.0900171e+00  -2.5544670e+01  -9.6556487e+00  -8.1314129e+00  -3.6573314e-01  -1.7957482e+00  -2.7723368e+01  -3.0064607e-01  -4.3492464e+00  -1.0301725e+01  -3.2083997e-01   9.3853271e+00  -1.0676637e+00  -1.1863674e+01   1.0063625e+01   8.8637005e+00   3.0972379e+00  -4.8581273e+00   0.0000000e+00   3.0000000e+01   5.0000000e+01   0.0000000e+00
  -2.6643526e+01  -2.7615574e+01   4.4407442e+00  -2.6865740e+01  -1.0213118e+01  -7.9205754e+00   4.3432627e-01  -6.0296041e-01  -2.8002036e+01   7.4940006e-03  -4.5955636e+00  -1.0641963e+01   3.3292840e-01   9.9642558e+00  -1.3567830e-01  -1.1061204e+01   9.6032847e+00   9.0661691e+00   4.7534058e+00  -3.6449327e+00   0.0000000e+00   3.0000000e+01   5.0000000e+01   0.0000000e+00
  -2.7859769e+01  -2.7857284e+01   4.3541616e+00  -2.8590026e+01  -1.1390430e+01  -8.1420491e+00   8.6287680e-01   2.9561544e-01  -2.8032765e+01   7.1244097e-01  -4.5942035e+00  -1.1237104e+01   8.0934254e-01   1.0352454e+01   6.1860198e-01  -1.0311115e+01   8.8072897e+00   8.7832722e+00   6.0865826e+00  -2.4579666e+00   0.0000000e+00   3.0000000e+01   5.0000000e+01   0.0000000e+00
  -2.9769261e+01  -2.8303559e+01   4.0475861e+00  -3.0244245e+01  -1.2990302e+01  -8.7421162e+00   9.0943021e-01   8.2443213e-01  -2.7560586e+01   1.8593346e+00  -4.2881945e+00  -1.1911958e+01   1.1991227e+00   1.0651693e+01   1.3182596e+00  -9.7435550e+00   7.9347701e+00   8.0643380e+00   6.9326734e+00  -1.6204085e+00   0.0000000e+00   3.0000000e+01   5.0000000e+01   0.0000000e+00
  -3.1916840e+01  -2.8929840e+01   3.8616971e+00  -3.1598447e+01  -1.4693084e+01  -9.6270306e+00   7.8650818e-01   1.0654968e+00  -2.6608040e+01   3.1767999e+00  -4.0025385e+00  -1.2466318e+01   1.4693555e+00   1.0526443e+01   1.8432519e+00  -9.4039398e+00   7.1289341e+00   7.3371717e+00   7.1052303e+00  -1.2519058e+00   0.0000000e+00   3.0000000e+01   5.0000000e+01   0.0000000e+00
  -3.3448938e+01  -2.9430269e+01   3.8825668e+00  -3.2574905e+01  -1.6331107e+01  -1.0424379e+01   6.4401926e-01   1.1694189e+00  -2.5413974e+01   4.1510557e+00  -4.0148248e+00  -1.2587418e+01   1.8481576e+00   9.9437699e+00   2.0951343e+00  -9.1980907e+00   6.6987916e+00   6.6496721e+00   6.8624997e+00  -1.1307657e+00   0.0000000e+00   3.0000000e+01   5.0000000e+01   0.0000000e+00
  -3.4057443e+01  -2.9577184e+01   4.1516054e+00  -3.2987794e+01  -1.7378104e+01  -1.0364013e+01   8.3255167e-01   1.3061571e+00  -2.4327041e+01   4.7839550e+00  -4.1843448e+00  -1.2142038e+01   2.7588343e+00   9.5249613e+00   2.4322721e+00  -8.8641175e+00   7.1810083e+00   5.8209487e+00   6.9600379e+00  -9.3994510e-01   0.0000000e+00   3.0000000e+01   5.0000000e+01   0.0000000e+00
  -3.3554272e+01  -2.9030694e+01   4.7921727e+00  -3.2450156e+01  -1.7085857e+01  -8.9840604e+00   1.8235581e+00   1.7001925e+00  -2.3358272e+01   5.6069839e+00  -4.0751464e+00  -1.0759048e+01   4.6111059e+00   1.0142221e+01   3.4916629e+00  -8.1337110e+00   9.0609625e+00   5.3601524e+00   7.9965456e+00  -5.2332684e-01   0.0000000e+00   3.0000000e+01   5.0000000e+01   0.0000000e+00
  -3.2018813e+01  -2.7684305e+01   5.7880580e+00  -3.1038563e+01  -1.5099815e+01  -6.4257202e+00   3.6722528e+00   2.3965525e+00  -2.2168477e+01   6.7913723e+00  -3.5213265e+00  -8.3180187e+00   7.5552115e+00   1.2142952e+01   5.5379280e+00  -7.0899368e+00   1.2224575e+01   6.0519641e+00   9.8959157e+00   9.6200562e-02   0.0000000e+00   3.0000000e+01   5.0000000e+01   0.0000000e+00
  -3.0010486e+01  -2.5875872e+01   6.9240825e+00  -2.9409525e+01  -1.1921575e+01  -3.1053636e+00   5.9835251e+00   3.2567258e+00  -2.0842848e+01   8.1199056e+00  -2.6835752e+00  -5.7112592e+00   1.1044410e+01   1.5026583e+01   8.1947424e+00  -6.0571714e+00   1.5947274e+01   7.7459055e+00   1.2366689e+01   1.0079053e+00   0.0000000e+00   3.0000000e+01   5.0000000e+01   0.0000000e+00
  -2.8229853e+01  -2.4069467e+01   8.0977738e+00  -2.8273578e+01  -8.6865725e+00   4.2142344e-01   8.3860759e+00   4.1632417e+00  -1.9995692e+01   9.4104890e+00  -1.8054185e+00  -4.1699578e+00   1.3996344e+01   1.7877589e+01   1.0876242e+01  -5.2397202e+00   1.9277634e+01   9.4272500e+00   1.5234541e+01   2.3808262e+00   0.0000000e+00   3.0000000e+01   5.0000000e+01   0.0000000e+00
  -2.7157415e+01  -2.2929652e+01   9.2857437e+00  -2.7948701e+01  -6.3230773e+00   3.7568068e+00   1.0869872e+01   5.1770738e+00  -1.9613327e+01   1.0667497e+01  -9.2791646e-01  -3.8792875e+00   1.5798459e+01   2.0255297e+01   1.3310659e+01  -4.5496603e+00   2.1590071e+01   1.0563276e+01   1.8249345e+01   4.1148530e+00   0.0000000e+00   3.0000000e+01   5.0000000e+01   0.0000000e+00
  -2.6653897e+01  -2.2686698e+01   1.0307023e+01  -2.8249630e+01  -5.3633840e+00   6.3110693e+00   1.3320459e+01   6.2272389e+00  -1.9401522e+01   1.1773044e+01   6.8297130e-02  -4.3140060e+00   1.6556518e+01   2.2080522e+01   1.5426261e+01  -3.8068564e+00   2.2667097e+01   1.1370797e+01   2.1017391e+01   5.8307321e+00   0.0000000e+00   3.0000000e+01   5.0000000e+01   0.0000000e+00
  -2.6404068e+01  -2.3054043e+01   1.0727238e+01  -2.8757869e+01  -5.4728878e+00   7.7717245e+00   1.5228514e+01   6.9342225e+00  -1.9363210e+01   1.2667595e+01   1.2141396e+00  -5.0385881e+00   1.6771698e+01   2.3259129e+01   1.7097945e+01  -2.9912413e+00   2.2763697e+01   1.1856065e+01   2.3162678e+01   7.1584433e+00   0.0000000e+00   3.0000000e+01   5.0000000e+01   0.0000000e+00
  -2.6269478e+01  -2.3678697e+01   1.0324733e+01  -2.8977788e+01  -5.8519791e+00   8.4890719e+00   1.6191579e+01   7.0240013e+00  -1.9409077e+01   1.3492338e+01   2.4369612e+00  -5.7810317e+00   1.6822123e+01   2.3803572e+01   1.8176538e+01  -2.2335026e+00   2.2420504e+01   1.1735768e+01   2.4487223e+01   7.8959536e+00   0.0000000e+00   3.0000000e+01   5.0000000e+01   0.0000000e+00
  -2.6257543e+01  -2.3988466e+01   9.5054686e+00  -2.8689086e+01  -5.9925935e+00   8.7548322e+00   1.6415551e+01   6.6409227e+00  -1.9262203e+01   1.4359586e+01   3.6379523e+00  -6.3864849e+00   1.6712741e+01   2.3762090e+01   1.8618490e+01  -1.6332856e+00   2.1866521e+01   1.1299421e+01   2.4903690e+01   8.0824404e+00   0.0000000e+00   3.0000000e+01   5.0000000e+01   0.0000000e+00
  -2.6183462e+01  -2.3858977e+01   8.6047508e+00  -2.7878343e+01  -5.6189297e+00   8.6168834e+00   1.6278055e+01   5.9807853e+00  -1.8373659e+01   1.5476427e+01   4.7628975e+00  -6.3412722e+00   1.6651648e+01   2.3367289e+01   1.8581964e+01  -1.2395602e+00   2.1274723e+01   1.1381818e+01   2.4481747e+01   7.8713477e+00   0.0000000e+00   3.0000000e+01   5.0000000e+01   0.0000000e+00
  -2.5746382e+01  -2.3725055e+01   7.3409954e+00  -2.6778769e+01  -4.8916702e+00   7.9520392e+00   1.5643283e+01   4.7702089e+00  -1.6680597e+01   1.6949899e+01   5.4378238e+00  -5.4003331e+00   1.6772106e+01   2.2798996e+01   1.8070382e+01  -1.3819483e+00   2.0742838e+01   1.1988685e+01   2.3436645e+01   7.1541990e+00   0.0000000e+00   3.0000000e+01   5.0000000e+01   0.0000000e+00
  -2.4729384e+01  -2.3299411e+01   5.6462313e+00  -2.5215687e+01  -4.0519189e+00   7.0526881e+00   1.4598817e+01   2.9041102e+00  -1.4607650e+01   1.8721016e+01   5.2944776e+00  -3.6045756e+00   1.7256838e+01   2.2309302e+01   1.7204649e+01  -2.3398089e+00   2.0580769e+01   1.2493208e+01   2.2204606e+01   5.7955921e+00   0.0000000e+00   3.0000000e+01   5.0000000e+01   0.0000000e+00
  -2.2744373e+01  -2.1980117e+01   4.2955950e+00  -2.2373517e+01  -2.8204184e+00   6.7222064e+00   1.3872494e+01   8.2098334e-01  -1.2314522e+01   2.0473980e+01   4.5037301e+00  -8.8967514e-01   1.8745816e+01   2.2398445e+01   1.6626221e+01  -3.9138142e+00   2.1365432e+01   1.3047270e+01   2.1298325e+01   4.0062647e+00   0.0000000e+00   0.0000000e+00   5.0000000e+01   0.0000000e+00
  -1.9972763e+01  -1.9696975e+01   4.1326922e+00  -1.8450014e+01  -1.2047173e+00   7.1840319e+00   1.3970781e+01  -7.5229132e-01  -1.0305715e+01   2.1543154e+01   3.3676706e+00   2.0920908e+00   2.0984645e+01   2.3081528e+01   1.6771226e+01  -5.5619106e+00   2.2874558e+01   1.4069806e+01   2.0982322e+01   2.3814888e+00   0.0000000e+00   0.0000000e+00   5.0000000e+01   0.0000000e+00
  -1.7413268e+01  -1.7152216e+01   5.3481896e+00  -1.4949451e+01   1.5214742e-01   8.0023443e+00   1.4699734e+01  -1.1101806e+00  -9.5913521e+00   2.1581033e+01   2.0702029e+00   4.1070378e+00   2.2635872e+01   2.3625280e+01   1.7387728e+01  -6.6107530e+00   2.4164617e+01   1.5099817e+01   2.1229736e+01   1.5647305e+00   0.0000000e+00   0.0000000e+00   5.0000000e+01   0.0000000e+00
  -1.5869025e+01  -1.5235323e+01   7.3570231e+00  -1.2989019e+01   7.2974987e-01   8.7194994e+00   1.5557998e+01  -3.1984587e-01  -1.0253969e+01   2.0903442e+01   8.7112730e-01   4.7148961e+00   2.3046281e+01   2.3607033e+01   1.8007645e+01  -6.7664719e+00   2.4655898e+01   1.5253094e+01   2.1738398e+01   1.6218938e+00   0.0000000e+00   0.0000000e+00   5.0000000e+01   0.0000000e+00
  -1.5525071e+01  -1.4173448e+01   9.2184556e+00  -1.2374608e+01   5.8770108e-01   9.0832598e+00   1.6262611e+01   8.0555516e-01  -1.1490400e+01   2.0037966e+01   1.3623610e-01   4.4106749e+00   2.2571544e+01   2.3211411e+01   1.8412683e+01  -6.2679383e+00   2.4412190e+01   1.4524566e+01   2.2118668e+01   2.0801493e+00   0.0000000e+00   0.0000000e+00   5.0000000e+01   0.0000000e+00
  -1.6077400e+01  -1.3927504e+01   1.0304703e+01  -1.2354273e+01   1.0327884e-01   9.0650989e+00   1.6775837e+01   1.7430820e+00  -1.2783450e+01   1.9294646e+01   1.0380190e-01   3.8209940e+00   2.1790195e+01   2.2750048e+01   1.8630968e+01  -5.3038052e+00   2.3769100e+01   1.3770708e+01   2.2227490e+01   2.6733119e+00   0.0000000e+00   0.0000000e+00   5.0000000e+01   0.0000000e+00
  -1.6993969e+01  -1.4537688e+01   1.0542875e+01  -1.2600703e+01  -5.2277569e-01   8.7603149e+00   1.6961809e+01   2.3151881e+00  -1.3965342e+01   1.8707810e+01   6.4515757e-01   3.1995965e+00   2.1147223e+01   2.2408359e+01   1.8702061e+01  -3.9724486e+00   2.3116806e+01   1.3360706e+01   2.2108819e+01   3.2937516e+00   0.0000000e+00   0.0000000e+00   5.0000000e+01   0.0000000e+00
  -1.7738044e+01  -1.5443572e+01   1.0160023e+01  -1.2871808e+01  -1.0885934e+00   8.4481512e+00   1.6711871e+01   2.3953929e+00  -1.4775013e+01   1.8348000e+01   1.4394055e+00   2.6700140e+00   2.0915633e+01   2.2248278e+01   1.8766145e+01  -2.5183249e+00   2.2842429e+01   1.3092942e+01   2.1884263e+01   3.7498112e+00   0.0000000e+00   0.0000000e+00   5.0000000e+01   0.0000000e+00
  -1.7763464e+01  -1.5834592e+01   9.5335241e+00  -1.2556991e+01  -1.0642480e+00   8.4920631e+00   1.6264135e+01   2.1745500e+00  -1.4782214e+01   1.8442546e+01   2.1860378e+00   2.6498323e+00   2.1384937e+01   2.2321935e+01   1.9108241e+01  -1.1638690e+00   2.3307671e+01   1.3303580e+01   2.1646204e+01   3.8990279e+00   0.0000000e+00   0.0000000e+00   5.0000000e+01   0.0000000e+00
  -1.6745540e+01  -1.5440800e+01   8.9031130e+00  -1.1186160e+01   2.1633560e-02   8.8241707e+00   1.5878147e+01   1.8803792e+00  -1.3913875e+01   1.8795956e+01   2.4363221e+00   3.2989410e+00   2.2549061e+01   2.2436333e+01   1.9586350e+01  -1.2958299e-01   2.4548973e+01   1.4555981e+01   2.1294642e+01   3.6351643e+00   0.0000000e+00   0.0000000e+00   5.0000000e+01   0.0000000e+00
  -1.5074505e+01  -1.4437851e+01   8.1729211e+00  -8.9973044e+00   2.0896388e+00   9.2095568e+00   1.5460755e+01   1.4429771e+00  -1.2718259e+01   1.8824868e+01   1.7443347e+00   4.2150749e+00   2.3964129e+01   2.2270700e+01   1.9645275e+01   3.0193313e-01   2.6210912e+01   1.6462601e+01   2.0746170e+01   2.9698229e+00   0.0000000e+00   0.0000000e+00   5.0000000e+01   0.0000000e+00
  -1.3473497e+01  -1.3254463e+01   7.4389648e+00  -6.5845447e+00   4.5680467e+00   9.6440824e+00   1.4885438e+01   8.7139733e-01  -1.1647920e+01   1.8435165e+01   1.4444718e-01   5.0733783e+00   2.5203988e+01   2.1790771e+01   1.9093962e+01   1.8157089e-03   2.7813983e+01   1.8120119e+01   2.0060900e+01   2.1062843e+00   0.0000000e+00   0.0000000e+00   5.0000000e+01   0.0000000e+00
  -1.2322786e+01  -1.2287191e+01   7.1617065e+00  -4.4978489e+00   6.5364324e+00   9.9373710e+00   1.4336352e+01   4.6765304e-01  -1.0782818e+01   1.7747631e+01  -1.7196600e+00   5.6189564e+00   2.5825866e+01   2.1081195e+01   1.8226115e+01  -7.7195266e-01   2.8800598e+01   1.9320334e+01   1.9364866e+01   1.3504002e+00   0.0000000e+00   0.0000000e+00   5.0000000e+01   0.0000000e+00
  -1.2035257e+01  -1.1957637e+01   7.3774731e+00  -3.4947459e+00   6.9842869e+00   9.5358960e+00   1.3862865e+01   3.2346694e-01  -1.0489147e+01   1.6578098e+01  -3.2163105e+00   5.4318114e+00   2.5191054e+01   1.9844928e+01   1.7187990e+01  -1.5863786e+00   2.8482815e+01   2.0167316e+01   1.8588380e+01   8.2820184e-01   0.0000000e+00   0.0000000e+00   5.0000000e+01   0.0000000e+00
  -1.2798974e+01  -1.2511778e+01   7.6403266e+00  -3.8958681e+00   5.8422230e+00   8.2644205e+00   1.3332648e+01   4.2096040e-01  -1.1139372e+01   1.4902841e+01  -4.0859660e+00   4.4212128e+00   2.3123626e+01   1.7901582e+01   1.5943287e+01  -2.0987604e+00   2.6745010e+01   2.0408980e+01   1.7692168e+01   5.9625371e-01   0.0000000e+00   0.0000000e+00   5.0000000e+01   0.0000000e+00
  -1.4344064e+01  -1.3638982e+01   7.5902723e+00  -5.5017969e+00   3.8777875e+00   6.5132946e+00   1.2760526e+01   8.1402148e-01  -1.2494152e+01   1.3102448e+01  -4.1482457e+00   2.8097995e+00   2.0272128e+01   1.5642844e+01   1.4611924e+01  -2.1951148e+00   2.4182094e+01   1.9755876e+01   1.6819168e+01   8.3822671e-01   0.0000000e+00   0.0000000e+00   5.0000000e+01   0.0000000e+00
  -1.6198828e+01  -1.4758550e+01   7.3466077e+00  -7.9187641e+00   1.9012310e+00   4.7683045e+00   1.2410293e+01   1.5277317e+00  -1.3732131e+01   1.1810816e+01  -3.3540844e+00   1.0080764e+00   1.7610591e+01   1.3718898e+01   1.3539504e+01  -1.8101181e+00   2.1504503e+01   1.8660774e+01   1.6108004e+01   1.6781919e+00   0.0000000e+00   0.0000000e+00   5.0000000e+01   0.0000000e+00
  -1.8105880e+01  -1.5590377e+01   7.4104093e+00  -1.0723751e+01   1.4818668e-01   3.3378905e+00   1.2494908e+01   2.3882334e+00  -1.4422543e+01   1.1317229e+01  -1.8565051e+00  -5.9031034e-01   1.5594845e+01   1.2515411e+01   1.3051530e+01  -9.0569576e-01   1.9153514e+01   1.8023390e+01   1.5619492e+01   2.9768710e+00   0.0000000e+00   0.0000000e+00   5.0000000e+01   0.0000000e+00
  -2.0096580e+01  -1.6140549e+01   7.6870342e+00  -1.3748082e+01  -1.7216200e+00   2.1984990e+00   1.2734356e+01   2.9895837e+00  -1.4767032e+01   1.1437087e+01  -1.8326993e-01  -1.9376546e+00   1.4078509e+01   1.1992428e+01   1.3149024e+01   2.8035773e-01   1.7123217e+01   1.7940450e+01   1.5314428e+01   4.3006003e+00   0.0000000e+00   0.0000000e+00   5.0000000e+01   0.0000000e+00
  -2.2167740e+01  -1.6833464e+01   7.7096252e+00  -1.6676134e+01  -3.7524110e+00   1.1410533e+00   1.2572913e+01   3.0389708e+00  -1.4988331e+01   1.1565422e+01   1.1460351e+00  -3.0816238e+00   1.2857423e+01   1.1732442e+01   1.3378913e+01   1.3563550e+00   1.5220483e+01   1.7715299e+01   1.5015548e+01   5.2478194e+00   0.0000000e+00   0.0000000e+00   5.0000000e+01   0.0000000e+00
  -2.4064969e+01  -1.7941710e+01   7.5991742e+00  -1.8899976e+01  -5.4061281e+00   2.1250557e-01   1.2043111e+01   2.6561619e+00  -1.5135363e+01   1.1208166e+01   2.0506517e+00  -3.8253406e+00   1.1966878e+01   1.1512656e+01   1.3457401e+01   2.1805788e+00   1.3500018e+01   1.7256772e+01   1.4607676e+01   5.7199504e+00   0.0000000e+00   0.0000000e+00   5.0000000e+01   0.0000000e+00
  -2.5319517e+01  -1.8995566e+01   7.7071934e+00  -1.9876534e+01  -6.1153182e+00  -1.2640774e-01   1.1710326e+01   2.2267421e+00  -1.4904972e+01   1.0653071e+01   2.6974752e+00  -3.8988742e+00   1.1702079e+01   1.1451804e+01   1.3452189e+01   2.9202544e+00   1.2334667e+01   1.7220402e+01   1.4169138e+01   5.8547270e+00   0.0000000e+00   0.0000000e+00   5.0000000e+01   0.0000000e+00
  -2.5742390e+01  -1.9826389e+01   7.7462120e+00  -1.9516237e+01  -5.8351080e+00   3.0228898e-01   1.1613111e+01   1.7683867e+00  -1.4268988e+01   1.0322431e+01   2.9609953e+00  -3.3671237e+00   1.2182013e+01   1.1602540e+01   1.3303914e+01   3.4355529e+00   1.1972996e+01   1.7536466e+01   1.3804120e+01   5.7196684e+00   0.0000000e+00   0.0000000e+00   5.0000000e+01   0.0000000e+00
  -2.5321679e+01  -2.0265590e+01   7.5095390e+00  -1.8220041e+01  -4.8771834e+00   1.0828248e+00   1.1425624e+01   1.0798577e+00  -1.3667098e+01   1.0293911e+01   2.5977381e+00  -2.5818231e+00   1.3040658e+01   1.1912044e+01   1.2905440e+01   3.3003634e+00   1.2168800e+01   1.7447365e+01   1.3475374e+01   5.2617762e+00   0.0000000e+00   0.0000000e+00   5.0000000e+01   0.0000000e+00
  -2.4092671e+01  -2.0071903e+01   7.2463462e+00  -1.6486017e+01  -3.6236552e+00   1.8190859e+00   1.1179750e+01   2.6137701e-01  -1.3276619e+01   1.0468184e+01   1.7701511e+00  -1.6735301e+00   1.3988363e+01   1.2334191e+01   1.2430771e+01   2.5369335e+00   1.2499687e+01   1.6810151e+01   1.3144404e+01   4.4594726e+00   0.0000000e+00   0.0000000e+00   5.0000000e+01   0.0000000e+00
  -2.2387082e+01  -1.9912172e+01   7.0647370e+00  -1.4599993e+01  -2.3674630e+00   2.4047202e+00   1.1114888e+01  -4.0879627e-01  -1.2923731e+01   1.0821774e+01   8.9129464e-01  -5.0899750e-01   1.5070230e+01   1.2866306e+01   1.2270662e+01   1.6487727e+00   1.2914471e+01   1.6156548e+01   1.2972262e+01   3.4863696e+00   0.0000000e+00   0.0000000e+00   5.0000000e+01   0.0000000e+00
  -2.0620992e+01  -2.0289405e+01   6.7545161e+00  -1.2756067e+01  -1.2560622e+00   2.8120089e+00   1.1167834e+01  -8.3624494e-01  -1.2456970e+01   1.1338397e+01   1.3109739e-01   7.8513274e-01   1.6210794e+01   1.3455598e+01   1.2482905e+01   9.5197598e-01   1.3554425e+01   1.5633643e+01   1.3098008e+01   2.6483474e+00   0.0000000e+00   0.0000000e+00   5.0000000e+01   0.0000000e+00
  -1.9077377e+01  -2.0914816e+01   6.2302216e+00  -1.1283453e+01  -3.5636248e-01   2.9963777e+00   1.1032988e+01  -1.0474419e+00  -1.1866470e+01   1.1907890e+01  -3.4588374e-01   1.9038012e+00   1.7229112e+01   1.3948156e+01   1.2919482e+01   4.1657720e-01   1.4305875e+01   1.4861011e+01   1.3519221e+01   2.1821322e+00   0.0000000e+00   0.0000000e+00   5.0000000e+01   0.0000000e+00
  -1.8392322e+01  -2.1471605e+01   5.9515020e+00  -1.0362814e+01   3.6246736e-01   2.9108215e+00   1.0771320e+01  -9.5797190e-01  -1.1309267e+01   1.2468971e+01  -3.2012905e-01   2.8706925e+00   1.8097831e+01   1.4297801e+01   1.3600025e+01   1.3480242e-01   1.4813011e+01   1.3973448e+01   1.4053310e+01   2.1924035e+00   0.0000000e+00   0.0000000e+00   5.0000000e+01   0.0000000e+00
  -1.8974840e+01  -2.1928505e+01   6.1153723e+00  -9.9115977e+00   6.8066059e-01   2.3747540e+00   1.0442929e+01  -5.7877462e-01  -1.0995674e+01   1.2975530e+01   9.6014355e-02   3.6616713e+00   1.8611651e+01   1.4351674e+01   1.4324138e+01   2.2523631e-01   1.4628142e+01   1.3495673e+01   1.4303468e+01   2.5532360e+00   0.0000000e+00   0.0000000e+00   5.0000000e+01   0.0000000e+00
  -2.0337090e+01  -2.2565159e+01   6.3391438e+00  -9.9862186e+00   1.9753806e-01   9.8203384e-01   9.6371610e+00  -1.3700505e-01  -1.1283305e+01   1.3057049e+01   3.3370062e-01   3.7884541e+00   1.8289424e+01   1.3596917e+01   1.4479747e+01   4.2627239e-01   1.3481366e+01   1.3195314e+01   1.3928863e+01   2.8757188e+00   0.0000000e+00   0.0000000e+00   5.0000000e+01   0.0000000e+00
  -2.1930269e+01  -2.3565658e+01   6.3429689e+00  -1.0786246e+01  -1.1377621e+00  -1.1884019e+00   8.2889371e+00   1.9305722e-01  -1.2305452e+01   1.2245570e+01  -3.1709580e-02   2.9747545e+00   1.7047816e+01   1.1868485e+01   1.3798521e+01   5.3651091e-01   1.1615099e+01   1.2347229e+01   1.3022828e+01   2.8800273e+00   0.0000000e+00   0.0000000e+00   5.0000000e+01   0.0000000e+00
  -2.3276831e+01  -2.4459777e+01   6.4147965e+00  -1.1988796e+01  -2.8657977e+00  -3.4819391e+00   7.0367115e+00   4.4953490e-01  -1.3636885e+01   1.0729881e+01  -9.2676218e-01   1.6049692e+00   1.5303885e+01   9.6752919e+00   1.2624042e+01   6.1294277e-01   9.5775172e+00   1.1062871e+01   1.1850297e+01   2.5829479e+00   0.0000000e+00   0.0000000e+00   5.0000000e+01   0.0000000e+00
  -2.4057664e+01  -2.4696788e+01   6.8138044e+00  -1.2931226e+01  -4.2487304e+00  -5.3677754e+00   6.2804837e+00   5.4557534e-01  -1.4840561e+01   9.1514902e+00  -2.1342756e+00   3.4176030e-01   1.3665997e+01   7.7054863e+00   1.1318156e+01   4.8964473e-01   7.9031725e+00   1.0137075e+01   1.0492291e+01   1.9665169e+00   0.0000000e+00   0.0000000e+00   5.0000000e+01   0.0000000e+00
  -2.4584038e+01  -2.4164082e+01   7.2234044e+00  -1.3521492e+01  -5.0891942e+00  -6.7266501e+00   5.6795164e+00   2.5409132e-01  -1.5827515e+01   7.8090184e+00  -3.5566991e+00  -5.9753549e-01   1.2325279e+01   6.1766382e+00   9.8739298e+00  -1.2045641e-01   6.6818466e+00   9.5578113e+00   8.9665387e+00   1.0665536e+00   0.0000000e+00   0.0000000e+00   5.0000000e+01   0.0000000e+00
  -2.5295544e+01  -2.3510282e+01   7.2842163e+00  -1.3939093e+01  -5.6665007e+00  -7.6535367e+00   4.9055335e+00  -3.1972930e-01  -1.6643858e+01   6.8778576e+00  -5.0620767e+00  -1.4375975e+00   1.1150708e+01   4.9968562e+00   8.2773215e+00  -1.1290019e+00   5.6694822e+00   8.5945578e+00   7.4988951e+00   2.4881121e-01   0.0000000e+00   0.0000000e+00   5.0000000e+01   0.0000000e+00
  -2.6020714e+01  -2.3466166e+01   6.9410966e+00  -1.4080018e+01  -6.1264025e+00  -8.2739978e+00   4.0325874e+00  -9.9369364e-01  -1.7334419e+01   6.4049887e+00  -6.4605297e+00  -2.1800856e+00   1.0099971e+01   4.0444496e+00   6.6593905e+00  -2.2041310e+00   4.7692822e+00   7.0984538e+00   6.2113775e+00  -2.7625977e-01   0.0000000e+00   0.0000000e+00   5.0000000e+01   0.0000000e+00
  -2.6491294e+01  -2.3766844e+01   6.5882901e+00  -1.3859203e+01  -6.4929591e+00  -8.6659375e+00   3.1622231e+00  -1.5745253e+00  -1.7994484e+01   6.0913703e+00  -7.5899528e+00  -2.7078625e+00   9.0518511e+00   3.2453227e+00   5.1286450e+00  -3.0813120e+00   3.9527320e+00   5.5934829e+00   5.0349763e+00  -4.9918077e-01   0.0000000e+00   0.0000000e+00   5.0000000e+01   0.0000000e+00
  -2.7060629e+01  -2.4130081e+01   6.4082790e+00  -1.3632159e+01  -6.8980260e+00  -8.8499118e+00   2.2604894e+00  -1.9333458e+00  -1.8740777e+01   5.7548896e+00  -8.3702730e+00  -3.2477234e+00   7.8623437e+00   2.7189535e+00   3.7855785e+00  -3.7290593e+00   3.1219184e+00   4.1661675e+00   4.1513114e+00  -3.3702797e-01   0.0000000e+00   0.0000000e+00   5.0000000e+01   0.0000000e+00
  -2.7864464e+01  -2.4794189e+01   6.3994152e+00  -1.3772414e+01  -7.3584907e+00  -8.7802099e+00   1.5820354e+00  -1.9624455e+00  -1.9476859e+01   5.4353158e+00  -8.7282174e+00  -3.9136571e+00   6.6320232e+00   2.6511877e+00   2.9377298e+00  -4.0809514e+00   2.3462435e+00   2.5444537e+00   3.9286116e+00   3.3219878e-01   0.0000000e+00   0.0000000e+00   5.0000000e+01   0.0000000e+00
  -2.8412159e+01  -2.5697180e+01   6.8134524e+00  -1.4165942e+01  -7.6780283e+00  -8.3461016e+00   1.6793840e+00  -1.5111075e+00  -1.9875293e+01   5.2588281e+00  -8.6017286e+00  -4.3286493e+00   5.8229988e+00   2.9953149e+00   2.8943781e+00  -4.0169935e+00   1.9695206e+00   1.1422003e+00   4.4512772e+00   1.4596261e+00   0.0000000e+00   0.0000000e+00   5.0000000e+01   0.0000000e+00
  -2.8375530e+01  -2.6320047e+01   7.6194699e+00  -1.4506814e+01  -7.7338481e+00  -7.6786187e+00   2.6330593e+00  -7.3891167e-01  -1.9723903e+01   5.2650158e+00  -8.0658502e+00  -4.1998067e+00   5.6351755e+00   3.4278075e+00   3.5215646e+00  -3.6038744e+00   2.1633760e+00   6.9313663e-01   5.4246581e+00   2.7848125e+00   0.0000000e+00   0.0000000e+00   5.0000000e+01   0.0000000e+00
  -2.8223808e+01  -2.6424292e+01   8.4803848e+00  -1.4794336e+01  -7.7497746e+00  -7.2620729e+00   3.5772310e+00  -5.0471680e-02  -1.9168037e+01   5.1526609e+00  -7.5028027e+00  -3.6923434e+00   5.7096554e+00   3.4930851e+00   4.1607117e+00  -3.1707868e+00   2.5639900e+00   9.4693558e-01   6.2893780e+00   3.8656486e+00   0.0000000e+00   0.0000000e+00   5.0000000e+01   0.0000000e+00
  -2.8333962e+01  -2.6391481e+01   9.1402687e+00  -1.5111858e+01  -7.8264024e+00  -7.2596246e+00   3.7448577e+00   3.6863405e-01  -1.8563184e+01   4.7345194e+00  -7.3207032e+00  -3.0922309e+00   5.8485342e+00   2.9668049e+00   4.2442828e+00  -2.9965920e+00   2.8271674e+00   1.0018173e+00   6.6483883e+00   4.4100277e+00   0.0000000e+00   0.0000000e+00   5.0000000e+01   0.0000000e+00
  -2.8147083e+01  -2.6465905e+01   9.6805700e+00  -1.5165202e+01  -7.7335178e+00  -7.3225545e+00   3.3511939e+00   6.7373156e-01  -1.7950199e+01   4.3334395e+00  -7.4275212e+00  -2.3631244e+00   6.2694202e+00   2.1581158e+00   3.9575001e+00  -2.9057112e+00   3.0830451e+00   8.4303572e-01   6.5427412e+00   4.6013073e+00   0.0000000e+00   0.0000000e+00   5.0000000e+01   0.0000000e+00
  -2.7329373e+01  -2.6712358e+01   1.0129414e+01  -1.4774308e+01  -7.4277577e+00  -7.2228221e+00   2.8723358e+00   8.6660788e-01  -1.7281215e+01   4.0669953e+00  -7.6011620e+00  -1.3947179e+00   6.8462411e+00   1.4299135e+00   3.6778399e+00  -2.8146022e+00   3.4784168e+00   1.0034093e+00   6.2226274e+00   4.5957787e+00   0.0000000e+00   0.0000000e+00   5.0000000e+01   0.0000000e+00
  -2.6220503e+01  -2.7126246e+01   1.0252785e+01  -1.4202064e+01  -7.2043366e+00  -7.1797013e+00   2.3516859e+00   7.8673511e-01  -1.6860314e+01   3.6155122e+00  -7.7459470e+00  -3.8364692e-01   7.0829684e+00   8.3847347e-01   3.4752590e+00  -2.9045748e+00   3.9260290e+00   1.2227365e+00   5.9294674e+00   4.4389354e+00   0.0000000e+00   0.0000000e+00   5.0000000e+01   0.0000000e+00
  -2.5270574e+01  -2.7500972e+01   9.8179541e+00  -1.3752386e+01  -7.3645087e+00  -7.6086882e+00   1.5428294e+00   3.1557240e-01  -1.6679443e+01   2.9598056e+00  -7.7744471e+00   4.8946473e-01   6.9644752e+00   3.9855448e-01   3.3317841e+00  -3.2135417e+00   4.3365069e+00   7.4556488e-01   5.6513468e+00   4.0913350e+00   0.0000000e+00   0.0000000e+00   5.0000000e+01   0.0000000e+00
  -2.4776229e+01  -2.7752262e+01   8.9266949e+00  -1.3329724e+01  -7.8833244e+00  -8.4503240e+00   5.4896904e-01  -3.5154307e-01  -1.6310176e+01   2.2996633e+00  -7.5924048e+00   1.3094768e+00   6.9590950e+00   2.1841814e-01   3.2788233e+00  -3.5094873e+00   4.6889406e+00  -3.3868787e-01   5.2898048e+00   3.6371095e+00   0.0000000e+00   0.0000000e+00   5.0000000e+01   0.0000000e+00
  -2.4676434e+01  -2.8091061e+01   8.0636424e+00  -1.2658815e+01  -8.5065511e+00  -9.2584765e+00  -3.2673812e-01  -7.9136549e-01  -1.5636626e+01   1.8810067e+00  -7.1428307e+00   2.1580962e+00   7.2402877e+00   2.5943820e-01   3.3492177e+00  -3.4580128e+00   4.9201804e+00  -1.2184072e+00   4.8341535e+00   3.3005979e+00   0.0000000e+00   0.0000000e+00   5.0000000e+01   0.0000000e+00
  -2.4937133e+01  -2.8509306e+01   7.5612144e+00  -1.1862970e+01  -9.3392650e+00  -9.9166683e+00  -1.0405059e+00  -9.2856074e-01  -1.4694137e+01   2.0844957e+00  -6.4734486e+00   3.0235646e+00   7.5736430e+00   2.8670374e-01   3.4856201e+00  -2.9905606e+00   4.9376435e+00  -1.6895670e+00   4.4380581e+00   3.2131645e+00   0.0000000e+00   0.0000000e+00   5.0000000e+01   0.0000000e+00
  -2.5576445e+01  -2.8784343e+01   7.2098762e+00  -1.1148596e+01  -1.0460686e+01  -1.0577756e+01  -1.8088552e+00  -1.2245637e+00  -1.3735585e+01   2.6337934e+00  -5.8791884e+00   3.7815683e+00   7.6611308e+00   1.4108399e-01   3.5017769e+00  -2.5605185e+00   4.7945853e+00  -2.3071451e+00   4.0981724e+00   3.1554409e+00   0.0000000e+00   0.0000000e+00   5.0000000e+01   0.0000000e+00
  -2.6237713e+01  -2.8878005e+01   6.8948520e+00  -1.0402983e+01  -1.1394040e+01  -1.1171556e+01  -2.7013209e+00  -1.9617117e+00  -1.3138004e+01   2.9806980e+00  -5.5720902e+00   4.2767307e+00   7.5809222e+00  -1.2870788e-02   3.3728021e+00  -2.5919973e+00   4.6752439e+00  -3.0895264e+00   3.5552171e+00   2.8242319e+00   0.0000000e+00   0.0000000e+00   5.0000000e+01   0.0000000e+00
  -2.6404519e+01  -2.8695878e+01   6.7546864e+00  -9.2856508e+00  -1.1980110e+01  -1.1664884e+01  -3.5777514e+00  -2.8552409e+00  -1.2684406e+01   3.1507576e+00  -5.5397145e+00   4.5886082e+00   7.6287398e+00   1.3205002e-02   3.1909934e+00  -3.0029186e+00   4.6982105e+00  -3.3506967e+00   2.7053943e+00   2.1334116e+00   0.0000000e+00   0.0000000e+00   5.0000000e+01   0.0000000e+00
  -2.6100461e+01  -2.8418558e+01   6.6280992e+00  -7.8992360e+00  -1.2363448e+01  -1.2214254e+01  -4.5009424e+00  -3.7659707e+00  -1.2109776e+01   3.3087937e+00  -5.8323971e+00   4.8317220e+00   7.7461300e+00   1.6181421e-01   2.8161975e+00  -3.6337199e+00   4.8556113e+00  -3.0689858e+00   1.6271682e+00   1.1665521e+00   0.0000000e+00   0.0000000e+00   5.0000000e+01   0.0000000e+00
  -2.5688811e+01  -2.8183488e+01   6.4180990e+00  -6.5465734e+00  -1.2343635e+01  -1.2674029e+01  -5.3712960e+00  -4.6458279e+00  -1.1477971e+01   3.5349283e+00  -6.3867149e+00   5.1729917e+00   7.9280241e+00   4.0065672e-01   2.1624274e+00  -4.3483638e+00   5.2030833e+00  -2.7865300e+00   5.9525548e-01   2.2087259e-01   0.0000000e+00   0.0000000e+00   5.0000000e+01   0.0000000e+00
  -2.5321433e+01  -2.7792195e+01   6.3669156e+00  -5.1861154e+00  -1.1797677e+01  -1.2762242e+01  -5.8164505e+00  -5.2118577e+00  -1.0694116e+01   3.8514648e+00  -7.0765714e+00   5.8229866e+00   8.3020612e+00   6.8882989e-01   1.4947555e+00  -4.9261753e+00   5.8595787e+00  -2.4695875e+00  -1.2785884e-01  -4.4974878e-01   0.0000000e+00   0.0000000e+00   5.0000000e+01   0.0000000e+00
  -2.4767752e+01  -2.7405235e+01   6.5646652e+00  -3.6989865e+00  -1.1051184e+01  -1.2550306e+01  -5.8705053e+00  -5.4326136e+00  -9.8513497e+00   4.0714252e+00  -7.9874183e+00   6.6342193e+00   8.6602682e+00   7.1040002e-01   9.8845968e-01  -5.3871253e+00   6.6896196e+00  -1.8038185e+00  -6.7606413e-01  -9.5595436e-01   0.0000000e+00   0.0000000e+00   5.0000000e+01   0.0000000e+00
  -2.4144318e+01  -2.7541736e+01   6.6279936e+00  -2.3532724e+00  -1.0650958e+01  -1.2295712e+01  -6.0743730e+00  -5.7394837e+00  -9.4581066e+00   3.8773177e+00  -9.2329476e+00   7.2418758e+00   8.5832329e+00   7.6745068e-02   3.8913183e-01  -6.0072941e+00   7.1809376e+00  -1.1904977e+00  -1.4031333e+00  -1.5533689e+00   0.0000000e+00   0.0000000e+00   5.0000000e+01   0.0000000e+00
  -2.3809668e+01  -2.8137714e+01   6.2715408e+00  -1.6481887e+00  -1.0995958e+01  -1.2418712e+01  -6.7727430e+00  -6.3546788e+00  -9.5942795e+00   3.1730196e+00  -1.0648261e+01   7.6103489e+00   7.9520412e+00  -1.2093066e+00  -6.5195264e-01  -6.9186464e+00   6.7870942e+00  -1.4079026e+00  -2.4846190e+00  -2.3467527e+00   0.0000000e+00   0.0000000e+00   5.0000000e+01   0.0000000e+00
  -2.3547276e+01  -2.8517332e+01   5.8798610e+00  -1.3890995e+00  -1.1885579e+01  -1.2939509e+01  -7.5237489e+00  -6.8442985e+00  -9.8242409e+00   2.3330371e+00  -1.1705661e+01   7.9936959e+00   7.2557520e+00  -2.4465736e+00  -1.9401706e+00  -7.7262938e+00   5.6816624e+00  -2.2430337e+00  -3.5877495e+00  -3.1688634e+00   0.0000000e+00   0.0000000e+00   5.0000000e+01   0.0000000e+00
  -2.3020333e+01  -2.8399509e+01   5.8909018e+00  -9.4651202e-01  -1.2841661e+01  -1.3336753e+01  -7.6584338e+00  -6.7812064e+00  -9.9207356e+00   1.7671788e+00  -1.1977910e+01   8.4597934e+00   7.0555364e+00  -2.8446725e+00  -2.8735757e+00  -7.9007364e+00   4.7465492e+00  -2.6725272e+00  -4.1257484e+00  -3.6277225e+00   0.0000000e+00   0.0000000e+00   5.0000000e+01   0.0000000e+00
  -2.2319206e+01  -2.7850518e+01   5.9944662e+00  -6.5359990e-02  -1.3441739e+01  -1.3348457e+01  -7.2626433e+00  -6.3338497e+00  -9.8292541e+00   1.6392110e+00  -1.1658630e+01   9.1321528e+00   7.5399938e+00  -2.4291721e+00  -3.2582066e+00  -7.5275834e+00   4.6248271e+00  -2.4282990e+00  -3.9578367e+00  -3.6042009e+00   0.0000000e+00   0.0000000e+00   5.0000000e+01   0.0000000e+00
  -2.1606682e+01  -2.7030972e+01   5.8421957e+00   1.0892608e+00  -1.3248609e+01  -1.2900502e+01  -6.7732018e+00  -5.8188788e+00  -9.5287530e+00   2.0173677e+00  -1.1189243e+01   1.0156245e+01   8.5949984e+00  -1.6923616e+00  -3.2475537e+00  -7.0204344e+00   5.2624295e+00  -1.9368181e+00  -3.3044884e+00  -3.3218285e+00   0.0000000e+00   0.0000000e+00   5.0000000e+01   0.0000000e+00
  -2.0715220e+01  -2.6236455e+01   5.6650734e+00   2.2551728e+00  -1.2312962e+01  -1.2055444e+01  -6.2954392e+00  -5.3215658e+00  -9.1092511e+00   2.7203971e+00  -1.0893186e+01   1.1223996e+01   9.7247567e+00  -8.8466775e-01  -3.0456072e+00  -6.6293093e+00   6.1807450e+00  -1.2682609e+00  -2.3984693e+00  -3.0368081e+00   0.0000000e+00   0.0000000e+00   5.0000000e+01   0.0000000e+00
  -1.9714400e+01  -2.5484979e+01   5.6309055e+00   3.1310595e+00  -1.1351367e+01  -1.1090723e+01  -5.7603901e+00  -4.7667779e+00  -8.7132471e+00   3.4266758e+00  -1.0935308e+01   1.1933200e+01   1.0498334e+01  -1.8889253e-02  -2.7671860e+00  -6.3377725e+00   6.9625264e+00  -1.8658080e-01  -1.4229536e+00  -2.8437149e+00   0.0000000e+00   0.0000000e+00   5.0000000e+01   0.0000000e+00
  -1.8903519e+01  -2.4708404e+01   5.5680935e+00   3.6612502e+00  -1.0626963e+01  -1.0163292e+01  -5.2534022e+00  -4.2417400e+00  -8.3978026e+00   4.0941573e+00  -1.1212818e+01   1.2312862e+01   1.1180354e+01   9.4567581e-01  -2.4191666e+00  -6.0893778e+00   7.7138803e+00   1.1122818e+00  -4.7459161e-01  -2.7221709e+00   0.0000000e+00   0.0000000e+00   5.0000000e+01   0.0000000e+00
  -1.8269760e+01  -2.3918460e+01   5.3336798e+00   4.0857807e+00  -9.9778624e+00  -9.2799747e+00  -4.9754921e+00  -3.9404875e+00  -8.1997984e+00   4.8210687e+00  -1.1536355e+01   1.2565768e+01   1.2117064e+01   1.9094248e+00  -2.0875853e+00  -5.9324354e+00   8.6290383e+00   1.8906486e+00   3.8008015e-01  -2.6028802e+00   0.0000000e+00   0.0000000e+00   5.0000000e+01   0.0000000e+00
  -1.7566059e+01  -2.3086377e+01   5.0899731e+00   4.5730693e+00  -9.5440763e+00  -8.4715579e+00  -4.7662995e+00  -3.8174875e+00  -8.1476851e+00   5.6272841e+00  -1.1689403e+01   1.2787329e+01   1.3194382e+01   2.8351595e+00  -1.6728621e+00  -5.7676071e+00   9.5109698e+00   1.9765805e+00   1.0758676e+00  -2.4887026e+00   0.0000000e+00   0.0000000e+00   5.0000000e+01   0.0000000e+00
  -1.6607043e+01  -2.2167663e+01   5.1575836e+00   5.2731301e+00  -9.1550275e+00  -7.5475430e+00  -4.1544136e+00  -3.7456233e+00  -8.1066823e+00   6.5309842e+00  -1.1421112e+01   1.3089125e+01   1.4274540e+01   3.8575637e+00  -9.1141721e-01  -5.4409551e+00   1.0336888e+01   2.0833449e+00   1.6697933e+00  -2.3574005e+00   0.0000000e+00   0.0000000e+00   5.0000000e+01   0.0000000e+00
  -1.5342459e+01  -2.1196656e+01   5.5268518e+00   6.2085729e+00  -8.2593550e+00  -6.0687721e+00  -3.0454937e+00  -3.7048878e+00  -7.8347072e+00   7.4937470e+00  -1.0798504e+01   1.3643501e+01   1.5425727e+01   4.9768988e+00   1.7232577e-01  -5.0100931e+00   1.1382251e+01   2.5194936e+00   2.4400555e+00  -2.1699412e+00   0.0000000e+00   0.0000000e+00   5.0000000e+01   0.0000000e+00
  -1.4093006e+01  -2.0043999e+01   5.8473545e+00   7.0884948e+00  -6.8233706e+00  -4.2514694e+00  -1.8668506e+00  -3.8634879e+00  -7.3635864e+00   8.2668121e+00  -1.0202658e+01   1.4203280e+01   1.6593145e+01   6.0136637e+00   1.3292122e+00  -4.7311308e+00   1.2490368e+01   2.7801038e+00   3.5346766e+00  -2.0335041e+00   0.0000000e+00   0.0000000e+00   5.0000000e+01   0.0000000e+00
  -1.3037492e+01  -1.8493108e+01   6.1111098e+00   7.7906527e+00  -5.0910474e+00  -2.5914961e+00  -6.7662572e-01  -4.1332696e+00  -6.7442447e+00   8.7081153e+00  -9.7497033e+00   1.4472760e+01   1.7783105e+01   7.0794876e+00   2.6000431e+00  -4.6223406e+00   1.3410194e+01   2.9404605e+00   4.8617162e+00  -1.9635683e+00   0.0000000e+00   0.0000000e+00   5.0000000e+01   0.0000000e+00
  -1.1792630e+01  -1.6852637e+01   6.4459061e+00   8.5644901e+00  -3.1383963e+00  -1.0991921e+00   8.1641286e-01  -4.1229041e+00  -5.7536226e+00   9.0689014e+00  -9.3310051e+00   1.4796533e+01   1.9139430e+01   8.5485059e+00   4.2415761e+00  -4.3877440e+00   1.4326569e+01   3.7841193e+00   6.3423649e+00  -1.7366659e+00   0.0000000e+00   0.0000000e+00   5.0000000e+01   0.0000000e+00
