nt = 720
nc = 24
channels = F7 T3 T5 Fp1 F3 C3 P3 O1 F8 T4 T6 Fp2 F4 C4 P4 O2 Fz Cz Pz Oz TR SOn Occ RAp
ne = 20
type = N
fsmp = 120.0000000000
band = 0.1 0.2 44 58 0
orig.file = s4_bl1
orig.nt = 290840
orig.sample_range = 172223 175818
orig.fsmp = 600
orig.subject = 4
orig.run = 30
   2.8335861e+01   2.0940803e+01   7.0323714e+00   6.4473122e+00   1.0415322e+01   7.9988132e+00   1.2623532e+01   1.4320428e+01   8.5824623e+00   9.0842962e+00   1.0433052e+01   1.9173944e+01   1.4580440e+01   1.4933087e+01   1.4076640e+01   8.2461248e+00   2.1106690e+01   9.2499989e+00   1.6158941e+01   7.7643182e+00   0.0000000e+00   0.0000000e+00   0.0000000e+00   0.0000000e+00
   2.8664312e+01   2.0477110e+01   6.9594611e+00   4.2502042e+00   8.5218192e+00   4.8493118e+00   1.1396204e+01   1.3354919e+01   1.1026013e+01   1.1085592e+01   9.6896163e+00   1.7439269e+01   1.0761721e+01   1.2164435e+01   1.1961610e+01   8.5843617e+00   1.8797848e+01   7.2537273e+00   1.4883220e+01   8.2542570e+00   0.0000000e+00   0.0000000e+00   0.0000000e+00   0.0000000e+00
   2.8808101e+01   2.0850021e+01   6.3626115e+00   2.8596894e+00   7.7509471e+00   3.1971506e+00   1.0297419e+01   1.2448019e+01   1.2655719e+01   1.2338982e+01   8.8046746e+00   1.6419364e+01   8.2956015e+00   1.0177838e+01   1.0119809e+01   8.2457497e+00   1.7494834e+01   6.2386222e+00   1.4121310e+01   8.4996698e+00   0.0000000e+00   0.0000000e+00   0.0000000e+00   0.0000000e+00
   2.8837469e+01   2.1945636e+01   5.7802542e+00   2.2762406e+00   8.2083872e+00   3.1876318e+00   1.0036756e+01   1.2040905e+01   1.3670225e+01   1.2884379e+01   7.8853476e+00   1.6037412e+01   7.0937420e+00   9.3940497e+00   9.2186109e+00   7.7499543e+00   1.7297145e+01   6.1795817e+00   1.4538084e+01   8.8775335e+00   0.0000000e+00   0.0000000e+00   0.0000000e+00   0.0000000e+00
   2.9155073e+01   2.3230995e+01   5.6342949e+00   2.3456269e+00   9.4341585e+00   4.3336844e+00   1.0732504e+01   1.2204070e+01   1.4283023e+01   1.2686204e+01   6.8869279e+00   1.6015352e+01   6.7666452e+00   9.6496667e+00   9.4088370e+00   7.5368864e+00   1.7864347e+01   7.0822385e+00   1.6178293e+01   9.5864779e+00   0.0000000e+00   0.0000000e+00   0.0000000e+00   0.0000000e+00
   2.9844492e+01   2.4235998e+01   5.6787165e+00   2.8193756e+00   1.1014990e+01   5.9460319e+00   1.1942031e+01   1.2664774e+01   1.4645549e+01   1.2040975e+01   5.8597645e+00   1.6406168e+01   7.0059856e+00   1.0586939e+01   1.0465707e+01   7.7726403e+00   1.8949173e+01   8.3619415e+00   1.8685837e+01   1.0799509e+01   0.0000000e+00   0.0000000e+00   0.0000000e+00   0.0000000e+00
   3.0743433e+01   2.4673548e+01   5.6895738e+00   3.4182526e+00   1.2736281e+01   7.4761031e+00   1.3312553e+01   1.3205054e+01   1.4640801e+01   1.1186823e+01   4.9096357e+00   1.7013831e+01   7.5452572e+00   1.1781447e+01   1.2084570e+01   8.4245164e+00   2.0277775e+01   9.3197456e+00   2.1388699e+01   1.2505361e+01   0.0000000e+00   0.0000000e+00   0.0000000e+00   0.0000000e+00
   3.1546065e+01   2.4411479e+01   5.7254529e+00   3.6755911e+00   1.4050933e+01   8.4442105e+00   1.4646149e+01   1.3660048e+01   1.4114064e+01   1.0109205e+01   4.0783809e+00   1.7317712e+01   8.0829469e+00   1.2698727e+01   1.3738791e+01   9.2281867e+00   2.1219217e+01   9.8939452e+00   2.3451105e+01   1.4288615e+01   0.0000000e+00   0.0000000e+00   0.0000000e+00   0.0000000e+00
   3.1873950e+01   2.3834313e+01   5.7367363e+00   3.1872457e+00   1.4350819e+01   8.6132864e+00   1.5689872e+01   1.4029262e+01   1.3286998e+01   9.0337361e+00   3.6188017e+00   1.7213597e+01   8.4679640e+00   1.3057294e+01   1.4978420e+01   9.9612422e+00   2.1322972e+01   1.0466438e+01   2.4512333e+01   1.5737854e+01   0.0000000e+00   0.0000000e+00   0.0000000e+00   0.0000000e+00
   3.1318183e+01   2.3238136e+01   5.5687103e+00   1.9381987e+00   1.3362545e+01   7.9784614e+00   1.6108643e+01   1.4266811e+01   1.2418366e+01   8.2380713e+00   3.6037523e+00   1.6770974e+01   8.4931640e+00   1.2979033e+01   1.5488410e+01   1.0399357e+01   2.0671564e+01   1.0904366e+01   2.4731471e+01   1.6563909e+01   0.0000000e+00   0.0000000e+00   0.0000000e+00   0.0000000e+00
   2.9730574e+01   2.2333605e+01   5.2127903e+00   3.7737635e-01   1.1321648e+01   6.6525765e+00   1.5790386e+01   1.4093188e+01   1.1612035e+01   7.6967579e+00   3.6668444e+00   1.6010855e+01   7.8967812e+00   1.2624542e+01   1.5107949e+01   1.0221257e+01   1.9592131e+01   1.0802932e+01   2.4283275e+01   1.6387646e+01   0.0000000e+00   0.0000000e+00   0.0000000e+00   0.0000000e+00
   2.7645251e+01   2.0993907e+01   4.8984372e+00  -7.9973678e-01   9.0104961e+00   4.8774190e+00   1.4952919e+01   1.3462326e+01   1.0896945e+01   7.1940235e+00   3.4704433e+00   1.5108350e+01   6.7561706e+00   1.2029047e+01   1.4004410e+01   9.4272041e+00   1.8395426e+01   1.0402203e+01   2.3180962e+01   1.5135675e+01   0.0000000e+00   0.0000000e+00   0.0000000e+00   0.0000000e+00
   2.5800876e+01   1.9563121e+01   4.6657180e+00  -1.3904521e+00   7.0220950e+00   2.9750902e+00   1.3707484e+01   1.2613009e+01   1.0133519e+01   6.4598797e+00   2.7782886e+00   1.4272612e+01   5.3478772e+00   1.1124450e+01   1.2368513e+01   8.2777218e+00   1.7139483e+01   1.0051237e+01   2.1455022e+01   1.3265884e+01   0.0000000e+00   0.0000000e+00   0.0000000e+00   0.0000000e+00
   2.4520855e+01   1.8645349e+01   4.3072187e+00  -1.8039276e+00   5.4273618e+00   1.1538861e+00   1.2018503e+01   1.1730584e+01   9.2113456e+00   5.3780997e+00   1.4959896e+00   1.3621685e+01   3.7968688e+00   9.8665129e+00   1.0369395e+01   7.0330873e+00   1.5781195e+01   9.4626366e+00   1.9386562e+01   1.1368783e+01   0.0000000e+00   0.0000000e+00   0.0000000e+00   0.0000000e+00
   2.3743320e+01   1.8615728e+01   3.9630185e+00  -2.0511230e+00   4.4881287e+00  -2.6745292e-01   1.0401354e+01   1.1029221e+01   8.3359934e+00   4.2377575e+00   5.9110378e-02   1.3355344e+01   2.5356370e+00   8.7060974e+00   8.5926392e+00   6.1249717e+00   1.4744234e+01   8.5134888e+00   1.7795004e+01   1.0032839e+01   0.0000000e+00   0.0000000e+00   0.0000000e+00   0.0000000e+00
   2.3482463e+01   1.9388069e+01   3.8558340e+00  -1.8189440e+00   4.5221866e+00  -7.6730020e-01   9.6418670e+00   1.0687365e+01   7.8771733e+00   3.3340013e+00  -1.0653781e+00   1.3669316e+01   2.0436913e+00   8.2190437e+00   7.6797487e+00   5.9117734e+00   1.4543014e+01   7.7826896e+00   1.7357091e+01   9.4849434e+00   0.0000000e+00   0.0000000e+00   0.0000000e+00   0.0000000e+00
   2.3855904e+01   2.0345305e+01   4.0306497e+00  -1.0952482e+00   5.5211668e+00  -4.3791397e-02   1.0099232e+01   1.0643640e+01   8.0174873e+00   2.8483374e+00  -1.9362841e+00   1.4651099e+01   2.2967823e+00   8.5863734e+00   7.7536467e+00   6.3128968e+00   1.5384196e+01   7.7109281e+00   1.8115120e+01   9.5873923e+00   0.0000000e+00   0.0000000e+00   0.0000000e+00   0.0000000e+00
   2.4784488e+01   2.0870600e+01   4.3752672e+00   8.3511544e-02   7.0983377e+00   1.5524949e+00   1.1447244e+01   1.0724563e+01   8.7559560e+00   2.9790396e+00  -2.7560758e+00   1.6282510e+01   3.1327935e+00   9.6323067e+00   8.5248350e+00   6.9204917e+00   1.7101348e+01   7.9190711e+00   1.9654792e+01   1.0124422e+01   0.0000000e+00   0.0000000e+00   0.0000000e+00   0.0000000e+00
   2.6076404e+01   2.1168791e+01   4.8174446e+00   1.8188730e+00   8.8810543e+00   3.4237494e+00   1.3216987e+01   1.0925190e+01   9.9954456e+00   3.8692822e+00  -3.5250996e+00   1.8382211e+01   4.3812079e+00   1.0955013e+01   9.6369840e+00   7.4086046e+00   1.9208426e+01   7.9143549e+00   2.1404136e+01   1.0878102e+01   0.0000000e+00   0.0000000e+00   0.0000000e+00   0.0000000e+00
   2.7466346e+01   2.1617029e+01   5.3872456e+00   3.9320594e+00   1.0572552e+01   5.1204204e+00   1.5100373e+01   1.1396661e+01   1.1590764e+01   5.4137004e+00  -4.1063459e+00   2.0554062e+01   5.6894803e+00   1.2138697e+01   1.0814981e+01   7.8471322e+00   2.1177343e+01   7.8695499e+00   2.2901354e+01   1.1684997e+01   0.0000000e+00   0.0000000e+00   0.0000000e+00   0.0000000e+00
   2.8519046e+01   2.1977734e+01   5.9260915e+00   5.5684498e+00   1.1585821e+01   5.9853925e+00   1.6443410e+01   1.1899636e+01   1.3382265e+01   7.0551202e+00  -4.4919762e+00   2.2231911e+01   6.6358260e+00   1.2770238e+01   1.1642561e+01   8.1845987e+00   2.2463216e+01   7.9834960e+00   2.3636602e+01   1.2205164e+01   0.0000000e+00   0.0000000e+00   0.0000000e+00   0.0000000e+00
   2.8915203e+01   2.1810146e+01   5.9315730e+00   6.0119510e+00   1.1376513e+01   5.5359497e+00   1.6521579e+01   1.1937592e+01   1.5077122e+01   8.3580373e+00  -4.8221634e+00   2.3119702e+01   6.9940716e+00   1.2640113e+01   1.1648799e+01   7.9889791e+00   2.2766404e+01   7.7823238e+00   2.3268050e+01   1.2041367e+01   0.0000000e+00   0.0000000e+00   0.0000000e+00   0.0000000e+00
   2.8847756e+01   2.1285602e+01   5.3665350e+00   5.5415678e+00   1.0229790e+01   4.2304625e+00   1.5581472e+01   1.1515644e+01   1.6409607e+01   9.3885449e+00  -5.0124679e+00   2.3329313e+01   6.8647630e+00   1.2009636e+01   1.0980913e+01   7.1986494e+00   2.2354029e+01   6.9470756e+00   2.2128678e+01   1.1322182e+01   0.0000000e+00   0.0000000e+00   0.0000000e+00   0.0000000e+00
   2.8678824e+01   2.0776583e+01   4.6873361e+00   4.8702925e+00   8.7792068e+00   2.6674019e+00   1.4417816e+01   1.0985243e+01   1.7257291e+01   1.0213424e+01  -4.8466074e+00   2.3081436e+01   6.4047816e+00   1.1083502e+01   1.0113045e+01   6.4150202e+00   2.1586255e+01   5.9114566e+00   2.0694418e+01   1.0464022e+01   0.0000000e+00   0.0000000e+00   0.0000000e+00   0.0000000e+00
   2.8165218e+01   1.9789210e+01   3.7185636e+00   4.0924570e+00   6.9877926e+00   8.2002117e-01   1.3157321e+01   1.0326741e+01   1.7446736e+01   1.0641017e+01  -4.3961444e+00   2.2275250e+01   5.5377254e+00   9.6146011e+00   9.0837822e+00   5.9425639e+00   2.0414491e+01   4.8616839e+00   1.9039502e+01   9.6115836e+00   0.0000000e+00   0.0000000e+00   0.0000000e+00   0.0000000e+00
   2.6901884e+01   1.8004858e+01   2.2934085e+00   3.0090238e+00   4.8038268e+00  -1.1211212e+00   1.1745190e+01   9.4616451e+00   1.7224874e+01   1.0752969e+01  -3.8778892e+00   2.1007713e+01   4.4623088e+00   7.5762389e+00   7.9495364e+00   5.6481583e+00   1.8900162e+01   3.4243358e+00   1.7366070e+01   8.7279896e+00   0.0000000e+00   0.0000000e+00   0.0000000e+00   0.0000000e+00
   2.5176258e+01   1.6094917e+01   7.3466352e-01   1.9488501e+00   2.7216254e+00  -2.5818359e+00   1.0511642e+01   8.5405616e+00   1.7122498e+01   1.0813049e+01  -3.3255479e+00   1.9863595e+01   3.6856654e+00   5.6190339e+00   7.1132637e+00   5.4384112e+00   1.7521325e+01   1.4500573e+00   1.6117727e+01   7.7400244e+00   0.0000000e+00   0.0000000e+00   0.0000000e+00   0.0000000e+00
   2.3929642e+01   1.4914297e+01  -4.9767357e-01   1.5647088e+00   1.6094527e+00  -3.0208703e+00   1.0031305e+01   7.7462662e+00   1.7341682e+01   1.0823833e+01  -2.6344155e+00   1.9454465e+01   3.6362819e+00   4.6591088e+00   7.0270772e+00   5.4599230e+00   1.6946507e+01  -3.8054872e-01   1.5644694e+01   6.7468727e+00   0.0000000e+00   0.0000000e+00   0.0000000e+00   0.0000000e+00
   2.4008980e+01   1.5239496e+01  -9.4056325e-01   2.3651157e+00   2.1700094e+00  -2.0389857e+00   1.0747053e+01   7.2115170e+00   1.7909705e+01   1.0869344e+01  -1.8594307e+00   2.0200765e+01   4.6601854e+00   5.0978616e+00   7.8305228e+00   5.9453150e+00   1.7660153e+01  -1.1183263e+00   1.6136104e+01   6.0962696e+00   0.0000000e+00   0.0000000e+00   0.0000000e+00   0.0000000e+00
   2.5582234e+01   1.7050700e+01  -7.3708435e-01   4.4214290e+00   4.3301162e+00   1.6834994e-01   1.2320096e+01   6.6398063e+00   1.8848353e+01   1.1087923e+01  -1.2896694e+00   2.2066873e+01   6.7919823e+00   6.5146550e+00   9.0750734e+00   6.5592345e+00   1.9565178e+01  -8.4008495e-01   1.7270782e+01   5.7850894e+00   0.0000000e+00   0.0000000e+00   0.0000000e+00   0.0000000e+00
   2.8108818e+01   1.9283943e+01  -4.9226819e-01   7.1769802e+00   7.2490664e+00   2.7184273e+00   1.3908227e+01   5.4618625e+00   2.0106823e+01   1.1344680e+01  -1.2034219e+00   2.4510062e+01   9.5884246e+00   8.0854745e+00   1.0065331e+01   6.5729352e+00   2.1975779e+01  -3.8335068e-01   1.8278948e+01   5.2751252e+00   0.0000000e+00   0.0000000e+00   0.0000000e+00   0.0000000e+00
   3.0690211e+01   2.0818974e+01  -2.1233838e-01   9.8017340e+00   9.9430131e+00   4.7480282e+00   1.5085918e+01   4.0670157e+00   2.1245366e+01   1.1248274e+01  -1.6939610e+00   2.6558717e+01   1.2044703e+01   9.2442608e+00   1.0568502e+01   5.9591983e+00   2.3956807e+01  -1.1482462e-02   1.8727484e+01   4.4735029e+00   0.0000000e+00   0.0000000e+00   0.0000000e+00   0.0000000e+00
   3.2409180e+01   2.1314478e+01   6.3144143e-01   1.1516612e+01   1.1801915e+01   5.8465714e+00   1.5961332e+01   3.3706464e+00   2.1504110e+01   1.0474710e+01  -2.6509792e+00   2.7284715e+01   1.3099808e+01   9.6865739e+00   1.0668324e+01   5.3822078e+00   2.4816200e+01   4.1510525e-01   1.8688840e+01   3.9699554e+00   0.0000000e+00   0.0000000e+00   0.0000000e+00   0.0000000e+00
   3.2823296e+01   2.1218288e+01   1.9609244e+00   1.1909319e+01   1.2696181e+01   5.9245856e+00   1.6387617e+01   3.5897463e+00   2.0774418e+01   9.4311416e+00  -3.5465364e+00   2.6686538e+01   1.2827257e+01   9.6372518e+00   1.0549661e+01   5.3375015e+00   2.4612418e+01   6.2779369e-01   1.8451852e+01   4.0890055e+00   0.0000000e+00   0.0000000e+00   0.0000000e+00   0.0000000e+00
   3.1957658e+01   2.0821661e+01   2.9880238e+00   1.0943118e+01   1.2696601e+01   5.2462170e+00   1.6317151e+01   4.0205104e+00   1.9723711e+01   8.7573968e+00  -3.8077641e+00   2.5446020e+01   1.2082090e+01   9.6607268e+00   1.0466209e+01   5.6992699e+00   2.3869141e+01   2.2377488e-01   1.8260635e+01   4.4753621e+00   0.0000000e+00   0.0000000e+00   0.0000000e+00   0.0000000e+00
   3.0282183e+01   2.0378330e+01   3.3088008e+00   8.9394891e+00   1.1900898e+01   4.2470693e+00   1.6027010e+01   4.1643376e+00   1.8785677e+01   8.3849304e+00  -3.4434477e+00   2.4073978e+01   1.1218350e+01   9.7848167e+00   1.0484837e+01   6.0686825e+00   2.2919704e+01  -5.8895897e-01   1.8149263e+01   4.6781412e+00   0.0000000e+00   0.0000000e+00   0.0000000e+00   0.0000000e+00
   2.8407492e+01   2.0188510e+01   3.1508340e+00   6.6677261e+00   1.0731567e+01   3.4391813e+00   1.5778440e+01   4.1925196e+00   1.8059097e+01   8.0946483e+00  -2.8023125e+00   2.2871434e+01   1.0378313e+01   9.8272497e+00   1.0507462e+01   6.2978748e+00   2.2009459e+01  -1.3023881e+00   1.8213034e+01   4.7041735e+00   0.0000000e+00   0.0000000e+00   0.0000000e+00   0.0000000e+00
   2.6771843e+01   2.0061318e+01   2.6972582e+00   4.8360504e+00   9.6090361e+00   3.1286405e+00   1.5558137e+01   4.3084778e+00   1.7481831e+01   7.9322511e+00  -2.3392332e+00   2.1982944e+01   9.8367025e+00   9.8648420e+00   1.0455313e+01   6.3552541e+00   2.1327142e+01  -2.0488746e+00   1.8652524e+01   4.7742303e+00   0.0000000e+00   0.0000000e+00   0.0000000e+00   0.0000000e+00
   2.5762081e+01   1.9878790e+01   2.3018717e+00   3.8074838e+00   8.6537459e+00   3.3001705e+00   1.5432819e+01   4.7882179e+00   1.6985269e+01   7.9311360e+00  -2.2580267e+00   2.1435461e+01   9.6392353e+00   9.9860959e+00   1.0497281e+01   6.3745906e+00   2.0903539e+01  -3.0576520e+00   1.9490364e+01   5.1421237e+00   0.0000000e+00   0.0000000e+00   0.0000000e+00   0.0000000e+00
   2.5374304e+01   1.9597088e+01   2.5843213e+00   3.2069171e+00   7.6400847e+00   3.7813320e+00   1.5766538e+01   5.7453784e+00   1.6274354e+01   7.7098599e+00  -2.4655215e+00   2.0880918e+01   9.4157359e+00   9.9753447e+00   1.0737771e+01   6.6326316e+00   2.0438406e+01  -3.9687144e+00   2.0412518e+01   5.9908782e+00   0.0000000e+00   0.0000000e+00   0.0000000e+00   0.0000000e+00
   2.5169632e+01   1.9223057e+01   3.7021857e+00   2.2744618e+00   6.2732900e+00   4.3109557e+00   1.6579293e+01   7.1391386e+00   1.5021457e+01   6.9737435e+00  -2.8093499e+00   1.9849703e+01   8.8061385e+00   9.5697933e+00   1.1027376e+01   7.1813071e+00   1.9569978e+01  -4.4551507e+00   2.1085243e+01   7.2150085e+00   0.0000000e+00   0.0000000e+00   0.0000000e+00   0.0000000e+00
   2.4876538e+01   1.9030972e+01   5.1964272e+00   1.0347674e+00   4.6016314e+00   4.6112315e+00   1.7473539e+01   8.6418870e+00   1.3523709e+01   5.8981549e+00  -3.1663431e+00   1.8535424e+01   7.8699138e+00   8.7078250e+00   1.1084639e+01   7.8005588e+00   1.8407124e+01  -4.8035694e+00   2.1284300e+01   8.3847172e+00   0.0000000e+00   0.0000000e+00   0.0000000e+00   0.0000000e+00
   2.4735726e+01   1.9037718e+01   6.5999072e+00   1.4727040e-01   2.9308926e+00   4.5334503e+00   1.8102907e+01   9.7652778e+00   1.2248453e+01   4.8531475e+00  -3.3876509e+00   1.7411264e+01   6.8827379e+00   7.5863056e+00   1.0769271e+01   8.3032791e+00   1.7352593e+01  -5.3133532e+00   2.0872800e+01   9.0867461e+00   0.0000000e+00   0.0000000e+00   0.0000000e+00   0.0000000e+00
   2.4806511e+01   1.8768541e+01   7.7486932e+00  -1.6250656e-01   1.4328165e+00   4.0233434e+00   1.8455429e+01   1.0337229e+01   1.1433254e+01   4.2744576e+00  -3.2714809e+00   1.6640525e+01   6.0169957e+00   6.6581676e+00   1.0407631e+01   8.6411958e+00   1.6586296e+01  -5.6159610e+00   1.9982141e+01   9.2108386e+00   0.0000000e+00   0.0000000e+00   0.0000000e+00   0.0000000e+00
   2.4931599e+01   1.7870134e+01   8.5157800e+00  -7.6961807e-02   1.2970834e-01   3.1840792e+00   1.8515532e+01   1.0333149e+01   1.1232989e+01   4.3705278e+00  -2.8692483e+00   1.6488149e+01   5.5039482e+00   6.1360196e+00   1.0323770e+01   8.8087723e+00   1.6128665e+01  -5.2792254e+00   1.8987150e+01   8.9352266e+00   0.0000000e+00   0.0000000e+00   0.0000000e+00   0.0000000e+00
   2.4973634e+01   1.6499560e+01   8.5930764e+00   2.0039767e-01  -1.0499080e+00   2.3412800e+00   1.8096351e+01   9.6609871e+00   1.1491988e+01   4.9896489e+00  -2.3406694e+00   1.7035087e+01   5.6216770e+00   6.0229689e+00   1.0473329e+01   8.8144299e+00   1.5938406e+01  -4.6388030e+00   1.8220250e+01   8.4735206e+00   0.0000000e+00   0.0000000e+00   0.0000000e+00   0.0000000e+00
   2.4969444e+01   1.5160156e+01   7.9359088e+00   6.7291596e-01  -2.1087393e+00   1.8933280e+00   1.7365248e+01   8.5141418e+00   1.1900507e+01   5.8574628e+00  -1.5963480e+00   1.7912914e+01   6.3653853e+00   6.4340984e+00   1.0813875e+01   8.7233787e+00   1.5950536e+01  -4.1335545e+00   1.7810934e+01   8.0274966e+00   0.0000000e+00   0.0000000e+00   0.0000000e+00   0.0000000e+00
   2.5137746e+01   1.4378026e+01   7.1602580e+00   1.5636669e+00  -2.7580023e+00   2.2068338e+00   1.6904693e+01   7.4952561e+00   1.2470800e+01   6.8902864e+00  -4.8879992e-01   1.8848701e+01   7.5840025e+00   7.5296270e+00   1.1525846e+01   8.8186744e+00   1.6341791e+01  -3.3135324e+00   1.7900084e+01   7.9446780e+00   0.0000000e+00   0.0000000e+00   0.0000000e+00   0.0000000e+00
   2.5627713e+01   1.4376733e+01   6.7291504e+00   2.9936424e+00  -2.6683346e+00   3.3675863e+00   1.6867986e+01   6.9615193e+00   1.3165696e+01   7.8337697e+00   7.0789044e-01   1.9760698e+01   9.0599754e+00   9.0691868e+00   1.2525512e+01   9.1884374e+00   1.7271624e+01  -1.6639220e+00   1.8527772e+01   8.2987953e+00   0.0000000e+00   0.0000000e+00   0.0000000e+00   0.0000000e+00
   2.6583302e+01   1.5143745e+01   6.5031488e+00   4.8625278e+00  -1.7993768e+00   5.0309498e+00   1.6899359e+01   6.7792527e+00   1.3754271e+01   8.2587210e+00   1.4906174e+00   2.0606154e+01   1.0480689e+01   1.0473459e+01   1.3353781e+01   9.4806304e+00   1.8579190e+01   3.9992988e-01   1.9351717e+01   8.7656192e+00   0.0000000e+00   0.0000000e+00   0.0000000e+00   0.0000000e+00
   2.7934123e+01   1.6509925e+01   6.4246695e+00   6.9595143e+00  -3.5186051e-01   6.7493370e+00   1.6995555e+01   6.6499545e+00   1.4146704e+01   8.1401860e+00   1.6403336e+00   2.1304774e+01   1.1617559e+01   1.1452056e+01   1.3692895e+01   9.2796756e+00   1.9860750e+01   2.2527933e+00   2.0005981e+01   8.9857140e+00   0.0000000e+00   0.0000000e+00   0.0000000e+00   0.0000000e+00
   2.9373374e+01   1.7919687e+01   6.5550469e+00   8.9702480e+00   1.1613275e+00   8.1180094e+00   1.7281899e+01   6.4424790e+00   1.4286454e+01   7.6613847e+00   1.2501955e+00   2.1724292e+01   1.2412793e+01   1.1906082e+01   1.3545041e+01   8.3980300e+00   2.0562304e+01   3.8539831e+00   2.0216386e+01   8.7069482e+00   0.0000000e+00   0.0000000e+00   0.0000000e+00   0.0000000e+00
   3.0283695e+01   1.8594401e+01   6.5336141e+00   1.0462976e+01   2.0578915e+00   8.8916619e+00   1.7703526e+01   6.0286355e+00   1.4205610e+01   7.2368871e+00   6.6867355e-01   2.1802029e+01   1.2849153e+01   1.1856025e+01   1.3142990e+01   6.9319856e+00   2.0407646e+01   5.4140689e+00   1.9955197e+01   7.9222833e+00   0.0000000e+00   0.0000000e+00   0.0000000e+00   0.0000000e+00
   3.0059298e+01   1.8045648e+01   5.8508997e+00   1.1025871e+01   2.0057732e+00   8.8817104e+00   1.7820091e+01   5.3247038e+00   1.4014979e+01   7.2987138e+00   3.0008434e-01   2.1445891e+01   1.2757699e+01   1.1458076e+01   1.2685834e+01   5.1160799e+00   1.9416995e+01   6.6516945e+00   1.9337907e+01   6.7264128e+00   0.0000000e+00   0.0000000e+00   0.0000000e+00   0.0000000e+00
   2.8598245e+01   1.6298662e+01   4.4997797e+00   1.0653639e+01   1.1033069e+00   7.9081892e+00   1.7162808e+01   4.3218430e+00   1.3654213e+01   7.7116644e+00   2.4142302e-01   2.0547319e+01   1.1978897e+01   1.0671615e+01   1.2092909e+01   3.0606369e+00   1.7585806e+01   7.1320315e+00   1.8281255e+01   5.0688363e+00   0.0000000e+00   0.0000000e+00   0.0000000e+00   0.0000000e+00
   2.6501489e+01   1.4008714e+01   2.7797720e+00   9.7628333e+00  -1.9981136e-01   6.1402816e+00   1.5810289e+01   3.0642476e+00   1.3051016e+01   7.9622944e+00   3.8794498e-01   1.9247692e+01   1.0634360e+01   9.4604059e+00   1.1332360e+01   9.0766865e-01   1.5129301e+01   7.2249629e+00   1.6786598e+01   3.0107033e+00   0.0000000e+00   0.0000000e+00   0.0000000e+00   0.0000000e+00
   2.4610141e+01   1.1968137e+01   1.0842184e+00   8.8417784e+00  -1.2667406e+00   4.2231045e+00   1.4200351e+01   1.6138180e+00   1.2384491e+01   7.8582609e+00   6.7051337e-01   1.7965107e+01   9.1404195e+00   7.9814144e+00   1.0568820e+01  -1.0610864e+00   1.2650078e+01   7.6396798e+00   1.5160681e+01   8.1083220e-01   0.0000000e+00   0.0000000e+00   0.0000000e+00   0.0000000e+00
   2.3421956e+01   1.0524497e+01  -1.8868584e-01   8.3284287e+00  -1.8210089e+00   2.6367907e+00   1.2471571e+01   2.2476252e-01   1.1969154e+01   7.7115627e+00   9.7404274e-01   1.7126027e+01   7.9271635e+00   6.5523400e+00   9.9005036e+00  -2.5513181e+00   1.0731948e+01   8.2458791e+00   1.3810928e+01  -1.0818510e+00   0.0000000e+00   0.0000000e+00   0.0000000e+00   0.0000000e+00
   2.2645542e+01   9.6336759e+00  -9.6529079e-01   8.2264670e+00  -2.0380442e+00   1.4388554e+00   1.0628591e+01  -7.2973892e-01   1.1824168e+01   7.6983161e+00   1.0034915e+00   1.6873549e+01   7.1853372e+00   5.4597760e+00   9.3134995e+00  -3.4224928e+00   9.5468637e+00   8.3880828e+00   1.2916449e+01  -2.2522036e+00   0.0000000e+00   0.0000000e+00   0.0000000e+00   0.0000000e+00
   2.1865560e+01   9.0872547e+00  -1.3275572e+00   8.2629611e+00  -2.1399270e+00   6.7788544e-01   9.2314923e+00  -1.2183163e+00   1.1773676e+01   7.6574052e+00   6.5329414e-01   1.7072401e+01   6.9005724e+00   4.7664499e+00   8.9648609e+00  -3.6906555e+00   8.9803812e+00   8.1035788e+00   1.2479231e+01  -2.6511277e+00   0.0000000e+00   0.0000000e+00   0.0000000e+00   0.0000000e+00
   2.1214841e+01   8.8192035e+00  -1.4229280e+00   8.4270239e+00  -2.2853503e+00   3.6486513e-01   8.6166451e+00  -1.2541195e+00   1.1585432e+01   7.3864470e+00   2.3198611e-01   1.7493057e+01   6.9546048e+00   4.2915165e+00   9.0288524e+00  -3.3421690e+00   8.8532865e+00   7.8560191e+00   1.2581440e+01  -2.3344603e+00   0.0000000e+00   0.0000000e+00   0.0000000e+00   0.0000000e+00
   2.0827380e+01   8.6975344e+00  -1.4596479e+00   8.7483892e+00  -2.3729448e+00   4.9623380e-01   8.5713477e+00  -8.5966889e-01   1.1027396e+01   6.9107479e+00  -4.6488639e-02   1.7859233e+01   6.9956468e+00   3.7295713e+00   9.2547024e+00  -2.5061045e+00   8.9573669e+00   7.5190521e+00   1.3145326e+01  -1.5324680e+00   0.0000000e+00   0.0000000e+00   0.0000000e+00   0.0000000e+00
   2.0782119e+01   8.8191069e+00  -1.3585189e+00   9.1743824e+00  -2.1450116e+00   9.6521538e-01   8.9910390e+00  -2.4481794e-01   1.0151926e+01   6.4254675e+00  -2.5823523e-01   1.7927098e+01   6.7049782e+00   2.9512378e+00   9.2825714e+00  -1.5909342e+00   9.1435223e+00   6.7903159e+00   1.3832222e+01  -6.5013765e-01   0.0000000e+00   0.0000000e+00   0.0000000e+00   0.0000000e+00
   2.1138884e+01   9.4086811e+00  -8.9088926e-01   9.6870708e+00  -1.6111446e+00   1.5521740e+00   9.9115033e+00   2.7311845e-01   9.2201034e+00   6.0339987e+00  -5.7132332e-01   1.7586476e+01   6.0568087e+00   2.0841699e+00   9.0476898e+00  -9.7551926e-01   9.2370579e+00   6.0528815e+00   1.4334890e+01  -1.3071992e-02   0.0000000e+00   0.0000000e+00   0.0000000e+00   0.0000000e+00
   2.1562607e+01   1.0267437e+01  -2.8504536e-01   1.0166152e+01  -1.1785452e+00   1.9689236e+00   1.1052206e+01   4.7992978e-01   8.5353990e+00   5.9270505e+00  -1.1007013e+00   1.6999791e+01   5.3558505e+00   1.3877744e+00   8.7133279e+00  -8.5873070e-01   9.1550400e+00   5.8177093e+00   1.4565134e+01   2.7694870e-01   0.0000000e+00   0.0000000e+00   0.0000000e+00   0.0000000e+00
   2.1487771e+01   1.0823959e+01   2.5736735e-02   1.0131129e+01  -1.2979783e+00   1.8989851e+00   1.1670213e+01   3.2472007e-01   8.1704154e+00   6.1530314e+00  -1.9151843e+00   1.6319832e+01   4.7360891e+00   9.6517525e-01   8.2988111e+00  -1.3397240e+00   8.9189554e+00   5.7514608e+00   1.4514659e+01   2.3899005e-01   0.0000000e+00   0.0000000e+00   0.0000000e+00   0.0000000e+00
   2.0586687e+01   1.0805606e+01   3.4703085e-03   9.1960402e+00  -2.0441759e+00   1.2355890e+00   1.1458020e+01  -2.7368194e-01   7.7572635e+00   6.4864582e+00  -2.9956631e+00   1.5451700e+01   3.8998082e+00   6.5399647e-01   7.7145875e+00  -2.3464582e+00   8.4358959e+00   5.2458527e+00   1.4120307e+01  -1.3248094e-01   0.0000000e+00   0.0000000e+00   0.0000000e+00   0.0000000e+00
   1.9162097e+01   1.0506053e+01  -8.4396247e-02   7.6944211e+00  -2.9414300e+00   3.9318123e-01   1.0938724e+01  -9.9095229e-01   7.0433625e+00   6.7777130e+00  -4.0056602e+00   1.4371821e+01   2.9425710e+00   4.1876464e-01   7.1867347e+00  -3.3668282e+00   7.8198664e+00   4.6136104e+00   1.3530137e+01  -5.3408261e-01   0.0000000e+00   0.0000000e+00   0.0000000e+00   0.0000000e+00
   1.7817734e+01   1.0261912e+01  -1.7233249e-01   6.0770032e+00  -3.4163038e+00  -1.1131266e-01   1.0552791e+01  -1.5552770e+00   6.0875324e+00   6.9005547e+00  -4.6867582e+00   1.3288904e+01   2.0958335e+00   2.0348011e-01   6.8999417e+00  -4.0171680e+00   7.3593769e+00   4.3984414e+00   1.2977837e+01  -6.1285240e-01   0.0000000e+00   0.0000000e+00   0.0000000e+00   0.0000000e+00
   1.7005106e+01   1.0464578e+01  -2.4448890e-01   4.6756850e+00  -3.1420946e+00  -5.9241890e-03   1.0270333e+01  -1.9384778e+00   5.2262279e+00   6.7764739e+00  -4.9444281e+00   1.2566105e+01   1.4885412e+00   1.6644589e-02   6.8220486e+00  -4.1607423e+00   7.3324453e+00   4.4081707e+00   1.2676109e+01  -2.5877012e-01   0.0000000e+00   0.0000000e+00   0.0000000e+00   0.0000000e+00
   1.6889673e+01   1.1421868e+01   1.0288652e-02   4.0583801e+00  -2.1453123e+00   9.2034349e-01   1.0265942e+01  -1.9645159e+00   4.7943068e+00   6.4479305e+00  -4.5845934e+00   1.2315631e+01   1.3611951e+00   1.4196563e-01   7.0705182e+00  -3.5775800e+00   7.9265416e+00   4.3210992e+00   1.2814627e+01   4.9280126e-01   0.0000000e+00   0.0000000e+00   0.0000000e+00   0.0000000e+00
   1.7342559e+01   1.2809510e+01   6.5808629e-01   4.1967458e+00  -9.2511490e-01   2.4542501e+00   1.0709003e+01  -1.6306882e+00   4.4734294e+00   5.8816020e+00  -3.7508590e+00   1.2060867e+01   1.5544327e+00   6.2253903e-01   7.6563582e+00  -2.3789737e+00   8.8009249e+00   4.2573820e+00   1.3236752e+01   1.2847998e+00   0.0000000e+00   0.0000000e+00   0.0000000e+00   0.0000000e+00
   1.8001106e+01   1.3875840e+01   1.2987721e+00   4.3874272e+00   1.0225007e-01   4.1585968e+00   1.1400492e+01  -1.1936238e+00   3.7202908e+00   5.0989339e+00  -2.7273393e+00   1.1397378e+01   1.6815743e+00   1.3013476e+00   8.4337866e+00  -1.0302565e+00   9.3946518e+00   4.4394877e+00   1.3761792e+01   1.7512012e+00   0.0000000e+00   0.0000000e+00   0.0000000e+00   0.0000000e+00
   1.8599567e+01   1.4298564e+01   1.6205364e+00   4.3409564e+00   8.2846120e-01   5.6665015e+00   1.1937141e+01  -1.0341421e+00   2.5142031e+00   4.4189139e+00  -1.7964618e+00   1.0416554e+01   1.5469000e+00   2.0077162e+00   9.1131728e+00  -1.1733968e-01   9.5448594e+00   4.5789003e+00   1.4372272e+01   1.6880899e+00   0.0000000e+00   0.0000000e+00   0.0000000e+00   0.0000000e+00
   1.9122652e+01   1.4556392e+01   1.7346928e+00   4.1111759e+00   1.2229687e+00   6.6641410e+00   1.2185214e+01  -1.2851899e+00   1.2777416e+00   4.0730257e+00  -1.2959398e+00   9.4300474e+00   1.1590125e+00   2.6049914e+00   9.5262077e+00  -1.4987628e-02   9.3932981e+00   4.3985451e+00   1.4999055e+01   1.1082152e+00   0.0000000e+00   0.0000000e+00   0.0000000e+00   0.0000000e+00
   1.9536190e+01   1.4961711e+01   1.8862486e+00   3.5103107e+00   1.1891976e+00   7.0840893e+00   1.2445567e+01  -1.5568705e+00   4.0538565e-01   4.0422637e+00  -1.2054243e+00   8.5727336e+00   6.8337742e-01   3.1930719e+00   9.8736848e+00  -3.9765832e-01   9.0613745e+00   4.4256029e+00   1.5664061e+01   3.2042882e-01   0.0000000e+00   0.0000000e+00   0.0000000e+00   0.0000000e+00
   1.9522541e+01   1.4978182e+01   1.8962772e+00   2.3111761e+00   5.2254900e-01   6.9595473e+00   1.2691337e+01  -1.6370831e+00  -3.5626482e-02   4.3485402e+00  -1.3084618e+00   7.6942189e+00  -2.7765826e-02   3.7534277e+00   1.0191357e+01  -8.5980035e-01   8.5154210e+00   5.0777409e+00   1.6217395e+01  -4.9399478e-01   0.0000000e+00   0.0000000e+00   0.0000000e+00   0.0000000e+00
   1.8732213e+01   1.4048579e+01   1.2859773e+00   6.9617775e-01  -9.0500198e-01   6.2997769e+00   1.2479644e+01  -1.8518034e+00  -2.7135366e-01   4.8505594e+00  -1.5552320e+00   6.5105209e+00  -1.2643257e+00   3.8752974e+00   1.0149594e+01  -1.5002854e+00   7.5250564e+00   5.7219273e+00   1.6291061e+01  -1.3548379e+00   0.0000000e+00   0.0000000e+00   0.0000000e+00   0.0000000e+00
   1.7193130e+01   1.2281442e+01   5.4255759e-02  -8.5513680e-01  -2.8831056e+00   5.2026428e+00   1.1776141e+01  -2.2450824e+00  -4.5997911e-01   5.3773698e+00  -1.7146361e+00   5.0012041e+00  -2.8386951e+00   3.5338865e+00   9.7347625e+00  -2.2918994e+00   5.9907275e+00   5.6872855e+00   1.5846585e+01  -2.1493868e+00   0.0000000e+00   0.0000000e+00   0.0000000e+00   0.0000000e+00
   1.5485300e+01   1.0447358e+01  -1.2486132e+00  -1.8183506e+00  -4.9006389e+00   3.9145042e+00   1.0954216e+01  -2.4972026e+00  -6.3624436e-01   5.8742741e+00  -1.5099208e+00   3.7225960e+00  -4.1674827e+00   3.1550176e+00   9.3233848e+00  -2.9860026e+00   4.3566908e+00   5.3159782e+00   1.5112647e+01  -2.7564115e+00   0.0000000e+00   0.0000000e+00   0.0000000e+00   0.0000000e+00
   1.4383344e+01   9.1870963e+00  -2.2166796e+00  -1.8181031e+00  -6.3796344e+00   2.8887850e+00   1.0238092e+01  -2.5903971e+00  -6.5236935e-01   6.0620497e+00  -1.1746750e+00   3.3857303e+00  -4.7460924e+00   2.8548943e+00   9.1255950e+00  -3.4936595e+00   3.4019932e+00   5.1393426e+00   1.4425355e+01  -3.1915929e+00   0.0000000e+00   0.0000000e+00   0.0000000e+00   0.0000000e+00
   1.4209515e+01   8.6749272e+00  -2.7117302e+00  -9.2524561e-01  -6.9013488e+00   2.5086663e+00   9.6792228e+00  -2.7905240e+00  -3.4066403e-01   5.7076637e+00  -1.0626734e+00   4.1353944e+00  -4.5773892e+00   2.6444128e+00   9.1610600e+00  -3.9283744e+00   3.6075203e+00   4.9433295e+00   1.4180623e+01  -3.4268612e+00   0.0000000e+00   0.0000000e+00   0.0000000e+00   0.0000000e+00
   1.4810931e+01   9.0809321e+00  -2.7929857e+00   4.6035181e-01  -6.3907950e+00   2.8287182e+00   9.4164454e+00  -3.2510749e+00  -1.6423845e-01   4.7010518e+00  -1.2786218e+00   5.2842276e+00  -4.2594772e+00   2.4621773e+00   9.3286874e+00  -4.4591462e+00   4.6908938e+00   4.3480774e+00   1.4424385e+01  -3.4952437e+00   0.0000000e+00   0.0000000e+00   0.0000000e+00   0.0000000e+00
   1.5817399e+01   1.0378447e+01  -2.5520135e+00   1.7561943e+00  -5.2468002e+00   3.5373659e+00   9.5321807e+00  -3.8878779e+00  -6.3123681e-01   3.0898729e+00  -1.7864078e+00   6.0069688e+00  -4.3735328e+00   2.0088023e+00   9.3726992e+00  -5.1462921e+00   5.8858778e+00   3.5372767e+00   1.4717689e+01  -3.6259014e+00   0.0000000e+00   0.0000000e+00   0.0000000e+00   0.0000000e+00
   1.6619424e+01   1.1946375e+01  -2.0110187e+00   2.4317124e+00  -4.3059168e+00   4.0754917e+00   9.7780325e+00  -4.6072951e+00  -1.6651787e+00   1.2554047e+00  -2.5722162e+00   5.9126767e+00  -5.0430041e+00   9.9704184e-01   9.0215057e+00  -6.1126265e+00   6.5438604e+00   2.7865234e+00   1.4610507e+01  -4.0768287e+00   0.0000000e+00   0.0000000e+00   0.0000000e+00   0.0000000e+00
   1.6768786e+01   1.3011271e+01  -1.4199316e+00   2.3977737e+00  -4.0216719e+00   4.0411446e+00   9.8295339e+00  -5.4471468e+00  -3.0225078e+00  -3.7157882e-01  -3.6717726e+00   4.9776119e+00  -6.0747332e+00  -5.6499411e-01   8.1286647e+00  -7.4760059e+00   6.4456740e+00   1.8175290e+00   1.4066432e+01  -4.9239424e+00   0.0000000e+00   0.0000000e+00   0.0000000e+00   0.0000000e+00
   1.6427326e+01   1.3196578e+01  -9.7222530e-01   2.0041221e+00  -4.0192848e+00   3.5205809e+00   9.8930484e+00  -6.2056212e+00  -4.0858443e+00  -1.3520092e+00  -4.6832617e+00   3.6405428e+00  -6.9516254e+00  -2.2287039e+00   6.9836056e+00  -8.7729535e+00   5.8588952e+00   5.5539092e-01   1.3359573e+01  -5.8092144e+00   0.0000000e+00   0.0000000e+00   0.0000000e+00   0.0000000e+00
   1.5930219e+01   1.2512653e+01  -7.2602515e-01   1.6156010e+00  -3.9415077e+00   2.7897855e+00   1.0224512e+01  -6.5579595e+00  -4.2464071e+00  -1.4326987e+00  -5.0830189e+00   2.5812429e+00  -7.2400877e+00  -3.4938940e+00   6.0661050e+00  -9.3438749e+00   5.1938012e+00  -3.5263121e-01   1.2576511e+01  -6.3830200e+00   0.0000000e+00   0.0000000e+00   0.0000000e+00   0.0000000e+00
   1.5367961e+01   1.1145490e+01  -1.0158971e+00   1.4590257e+00  -3.9083508e+00   1.7905213e+00   1.0299732e+01  -6.6934843e+00  -3.5387984e+00  -6.1594479e-01  -5.1124283e+00   2.1474519e+00  -7.1020188e+00  -4.2463041e+00   5.4325331e+00  -9.3624274e+00   4.6145420e+00  -5.6853067e-01   1.1455141e+01  -6.8318772e+00   0.0000000e+00   0.0000000e+00   0.0000000e+00   0.0000000e+00
   1.4435281e+01   9.1316746e+00  -2.1301141e+00   1.5207789e+00  -4.3615204e+00   2.8375142e-01   9.3607655e+00  -6.9926074e+00  -2.3005198e+00   7.9222689e-01  -5.4113702e+00   2.2055528e+00  -6.9643064e+00  -4.7184144e+00   4.6737623e+00  -9.4484102e+00   3.8630318e+00  -8.1170156e-01   9.8161597e+00  -7.4331993e+00   0.0000000e+00   0.0000000e+00   0.0000000e+00   0.0000000e+00
   1.3174431e+01   6.8673644e+00  -3.8474343e+00   1.7327480e+00  -5.4241146e+00  -1.4846801e+00   7.4754278e+00  -7.4852507e+00  -8.1095902e-01   2.3838609e+00  -6.0835498e+00   2.6410235e+00  -6.8709451e+00  -5.2259619e+00   3.6125102e+00  -9.7589287e+00   2.8319740e+00  -1.7828628e+00   7.8664527e+00  -8.1994328e+00   0.0000000e+00   0.0000000e+00   0.0000000e+00   0.0000000e+00
   1.2043169e+01   5.1439811e+00  -5.6720336e+00   1.9925079e+00  -6.6399624e+00  -3.0846063e+00   5.4310818e+00  -8.0796792e+00   6.7114194e-01   3.9744606e+00  -6.7042480e+00   3.2562214e+00  -6.8720948e+00  -5.7946640e+00   2.5793253e+00  -1.0056144e+01   1.7155473e+00  -3.1623188e+00   5.9734308e+00  -9.0159205e+00   0.0000000e+00   0.0000000e+00   0.0000000e+00   0.0000000e+00
   1.1035981e+01   3.9614785e+00  -7.4326129e+00   1.8979123e+00  -7.5543855e+00  -4.3038943e+00   3.7446986e+00  -8.8995109e+00   1.8211008e+00   5.3863532e+00  -6.9352529e+00   3.6641154e+00  -7.3704470e+00  -6.4973452e+00   1.7935695e+00  -1.0243246e+01   6.2657604e-01  -4.4040465e+00   4.4053867e+00  -9.7681412e+00   0.0000000e+00   0.0000000e+00   0.0000000e+00   0.0000000e+00
   9.7322151e+00   2.7685032e+00  -9.1084062e+00   1.0553426e+00  -8.3611338e+00  -5.1667339e+00   2.4004411e+00  -9.9913087e+00   2.4023048e+00   6.1181294e+00  -6.8425231e+00   3.7494654e+00  -8.7817066e+00  -7.5005979e+00   1.1613908e+00  -1.0420846e+01  -6.1499234e-01  -5.6563933e+00   3.2546743e+00  -1.0320011e+01   0.0000000e+00   0.0000000e+00   0.0000000e+00   0.0000000e+00
   7.9785192e+00   1.5799233e+00  -1.0085371e+01  -5.5532611e-01  -9.5978618e+00  -5.8734427e+00   1.5164105e+00  -1.0796800e+01   1.9850114e+00   5.4329943e+00  -6.6766285e+00   3.3705015e+00  -1.1164830e+01  -8.9398729e+00   5.5266202e-01  -1.0586656e+01  -2.3325664e+00  -7.2611716e+00   2.5625546e+00  -1.0524015e+01   0.0000000e+00   0.0000000e+00   0.0000000e+00   0.0000000e+00
   6.2730992e+00   8.4468528e-01  -9.7168249e+00  -2.5020762e+00  -1.1310578e+01  -6.4682532e+00   1.5091912e+00  -1.0532733e+01   1.8791126e-01   3.0189471e+00  -6.4579060e+00   2.1960085e+00  -1.4280892e+01  -1.0809834e+01  -2.0174265e-02  -1.0556644e+01  -4.5189153e+00  -8.7904705e+00   2.3210361e+00  -1.0330996e+01   0.0000000e+00   0.0000000e+00   0.0000000e+00   0.0000000e+00
   5.1166114e+00   7.1198082e-01  -8.0456235e+00  -4.4561806e+00  -1.3162337e+01  -6.8648683e+00   2.3287839e+00  -9.1962720e+00  -2.7502152e+00  -4.6891969e-01  -6.1773732e+00   1.2839495e-01  -1.7861964e+01  -1.2862956e+01  -5.3162049e-01  -1.0280510e+01  -6.8349630e+00  -9.6465999e+00   2.3408743e+00  -9.7703459e+00   0.0000000e+00   0.0000000e+00   0.0000000e+00   0.0000000e+00
   4.5591371e+00   1.2131566e+00  -5.7140352e+00  -6.2844144e+00  -1.4799407e+01  -7.0377674e+00   3.3083899e+00  -7.5562173e+00  -5.8247171e+00  -3.6575046e+00  -5.9706513e+00  -2.2236164e+00  -2.1226937e+01  -1.4663194e+01  -1.0626647e+00  -9.9927161e+00  -8.8376902e+00  -1.0002213e+01   2.3940193e+00  -8.9847861e+00   0.0000000e+00   0.0000000e+00   0.0000000e+00   0.0000000e+00
   4.4997481e+00   2.1904971e+00  -3.5962437e+00  -7.7297507e+00  -1.5909261e+01  -7.0998223e+00   3.9073366e+00  -6.2829212e+00  -7.9962689e+00  -5.3815552e+00  -5.8512190e+00  -3.9683200e+00  -2.3518138e+01  -1.5626796e+01  -1.5378040e+00  -9.9449977e+00  -1.0139263e+01  -1.0294030e+01   2.3448549e+00  -8.2222265e+00   0.0000000e+00   0.0000000e+00   0.0000000e+00   0.0000000e+00
   4.8522863e+00   3.0774699e+00  -2.3261742e+00  -8.6714183e+00  -1.6421012e+01  -7.1422416e+00   4.0731227e+00  -5.6806782e+00  -8.9894360e+00  -5.4864600e+00  -5.7578892e+00  -4.7950885e+00  -2.4498080e+01  -1.5496155e+01  -1.7708167e+00  -1.0134241e+01  -1.0666533e+01  -1.0394532e+01   2.0718634e+00  -7.7989703e+00   0.0000000e+00   0.0000000e+00   0.0000000e+00   0.0000000e+00
   5.6452275e+00   3.7681133e+00  -1.9837327e+00  -8.9558049e+00  -1.6482290e+01  -6.9728204e+00   3.8943226e+00  -5.7236711e+00  -8.9057410e+00  -4.4112951e+00  -5.7342639e+00  -4.8225887e+00  -2.4480218e+01  -1.4468948e+01  -1.6019432e+00  -1.0430186e+01  -1.0474618e+01  -9.9455892e+00   1.7210972e+00  -7.8801167e+00   0.0000000e+00   0.0000000e+00   0.0000000e+00   0.0000000e+00
   6.7541077e+00   4.3974714e+00  -2.3818331e+00  -8.5150330e+00  -1.6157640e+01  -6.4039854e+00   3.3049591e+00  -6.2246355e+00  -8.0466865e+00  -2.7306578e+00  -6.2295460e+00  -4.2903808e+00  -2.3851906e+01  -1.3145472e+01  -1.1743282e+00  -1.0957245e+01  -9.7283099e+00  -9.3465528e+00   1.5215501e+00  -8.4208646e+00   0.0000000e+00   0.0000000e+00   0.0000000e+00   0.0000000e+00
   8.0256963e+00   5.2099014e+00  -3.0382390e+00  -7.5154157e+00  -1.5447499e+01  -5.4131589e+00   2.6173115e+00  -6.8624303e+00  -6.8066709e+00  -1.0117748e+00  -7.4444339e+00  -3.4458140e+00  -2.2815065e+01  -1.2088419e+01  -7.4648648e-01  -1.1655769e+01  -8.6763924e+00  -9.1265248e+00   1.5802481e+00  -9.0474925e+00   0.0000000e+00   0.0000000e+00   0.0000000e+00   0.0000000e+00
   9.2780368e+00   6.5879721e+00  -3.4094344e+00  -6.4332426e+00  -1.4665963e+01  -4.2516749e+00   2.3198309e+00  -7.2772832e+00  -5.6117609e+00   3.5441100e-01  -8.8050891e+00  -2.6519466e+00  -2.1775183e+01  -1.1521377e+01  -3.5596710e-01  -1.2094971e+01  -7.7095104e+00  -9.1050886e+00   1.7513580e+00  -9.3106465e+00   0.0000000e+00   0.0000000e+00   0.0000000e+00   0.0000000e+00
   1.0099264e+01   8.3608612e+00  -3.5258424e+00  -5.8847699e+00  -1.4244037e+01  -3.4623156e+00   2.3210593e+00  -7.5847371e+00  -4.9338158e+00   1.0167059e+00  -9.7468344e+00  -2.3320884e+00  -2.1337877e+01  -1.1700931e+01  -1.7156146e-01  -1.2084194e+01  -7.3499288e+00  -9.1025156e+00   1.6806038e+00  -9.2041371e+00   0.0000000e+00   0.0000000e+00   0.0000000e+00   0.0000000e+00
   1.0235355e+01   9.8871511e+00  -3.6542445e+00  -6.1070266e+00  -1.4499310e+01  -3.4442605e+00   2.1278263e+00  -8.1986130e+00  -5.0894801e+00   7.0369606e-01  -1.0210137e+01  -2.6611259e+00  -2.1891971e+01  -1.2959384e+01  -5.4048376e-01  -1.1820921e+01  -7.9602586e+00  -9.5800749e+00   1.1979241e+00  -9.0066848e+00   0.0000000e+00   0.0000000e+00   0.0000000e+00   0.0000000e+00
   9.9496004e+00   1.0530830e+01  -3.7255411e+00  -6.7860630e+00  -1.5472884e+01  -4.2029114e+00   1.5016014e+00  -9.2375075e+00  -6.0928503e+00  -5.9378760e-01  -1.0332265e+01  -3.5095887e+00  -2.3383256e+01  -1.5147041e+01  -1.5743218e+00  -1.1488190e+01  -9.4599989e+00  -1.0924686e+01   2.6724773e-01  -9.0310155e+00   0.0000000e+00   0.0000000e+00   0.0000000e+00   0.0000000e+00
   9.4031863e+00   1.0116225e+01  -3.6668158e+00  -7.5761614e+00  -1.6979726e+01  -5.6641183e+00   5.4196585e-01  -1.0501288e+01  -7.6924701e+00  -2.7090527e+00  -1.0219860e+01  -4.8040428e+00  -2.5446265e+01  -1.7736228e+01  -3.0130856e+00  -1.1177212e+01  -1.1385271e+01  -1.2694386e+01  -1.3242982e+00  -9.6215064e+00   0.0000000e+00   0.0000000e+00   0.0000000e+00   0.0000000e+00
   8.5300428e+00   8.9147345e+00  -3.8140325e+00  -8.3184820e+00  -1.8506283e+01  -7.6686302e+00  -7.7040863e-01  -1.1819954e+01  -9.4775321e+00  -5.2520833e+00  -1.0042410e+01  -6.3114352e+00  -2.7571448e+01  -2.0243738e+01  -4.6247925e+00  -1.0982772e+01  -1.3020047e+01  -1.4169696e+01  -3.6544456e+00  -1.0965760e+01   0.0000000e+00   0.0000000e+00   0.0000000e+00   0.0000000e+00
   7.7144711e+00   7.4978069e+00  -4.4585055e+00  -8.6439189e+00  -1.9168023e+01  -9.6098385e+00  -2.4968860e+00  -1.3170106e+01  -1.0772428e+01  -7.5392823e+00  -1.0050572e+01  -7.2868764e+00  -2.8973622e+01  -2.2161914e+01  -6.3245344e+00  -1.0978547e+01  -1.3562710e+01  -1.5191652e+01  -6.2036426e+00  -1.2864788e+01   0.0000000e+00   0.0000000e+00   0.0000000e+00   0.0000000e+00
   7.4230548e+00   6.5306917e+00  -5.5853965e+00  -8.3908382e+00  -1.8769337e+01  -1.0957880e+01  -4.3443250e+00  -1.4497859e+01  -1.1126506e+01  -9.0231012e+00  -1.0399162e+01  -7.3098369e+00  -2.9273610e+01  -2.3250724e+01  -8.0653877e+00  -1.1289911e+01  -1.3015681e+01  -1.5933912e+01  -8.4965858e+00  -1.4963460e+01   0.0000000e+00   0.0000000e+00   0.0000000e+00   0.0000000e+00
   7.5378266e+00   6.2111441e+00  -6.9309684e+00  -8.0532232e+00  -1.8215132e+01  -1.2105190e+01  -6.0498803e+00  -1.5645552e+01  -1.0775902e+01  -9.6580972e+00  -1.1113848e+01  -6.6451887e+00  -2.9051828e+01  -2.3801909e+01  -9.8157401e+00  -1.1920177e+01  -1.2327620e+01  -1.6348841e+01  -1.0585834e+01  -1.6821022e+01   0.0000000e+00   0.0000000e+00   0.0000000e+00   0.0000000e+00
   7.6184824e+00   6.3777696e+00  -8.2857763e+00  -8.1869560e+00  -1.8200308e+01  -1.3657097e+01  -7.6874090e+00  -1.6569939e+01  -1.0116499e+01  -9.6113418e+00  -1.2118687e+01  -5.5271211e+00  -2.8811767e+01  -2.4198518e+01  -1.1468881e+01  -1.2657705e+01  -1.2105282e+01  -1.6405935e+01  -1.2581211e+01  -1.8102794e+01   0.0000000e+00   0.0000000e+00   0.0000000e+00   0.0000000e+00
   7.3598442e+00   6.9263879e+00  -9.7329886e+00  -8.8766121e+00  -1.8568908e+01  -1.5469093e+01  -9.4621512e+00  -1.7566282e+01  -9.1852103e+00  -9.0212852e+00  -1.3410774e+01  -4.2150841e+00  -2.8732080e+01  -2.4676873e+01  -1.3036635e+01  -1.3458978e+01  -1.2284945e+01  -1.6637825e+01  -1.4443644e+01  -1.9004699e+01   0.0000000e+00   0.0000000e+00   0.0000000e+00   0.0000000e+00
   7.0739180e+00   7.8624906e+00  -1.1124474e+01  -9.6270838e+00  -1.8694185e+01  -1.6831469e+01  -1.1046883e+01  -1.8640899e+01  -7.9664390e+00  -8.2044464e+00  -1.4843776e+01  -3.0574950e+00  -2.8901054e+01  -2.5183371e+01  -1.4435989e+01  -1.4210417e+01  -1.2608411e+01  -1.7395950e+01  -1.5838614e+01  -1.9649291e+01   1.0000000e+03   0.0000000e+00   0.0000000e+00   0.0000000e+00
   7.4978177e+00   8.9992926e+00  -1.1877384e+01  -9.7561656e+00  -1.8165789e+01  -1.7105630e+01  -1.1648689e+01  -1.9212279e+01  -6.6183210e+00  -7.3820532e+00  -1.5837602e+01  -2.0634489e+00  -2.9046068e+01  -2.5285990e+01  -1.5210046e+01  -1.4348210e+01  -1.2730403e+01  -1.8010753e+01  -1.6294108e+01  -1.9723734e+01   1.0000000e+03   0.0000000e+00   0.0000000e+00   0.0000000e+00
   8.4848702e+00   1.0208467e+01  -1.1564621e+01  -9.3884684e+00  -1.7377130e+01  -1.6472946e+01  -1.1086841e+01  -1.8913340e+01  -5.2152506e+00  -6.4469546e+00  -1.5933027e+01  -1.1691873e+00  -2.8898225e+01  -2.4766898e+01  -1.5066873e+01  -1.3586777e+01  -1.2680523e+01  -1.7811401e+01  -1.5855478e+01  -1.9107086e+01   1.0000000e+03   3.0000000e+01   0.0000000e+00   0.0000000e+00
   9.1258890e+00   1.1338256e+01  -1.0426125e+01  -9.3019061e+00  -1.6750519e+01  -1.5474680e+01  -9.9710074e+00  -1.8071165e+01  -4.1642738e+00  -5.4680398e+00  -1.5376319e+01  -5.1731760e-01  -2.8432600e+01  -2.3960116e+01  -1.4384635e+01  -1.2348993e+01  -1.2716834e+01  -1.7195605e+01  -1.5007828e+01  -1.8116273e+01   1.0000000e+03   3.0000000e+01   0.0000000e+00   0.0000000e+00
   9.1919029e+00   1.2158469e+01  -8.8891271e+00  -9.8712383e+00  -1.6284025e+01  -1.4196213e+01  -8.7063573e+00  -1.7014716e+01  -3.8126420e+00  -4.8025503e+00  -1.4652429e+01  -3.5204644e-01  -2.7863319e+01  -2.3272173e+01  -1.3599399e+01  -1.0985872e+01  -1.2836685e+01  -1.6765966e+01  -1.4092000e+01  -1.7001101e+01   1.0000000e+03   3.0000000e+01   0.0000000e+00   0.0000000e+00
   9.0615570e+00   1.2648734e+01  -7.2765085e+00  -1.0883285e+01  -1.6101083e+01  -1.2924756e+01  -7.4697842e+00  -1.5741107e+01  -3.9866035e+00  -4.9357985e+00  -1.4010794e+01  -7.7931697e-01  -2.7762708e+01  -2.3110788e+01  -1.2844731e+01  -9.6933974e+00  -1.3139181e+01  -1.6353400e+01  -1.3447737e+01  -1.5937053e+01   0.0000000e+00   3.0000000e+01   0.0000000e+00   0.0000000e+00
   8.9763860e+00   1.2676576e+01  -6.1008665e+00  -1.2028285e+01  -1.6211667e+01  -1.2147727e+01  -6.6315453e+00  -1.4608784e+01  -4.5123690e+00  -5.9305535e+00  -1.3624849e+01  -1.4903976e+00  -2.8349656e+01  -2.3699253e+01  -1.2284023e+01  -8.8002930e+00  -1.3667367e+01  -1.5641245e+01  -1.3345997e+01  -1.5294004e+01   0.0000000e+00   3.0000000e+01   0.0000000e+00   0.0000000e+00
   9.2252684e+00   1.1958467e+01  -5.8085572e+00  -1.2900020e+01  -1.6152153e+01  -1.1733126e+01  -6.4103864e+00  -1.4098290e+01  -5.1520487e+00  -7.1908060e+00  -1.3628230e+01  -1.8428219e+00  -2.8950261e+01  -2.4617181e+01  -1.2075452e+01  -8.5089333e+00  -1.3897803e+01  -1.4854777e+01  -1.3565440e+01  -1.5387955e+01   0.0000000e+00   3.0000000e+01   0.0000000e+00   0.0000000e+00
   9.9799363e+00   1.0567134e+01  -6.3261184e+00  -1.3109267e+01  -1.5678115e+01  -1.1426884e+01  -6.6828715e+00  -1.4224088e+01  -5.5704776e+00  -8.1261436e+00  -1.3867029e+01  -1.4031629e+00  -2.8950334e+01  -2.5276042e+01  -1.2136537e+01  -8.6658468e+00  -1.3451697e+01  -1.4301231e+01  -1.3857876e+01  -1.6246946e+01   0.0000000e+00   3.0000000e+01   0.0000000e+00   0.0000000e+00
   1.1222196e+01   9.4918158e+00  -7.2786513e+00  -1.2401768e+01  -1.4695468e+01  -1.1008152e+01  -7.0551249e+00  -1.4640772e+01  -5.3655801e+00  -8.3491138e+00  -1.3760017e+01  -9.0567536e-02  -2.8195080e+01  -2.5323795e+01  -1.1950156e+01  -8.9700735e+00  -1.2244027e+01  -1.3527649e+01  -1.3969135e+01  -1.7481359e+01   0.0000000e+00   3.0000000e+01   0.0000000e+00   0.0000000e+00
   1.2987938e+01   9.3270496e+00  -8.4487008e+00  -1.0530920e+01  -1.2762454e+01  -1.0023782e+01  -7.0680885e+00  -1.5212086e+01  -4.1920985e+00  -7.5154556e+00  -1.2816558e+01   2.2019022e+00  -2.6512464e+01  -2.4465968e+01  -1.0867613e+01  -9.2801614e+00  -9.9184975e+00  -1.1781198e+01  -1.3395975e+01  -1.8592071e+01   0.0000000e+00   3.0000000e+01   0.0000000e+00   0.0000000e+00
   1.5360182e+01   1.0045838e+01  -9.9401570e+00  -7.2848516e+00  -9.5877215e+00  -8.1545756e+00  -6.6042796e+00  -1.6102300e+01  -1.9063427e+00  -5.3478532e+00  -1.1285460e+01   5.5818684e+00  -2.3562199e+01  -2.2646590e+01  -8.7880651e+00  -9.6584423e+00  -6.2295987e+00  -9.1068409e+00  -1.1882503e+01  -1.9375252e+01   0.0000000e+00   3.0000000e+01   0.0000000e+00   0.0000000e+00
   1.8292501e+01   1.1533685e+01  -1.1658463e+01  -3.1112666e+00  -5.7332610e+00  -5.6307204e+00  -5.8847843e+00  -1.7263226e+01   1.0936173e+00  -2.3622398e+00  -9.8634679e+00   9.4684908e+00  -1.9454344e+01  -2.0360333e+01  -6.2082485e+00  -1.0167763e+01  -1.8146767e+00  -6.1962875e+00  -9.7884662e+00  -1.9749009e+01   0.0000000e+00   3.0000000e+01   0.0000000e+00   0.0000000e+00
   2.1085002e+01   1.3050402e+01  -1.2903714e+01   6.3425051e-01  -2.5690329e+00  -3.3241965e+00  -5.1758642e+00  -1.8058580e+01   3.5993889e+00   1.1843290e-01  -9.2304774e+00   1.2434389e+01  -1.5230978e+01  -1.8414115e+01  -4.0402823e+00  -1.0667961e+01   1.8826051e+00  -3.5670743e+00  -8.0194997e+00  -1.9555374e+01   0.0000000e+00   3.0000000e+01   0.0000000e+00   0.0000000e+00
   2.2599994e+01   1.3973478e+01  -1.3136365e+01   2.7401371e+00  -1.2434718e+00  -1.9174093e+00  -4.5901262e+00  -1.7843666e+01   4.7530725e+00   1.4854325e+00  -9.4184892e+00   1.3560435e+01  -1.1969986e+01  -1.7183557e+01  -2.8271840e+00  -1.0731354e+01   3.8985725e+00  -1.3690957e+00  -7.1855216e+00  -1.8753437e+01   0.0000000e+00   3.0000000e+01   0.0000000e+00   0.0000000e+00
   2.2486364e+01   1.4254847e+01  -1.2759485e+01   3.2860012e+00  -1.6786263e+00  -1.2563043e+00  -4.2098905e+00  -1.6863613e+01   4.8941289e+00   2.0778398e+00  -9.8290891e+00   1.3449347e+01  -9.7684803e+00  -1.6251345e+01  -2.3034932e+00  -1.0173395e+01   4.6842886e+00   2.3919224e-01  -7.0395703e+00  -1.7657392e+01   0.0000000e+00   3.0000000e+01   0.0000000e+00   0.0000000e+00
   2.1689867e+01   1.4348387e+01  -1.2309998e+01   3.3944978e+00  -2.6942669e+00  -6.9045563e-01  -3.9506503e+00  -1.5759803e+01   4.8435955e+00   2.4271636e+00  -1.0040276e+01   1.3357021e+01  -8.0470472e+00  -1.5092927e+01  -1.8817502e+00  -9.1878149e+00   5.2813340e+00   1.3153063e+00  -7.1333968e+00  -1.6648744e+01   0.0000000e+00   3.0000000e+01   0.0000000e+00   0.0000000e+00
   2.1212701e+01   1.4791591e+01  -1.1942112e+01   3.9574426e+00  -3.2796450e+00   1.5434484e-01  -3.6732518e+00  -1.4765882e+01   5.0269629e+00   2.7603413e+00  -1.0000143e+01   1.3872685e+01  -6.5379994e+00  -1.3744735e+01  -1.2213501e+00  -7.9940964e+00   6.1003399e+00   2.3813809e+00  -7.3682177e+00  -1.5931625e+01   0.0000000e+00   3.0000000e+01   0.0000000e+00   0.0000000e+00
   2.1179803e+01   1.5670215e+01  -1.1818448e+01   5.0870237e+00  -3.3303185e+00   1.1399350e+00  -3.5014807e+00  -1.3929927e+01   5.3476981e+00   2.9477130e+00  -9.9399871e+00   1.4752888e+01  -5.4931173e+00  -1.2665900e+01  -5.6455182e-01  -6.9388053e+00   6.9702415e+00   3.6614126e+00  -7.7673741e+00  -1.5551736e+01   0.0000000e+00   3.0000000e+01   0.0000000e+00   0.0000000e+00
   2.1488176e+01   1.6887152e+01  -1.1918096e+01   6.5900431e+00  -2.7627799e+00   2.3292942e+00  -3.3996744e+00  -1.3194797e+01   5.6918904e+00   3.0370163e+00  -1.0021040e+01   1.5642179e+01  -4.8504928e+00  -1.2023652e+01  -2.2590766e-01  -6.2437547e+00   7.8481955e+00   4.7437507e+00  -8.0670520e+00  -1.5211912e+01   0.0000000e+00   3.0000000e+01   0.0000000e+00   0.0000000e+00
   2.2140143e+01   1.7932697e+01  -1.2169180e+01   8.1897331e+00  -1.7387279e+00   3.7595224e+00  -3.1447706e+00  -1.2369561e+01   6.0328509e+00   3.2547684e+00  -1.0058366e+01   1.6281155e+01  -4.4430021e+00  -1.1752847e+01  -1.2453544e-01  -5.7565150e+00   8.6234324e+00   5.1299870e+00  -7.8873784e+00  -1.4494973e+01   0.0000000e+00   3.0000000e+01   0.0000000e+00   0.0000000e+00
   2.2661463e+01   1.8356657e+01  -1.2564391e+01   9.3575022e+00  -1.0492453e+00   4.9785275e+00  -2.6602359e+00  -1.1303791e+01   6.1251500e+00   3.5788329e+00  -9.7408448e+00   1.6437200e+01  -4.4668725e+00  -1.1778739e+01   2.3583630e-02  -5.1896915e+00   8.8454074e+00   4.8672678e+00  -7.1872060e+00  -1.3297569e+01   0.0000000e+00   3.0000000e+01   0.0000000e+00   0.0000000e+00
   2.2268080e+01   1.8465597e+01  -1.2816539e+01   9.7034662e+00  -1.0355763e+00   5.5862902e+00  -1.9861475e+00  -1.0126775e+01   5.8070308e+00   3.8844685e+00  -8.9547598e+00   1.5897182e+01  -5.0078178e+00  -1.1973669e+01   4.4052641e-01  -4.4768735e+00   8.2493308e+00   4.3291592e+00  -6.2692013e+00  -1.1928775e+01   0.0000000e+00   3.0000000e+01   0.0000000e+00   0.0000000e+00
   2.0827118e+01   1.8368122e+01  -1.2596915e+01   9.2641828e+00  -1.5475394e+00   5.5867922e+00  -1.3748512e+00  -9.1807896e+00   5.2226498e+00   4.1830711e+00  -7.8699317e+00   1.4642211e+01  -5.9421106e+00  -1.2249154e+01   1.0363041e+00  -3.8429103e+00   7.0728096e+00   3.4477378e+00  -5.4845566e+00  -1.0732323e+01   0.0000000e+00   3.0000000e+01   0.0000000e+00   0.0000000e+00
   1.9084713e+01   1.7796042e+01  -1.1900013e+01   8.5271123e+00  -2.5471447e+00   5.0898008e+00  -1.1022483e+00  -8.5366474e+00   4.5904092e+00   4.7523712e+00  -6.5809258e+00   1.3065759e+01  -7.0155567e+00  -1.2592679e+01   1.5861147e+00  -3.3597956e+00   5.6079542e+00   2.1057242e+00  -5.1000845e+00  -9.7338132e+00   0.0000000e+00   3.0000000e+01   0.0000000e+00   0.0000000e+00
   1.7426545e+01   1.6852751e+01  -1.1062115e+01   7.7126932e+00  -4.0378118e+00   3.9119944e+00  -1.2642946e+00  -8.0595528e+00   4.0805487e+00   5.6355344e+00  -5.2580728e+00   1.1298089e+01  -8.1517881e+00  -1.3209085e+01   1.7947381e+00  -2.9788401e+00   3.8068828e+00   6.5509251e-01  -5.3361038e+00  -8.9985716e+00   0.0000000e+00   3.0000000e+01   0.0000000e+00   0.0000000e+00
   1.5557221e+01   1.5676392e+01  -1.0572782e+01   6.5157614e+00  -5.9491476e+00   1.9663055e+00  -1.8666092e+00  -7.8202341e+00   3.5459785e+00   6.3551789e+00  -4.2456021e+00   9.1044791e+00  -9.5793005e+00  -1.4521230e+01   1.3613511e+00  -2.8186934e+00   1.5426614e+00  -6.1125219e-01  -6.4648706e+00  -8.8013919e+00   0.0000000e+00   3.0000000e+01   0.0000000e+00   0.0000000e+00
   1.3418482e+01   1.4330849e+01  -1.0700794e+01   4.8661480e+00  -8.2662877e+00  -4.1174348e-01  -3.0556531e+00  -8.1365292e+00   2.8734654e+00   6.6230831e+00  -3.9031797e+00   6.7110359e+00  -1.1343698e+01  -1.6694441e+01   1.0870650e-01  -3.1191685e+00  -1.0656508e+00  -1.9496318e+00  -8.5337461e+00  -9.3723600e+00   0.0000000e+00   3.0000000e+01   0.0000000e+00   0.0000000e+00
   1.1437331e+01   1.3352501e+01  -1.1093997e+01   3.2538655e+00  -1.0551356e+01  -2.6501631e+00  -4.6301299e+00  -9.0072855e+00   2.4179265e+00   6.4941547e+00  -4.0923972e+00   4.7697453e+00  -1.2973063e+01  -1.9093032e+01  -1.5957982e+00  -3.7580749e+00  -3.4550657e+00  -3.4734046e+00  -1.0973768e+01  -1.0510594e+01   0.0000000e+00   3.0000000e+01   0.0000000e+00   0.0000000e+00
   1.0119955e+01   1.3145176e+01  -1.1189245e+01   2.4419374e+00  -1.2038077e+01  -4.3603544e+00  -6.0543184e+00  -1.0136527e+01   2.2929885e+00   5.9786077e+00  -4.3771723e+00   3.5358245e+00  -1.4215454e+01  -2.1054382e+01  -3.3283306e+00  -4.4312386e+00  -5.0654848e+00  -4.6856153e+00  -1.3296819e+01  -1.1806279e+01   0.0000000e+00   3.0000000e+01   0.0000000e+00   0.0000000e+00
   9.6010257e+00   1.3273413e+01  -1.0857404e+01   2.7031890e+00  -1.2470146e+01  -5.5543058e+00  -7.0951915e+00  -1.1395450e+01   2.1318964e+00   4.9589187e+00  -4.8234724e+00   2.7180172e+00  -1.5267233e+01  -2.2560529e+01  -5.1329640e+00  -5.1866294e+00  -5.8296179e+00  -5.3031405e+00  -1.5393944e+01  -1.3101303e+01   0.0000000e+00   3.0000000e+01   0.0000000e+00   0.0000000e+00
   9.6503355e+00   1.3347208e+01  -1.0263700e+01   3.6829689e+00  -1.2132662e+01  -6.4055228e+00  -7.7873039e+00  -1.2516789e+01   1.5615229e+00   3.3939752e+00  -5.6433645e+00   2.1327532e+00  -1.6193187e+01  -2.3707340e+01  -7.0534227e+00  -6.1452129e+00  -5.9403780e+00  -5.8398413e+00  -1.6991198e+01  -1.4249937e+01   0.0000000e+00   3.0000000e+01   0.0000000e+00   0.0000000e+00
   1.0026941e+01   1.3515574e+01  -9.5399023e+00   4.8679725e+00  -1.1410766e+01  -7.1103431e+00  -8.1134291e+00  -1.3199329e+01   6.3870530e-01   1.5355515e+00  -6.6383320e+00   1.9088369e+00  -1.7010184e+01  -2.4419228e+01  -8.7884698e+00  -7.1279286e+00  -5.6065273e+00  -6.7885947e+00  -1.7887228e+01  -1.5112498e+01   0.0000000e+00   3.0000000e+01   0.0000000e+00   0.0000000e+00
   1.0592612e+01   1.3863439e+01  -8.8797702e+00   5.9641517e+00  -1.0461236e+01  -7.7475194e+00  -8.1169220e+00  -1.3501318e+01  -2.9371033e-01  -3.3857100e-01  -7.5608102e+00   2.1449420e+00  -1.7872023e+01  -2.4783219e+01  -1.0090383e+01  -7.9611543e+00  -5.0958890e+00  -7.7978917e+00  -1.8308900e+01  -1.5746439e+01   0.0000000e+00   3.0000000e+01   0.0000000e+00   0.0000000e+00
   1.1261712e+01   1.4407514e+01  -8.4663497e+00   7.1469095e+00  -9.3507908e+00  -8.2007432e+00  -8.1061604e+00  -1.3697885e+01  -1.0496674e+00  -1.9380251e+00  -8.2350590e+00   2.6310736e+00  -1.8732417e+01  -2.4989346e+01  -1.0928340e+01  -8.5986203e+00  -4.6051896e+00  -8.3136569e+00  -1.8597893e+01  -1.6374692e+01   0.0000000e+00   3.0000000e+01   0.0000000e+00   0.0000000e+00
   1.2210424e+01   1.5170672e+01  -8.4143040e+00   8.7996092e+00  -8.0047602e+00  -8.2765312e+00  -8.3672011e+00  -1.4013454e+01  -1.4736812e+00  -2.7301000e+00  -8.4635886e+00   3.2986948e+00  -1.9065627e+01  -2.4804640e+01  -1.1222778e+01  -9.0069489e+00  -3.9395451e+00  -8.3951604e+00  -1.8751573e+01  -1.7129370e+01   0.0000000e+00   3.0000000e+01   0.0000000e+00   0.0000000e+00
   1.3485883e+01   1.5860819e+01  -8.8034979e+00   1.0989863e+01  -6.2514788e+00  -7.9016093e+00  -8.6523201e+00  -1.4463678e+01  -1.0538678e+00  -2.3595201e+00  -8.1954314e+00   4.5245884e+00  -1.8268691e+01  -2.3727239e+01  -1.0757723e+01  -9.1174852e+00  -2.7714163e+00  -8.2566114e+00  -1.8565753e+01  -1.7910773e+01   0.0000000e+00   3.0000000e+01   0.0000000e+00   0.0000000e+00
   1.4627403e+01   1.5936439e+01  -9.5284767e+00   1.3336361e+01  -4.2527149e+00  -7.2222343e+00  -8.7157404e+00  -1.5063000e+01   4.9572388e-01  -8.9522801e-01  -7.6425342e+00   6.3950387e+00  -1.6358851e+01  -2.1707988e+01  -9.5130224e+00  -8.9825974e+00  -1.2203762e+00  -7.7131903e+00  -1.8119166e+01  -1.8652923e+01   0.0000000e+00   3.0000000e+01   0.0000000e+00   0.0000000e+00
   1.5387899e+01   1.5611595e+01  -1.0399425e+01   1.5459609e+01  -2.3189252e+00  -6.4763629e+00  -8.7070727e+00  -1.5826403e+01   2.7043937e+00   1.1932793e+00  -7.1760822e+00   8.4352893e+00  -1.4115033e+01  -1.9311089e+01  -7.9308189e+00  -8.8727977e+00   3.0877851e-01  -6.6911510e+00  -1.7672046e+01  -1.9375674e+01   0.0000000e+00   3.0000000e+01   0.0000000e+00   0.0000000e+00
   1.5971590e+01   1.5469672e+01  -1.1273827e+01   1.7123421e+01  -5.2854045e-01  -5.7776431e+00  -8.9109755e+00  -1.6599330e+01   5.0971168e+00   3.2319328e+00  -7.1359112e+00   1.0165258e+01  -1.2183798e+01  -1.7285011e+01  -6.6429260e+00  -9.0560818e+00   1.5549010e+00  -5.7914350e+00  -1.7330744e+01  -1.9965724e+01   0.0000000e+00   3.0000000e+01   0.0000000e+00   0.0000000e+00
   1.6369049e+01   1.5618346e+01  -1.1953185e+01   1.8100450e+01   9.2643499e-01  -5.3543243e+00  -9.3286193e+00  -1.7207889e+01   7.4356748e+00   4.7134188e+00  -7.5032209e+00   1.1425243e+01  -1.0760375e+01  -1.6018276e+01  -5.9896531e+00  -9.4908349e+00   2.2679418e+00  -5.6415813e+00  -1.7138558e+01  -2.0289015e+01   0.0000000e+00   3.0000000e+01   0.0000000e+00   0.0000000e+00
   1.6526486e+01   1.5942889e+01  -1.2036471e+01   1.8549835e+01   1.8428006e+00  -5.3452544e+00  -9.5646816e+00  -1.7427707e+01   9.2351816e+00   5.3346115e+00  -8.0753802e+00   1.2188954e+01  -9.9392672e+00  -1.5567448e+01  -5.9445141e+00  -9.8975234e+00   2.2792330e+00  -6.0238988e+00  -1.7116311e+01  -2.0374668e+01   0.0000000e+00   3.0000000e+01   0.0000000e+00   0.0000000e+00
   1.6548503e+01   1.6472797e+01  -1.1337852e+01   1.8894278e+01   2.4477614e+00  -5.4524188e+00  -9.2197532e+00  -1.7118454e+01   9.9087657e+00   4.8549423e+00  -8.7937163e+00   1.2337734e+01  -9.6694075e+00  -1.5700678e+01  -6.2054551e+00  -1.0091361e+01   1.8120371e+00  -6.3559730e+00  -1.7041989e+01  -2.0142831e+01   0.0000000e+00   3.0000000e+01   0.0000000e+00   0.0000000e+00
   1.6431043e+01   1.7063871e+01  -1.0275569e+01   1.9283962e+01   2.9963316e+00  -5.3177101e+00  -8.3705448e+00  -1.6385008e+01   9.2196631e+00   3.4008945e+00  -9.6513135e+00   1.1900445e+01  -9.8057312e+00  -1.6076872e+01  -6.3825165e+00  -9.9016536e+00   1.1589003e+00  -6.6736394e+00  -1.6517843e+01  -1.9318534e+01   0.0000000e+00   3.0000000e+01   0.0000000e+00   0.0000000e+00
   1.6155460e+01   1.7143356e+01  -9.2062644e+00   1.9460750e+01   3.4442811e+00  -4.8266289e+00  -7.2386701e+00  -1.5281962e+01   7.6643302e+00   1.6842408e+00  -1.0361672e+01   1.1289930e+01  -1.0166218e+01  -1.6368634e+01  -6.0564461e+00  -9.1041910e+00   4.1304951e-01  -7.2605010e+00  -1.5324920e+01  -1.7774004e+01   0.0000000e+00   3.0000000e+01   0.0000000e+00   0.0000000e+00
   1.5770471e+01   1.6453566e+01  -8.1569775e+00   1.9099558e+01   3.5275729e+00  -4.1972494e+00  -5.8849004e+00  -1.3815585e+01   6.0856172e+00   4.3861295e-01  -1.0537302e+01   1.0767961e+01  -1.0628070e+01  -1.6316128e+01  -5.0618349e+00  -7.7509813e+00  -4.5035671e-01  -7.7717167e+00  -1.3638898e+01  -1.5815784e+01   0.0000000e+00   3.0000000e+01   0.0000000e+00   0.0000000e+00
   1.4985020e+01   1.5250009e+01  -7.2777435e+00   1.8021224e+01   2.8920131e+00  -3.9365886e+00  -4.6972633e+00  -1.2268359e+01   4.6734930e+00  -2.3485877e-01  -1.0248438e+01   1.0018566e+01  -1.1386858e+01  -1.6109936e+01  -3.8803317e+00  -6.2795082e+00  -1.6934847e+00  -7.9067980e+00  -1.2083647e+01  -1.3914733e+01   0.0000000e+00   3.0000000e+01   0.0000000e+00   0.0000000e+00
   1.3478026e+01   1.3811658e+01  -6.7704193e+00   1.6365242e+01   1.4618246e+00  -4.2988389e+00  -4.2901889e+00  -1.1028778e+01   3.1609381e+00  -7.0043730e-01  -9.7049350e+00   8.7661149e+00  -1.2694568e+01  -1.6118047e+01  -3.2186426e+00  -5.1140966e+00  -3.4274637e+00  -8.0898706e+00  -1.1241305e+01  -1.2316105e+01   0.0000000e+00   3.0000000e+01   0.0000000e+00   0.0000000e+00
   1.1567571e+01   1.2363855e+01  -6.6919950e+00   1.4552482e+01  -3.1423323e-01  -5.0192174e+00  -4.6302111e+00  -1.0179534e+01   1.6583482e+00  -1.0286647e+00  -8.8208775e+00   7.2986769e+00  -1.4376214e+01  -1.6322690e+01  -3.1519213e+00  -4.2304681e+00  -5.2972178e+00  -8.6058801e+00  -1.1025820e+01  -1.1011228e+01   0.0000000e+00   3.0000000e+01   0.0000000e+00   0.0000000e+00
   9.6073734e+00   1.1167679e+01  -6.8983504e+00   1.2753618e+01  -2.0518490e+00  -5.8508234e+00  -5.1637323e+00  -9.6413288e+00   4.2318592e-01  -1.0866494e+00  -7.6621732e+00   5.9382868e+00  -1.5976099e+01  -1.6584928e+01  -3.2915743e+00  -3.5241980e+00  -7.0195832e+00  -9.0593730e+00  -1.1085838e+01  -1.0068002e+01   0.0000000e+00   3.0000000e+01   0.0000000e+00   0.0000000e+00
   7.7809780e+00   1.0382794e+01  -7.1779136e+00   1.1197548e+01  -3.5051847e+00  -6.7172206e+00  -5.5671451e+00  -9.3991797e+00  -5.4925533e-01  -1.0020774e+00  -6.6348701e+00   4.8537580e+00  -1.7139085e+01  -1.6855939e+01  -3.3206940e+00  -2.9735557e+00  -8.3895204e+00  -9.0375986e+00  -1.1171087e+01  -9.5754595e+00   0.0000000e+00   3.0000000e+01   0.0000000e+00   0.0000000e+00
   6.2588980e+00   9.8471793e+00  -7.6033318e+00   1.0126959e+01  -4.4593959e+00  -7.4562044e+00  -5.9718093e+00  -9.5859785e+00  -1.3064730e+00  -9.2411434e-01  -6.1382710e+00   4.1767784e+00  -1.7805132e+01  -1.7172412e+01  -3.2501552e+00  -2.5437322e+00  -9.2161879e+00  -8.8845442e+00  -1.1055870e+01  -9.3413105e+00   0.0000000e+00   3.0000000e+01   0.0000000e+00   0.0000000e+00
   5.0377112e+00   9.5833619e+00  -8.2845428e+00   9.2874766e+00  -5.0456747e+00  -7.8865237e+00  -6.4570483e+00  -1.0132404e+01  -1.7931847e+00  -9.4627691e-01  -6.2493223e+00   3.8690870e+00  -1.8186878e+01  -1.7619424e+01  -3.2419271e+00  -2.1523647e+00  -9.6449431e+00  -9.1446207e+00  -1.0714247e+01  -9.0854361e+00   0.0000000e+00   3.0000000e+01   0.0000000e+00   0.0000000e+00
   4.1889276e+00   9.5805281e+00  -8.8954609e+00   8.4560221e+00  -5.4668761e+00  -8.0439266e+00  -6.7786650e+00  -1.0680922e+01  -1.9941793e+00  -1.1959242e+00  -6.6728703e+00   3.7233945e+00  -1.8423110e+01  -1.8144980e+01  -3.2618016e+00  -1.6866001e+00  -9.8725301e+00  -9.6194185e+00  -1.0279145e+01  -8.6809965e+00   0.0000000e+00   3.0000000e+01   0.0000000e+00   0.0000000e+00
   4.0338878e+00   9.8053438e+00  -9.1345297e+00   7.9992999e+00  -5.5973514e+00  -8.0642260e+00  -6.8014106e+00  -1.1027960e+01  -1.9673578e+00  -1.7368816e+00  -7.1757831e+00   3.6874182e+00  -1.8405831e+01  -1.8452209e+01  -3.1762615e+00  -1.1952015e+00  -9.7432797e+00  -9.7617540e+00  -9.8861762e+00  -8.2624198e+00   0.0000000e+00   3.0000000e+01   0.0000000e+00   0.0000000e+00
   4.5977129e+00   1.0173997e+01  -9.1302302e+00   8.2251820e+00  -5.2372762e+00  -7.9810509e+00  -6.7842301e+00  -1.1238372e+01  -1.8384957e+00  -2.5690149e+00  -7.8968630e+00   3.8398739e+00  -1.8116526e+01  -1.8548646e+01  -3.2358065e+00  -1.0275705e+00  -9.1560253e+00  -9.7831075e+00  -9.7430946e+00  -8.0318737e+00   0.0000000e+00   3.0000000e+01   0.0000000e+00   0.0000000e+00
   5.6602196e+00   1.0436260e+01  -9.0307115e+00   8.9077892e+00  -4.3906130e+00  -7.7755137e+00  -6.8290589e+00  -1.1311781e+01  -1.7593532e+00  -3.6419624e+00  -8.9447035e+00   4.1564910e+00  -1.7715661e+01  -1.8866113e+01  -3.6670245e+00  -1.3843587e+00  -8.3064683e+00  -1.0241775e+01  -9.9327438e+00  -8.0541435e+00   0.0000000e+00   3.0000000e+01   0.0000000e+00   0.0000000e+00
   6.9798547e+00   1.0682175e+01  -8.8998072e+00   9.6263258e+00  -3.2534580e+00  -7.4342526e+00  -6.5439557e+00  -1.1126836e+01  -1.7668421e+00  -4.6746058e+00  -1.0004835e+01   4.4467440e+00  -1.7341698e+01  -1.9415460e+01  -4.1862222e+00  -1.9389288e+00  -7.4347188e+00  -1.0788439e+01  -1.0203563e+01  -8.2554521e+00   0.0000000e+00   3.0000000e+01   0.0000000e+00   0.0000000e+00
   8.1040931e+00   1.1011853e+01  -8.6940406e+00   1.0113353e+01  -2.2518431e+00  -7.1275130e+00  -5.7815793e+00  -1.0784931e+01  -1.7219127e+00  -5.1631998e+00  -1.0661552e+01   4.5172943e+00  -1.7115079e+01  -1.9878767e+01  -4.4648611e+00  -2.2287571e+00  -6.7688978e+00  -1.0667295e+01  -1.0355364e+01  -8.5303580e+00   0.0000000e+00   3.0000000e+01   0.0000000e+00   0.0000000e+00
   8.3168870e+00   1.1233889e+01  -8.4999821e+00   1.0200848e+01  -1.8813344e+00  -7.2587278e+00  -5.2508263e+00  -1.0653611e+01  -1.5502044e+00  -4.8610821e+00  -1.0860543e+01   4.3318048e+00  -1.7201227e+01  -2.0316762e+01  -4.6228561e+00  -2.1632920e+00  -6.5837382e+00  -1.0067426e+01  -1.0553589e+01  -8.8458547e+00   0.0000000e+00   3.0000000e+01   0.0000000e+00   0.0000000e+00
   7.1622824e+00   1.0825567e+01  -8.5419608e+00   9.6003252e+00  -2.4830105e+00  -8.1212771e+00  -5.6231751e+00  -1.0859780e+01  -1.3760376e+00  -3.9322696e+00  -1.0671231e+01   3.6921096e+00  -1.7769085e+01  -2.1131884e+01  -4.9193619e+00  -1.9284310e+00  -7.1682725e+00  -9.8045287e+00  -1.1000548e+01  -9.1611570e+00   0.0000000e+00   3.0000000e+01   0.0000000e+00   0.0000000e+00
   5.0745140e+00   9.6387198e+00  -8.7454284e+00   8.2869113e+00  -3.8118086e+00  -9.4205100e+00  -6.7585245e+00  -1.1187151e+01  -1.1001242e+00  -2.6206319e+00  -1.0064491e+01   2.5768524e+00  -1.8624566e+01  -2.2269263e+01  -5.2858594e+00  -1.7039726e+00  -8.3713689e+00  -9.9273831e+00  -1.1617634e+01  -9.4235799e+00   0.0000000e+00   3.0000000e+01   0.0000000e+00   0.0000000e+00
   3.0358622e+00   8.4560000e+00  -9.0111677e+00   6.8265143e+00  -5.1690907e+00  -1.0616125e+01  -8.0360537e+00  -1.1615218e+01  -6.2230182e-01  -1.2534001e+00  -9.2341261e+00   1.3037384e+00  -1.9260721e+01  -2.3315878e+01  -5.5223249e+00  -1.6135849e+00  -9.4774056e+00  -9.9417655e+00  -1.2153132e+01  -9.6443538e+00   0.0000000e+00   3.0000000e+01   0.0000000e+00   0.0000000e+00
   1.5537546e+00   7.8403644e+00  -9.4540758e+00   5.7434703e+00  -6.0333934e+00  -1.1419380e+01  -9.0377331e+00  -1.2221112e+01   1.7461780e-02   3.9567867e-02  -8.5023420e+00   3.0418506e-01  -1.9286296e+01  -2.3875295e+01  -5.5015056e+00  -1.7795567e+00  -9.8023073e+00  -9.9257364e+00  -1.2235489e+01  -9.7422556e+00   0.0000000e+00   3.0000000e+01   0.0000000e+00   0.0000000e+00
   6.9940182e-01   8.0264145e+00  -9.8290007e+00   5.2994638e+00  -5.9599638e+00  -1.1450049e+01  -9.3478019e+00  -1.2848854e+01   1.0202825e+00   1.4293203e+00  -7.8424561e+00   2.0180594e-01  -1.8253632e+01  -2.3420671e+01  -4.8650117e+00  -1.9830210e+00  -8.8798692e+00  -9.9479928e+00  -1.1441673e+01  -9.4647204e+00   0.0000000e+00   3.0000000e+01   0.0000000e+00   0.0000000e+00
   5.8110583e-01   9.1936417e+00  -9.7269978e+00   5.6845838e+00  -4.6040741e+00  -1.0264200e+01  -8.4929703e+00  -1.3209711e+01   2.5486412e+00   2.9922118e+00  -7.0688764e+00   1.3387265e+00  -1.5801590e+01  -2.1631975e+01  -3.3116240e+00  -1.8953244e+00  -6.5266297e+00  -9.3182165e+00  -9.6572011e+00  -8.8319304e+00   0.0000000e+00   3.0000000e+01   0.0000000e+00   0.0000000e+00
   1.0796317e+00   1.1060799e+01  -9.2177755e+00   6.7734737e+00  -2.2506982e+00  -7.9920225e+00  -6.6394599e+00  -1.3247092e+01   4.4197377e+00   4.5305698e+00  -6.0953303e+00   3.3884390e+00  -1.2347534e+01  -1.8820219e+01  -1.0807092e+00  -1.5202824e+00  -3.1507317e+00  -7.5230860e+00  -7.2246793e+00  -8.1150234e+00   0.0000000e+00   3.0000000e+01   0.0000000e+00   0.0000000e+00
   1.8335280e+00   1.2814343e+01  -8.6156155e+00   8.4029872e+00   4.9275978e-01  -5.3162477e+00  -4.5922594e+00  -1.3191711e+01   6.3157269e+00   5.7450528e+00  -5.0344025e+00   5.8450550e+00  -8.6799544e+00  -1.5747559e+01   1.1923263e+00  -1.0559563e+00   5.6284317e-01  -5.0634878e+00  -4.6834121e+00  -7.4036986e+00   0.0000000e+00   3.0000000e+01   0.0000000e+00   0.0000000e+00
   2.4531052e+00   1.3844160e+01  -8.1657098e+00   1.0367501e+01   3.0063416e+00  -3.0161831e+00  -2.9720946e+00  -1.3106680e+01   7.7909609e+00   6.4041270e+00  -4.1698123e+00   8.1931011e+00  -5.6107068e+00  -1.3213324e+01   2.9131201e+00  -6.2834263e-01   3.8515735e+00  -2.7416967e+00  -2.6663611e+00  -6.6672223e+00   0.0000000e+00   3.0000000e+01   0.0000000e+00   0.0000000e+00
   2.8226174e+00   1.4422994e+01  -7.6962334e+00   1.2142689e+01   4.7211808e+00  -1.5054995e+00  -1.9000635e+00  -1.2803715e+01   8.5371956e+00   6.3984276e+00  -3.7216610e+00   9.8393797e+00  -3.8639824e+00  -1.1800932e+01   3.7107117e+00  -3.0947987e-01   5.9976862e+00  -6.1632257e-01  -1.6229612e+00  -6.0377457e+00   0.0000000e+00   3.0000000e+01   0.0000000e+00   0.0000000e+00
   2.9073875e+00   1.4891623e+01  -6.9219434e+00   1.3298014e+01   5.6603752e+00  -7.5815599e-01  -1.3443242e+00  -1.2246899e+01   8.7889147e+00   6.0824765e+00  -3.7299190e+00   1.0529343e+01  -3.4241230e+00  -1.1480216e+01   3.5730151e+00  -3.6251060e-01   6.8232887e+00   1.5451552e+00  -1.5236662e+00  -5.8245636e+00   0.0000000e+00   3.0000000e+01   0.0000000e+00   0.0000000e+00
   2.3445801e+00   1.5093775e+01  -6.1629508e+00   1.3694571e+01   6.1460655e+00  -6.9265423e-01  -1.4580939e+00  -1.1811805e+01   8.8832033e+00   5.9145947e+00  -4.2658167e+00   1.0409735e+01  -3.8747613e+00  -1.1998361e+01   2.5479957e+00  -1.0611454e+00   6.6295700e+00   3.1854156e+00  -2.1131387e+00  -6.2386291e+00   0.0000000e+00   3.0000000e+01   0.0000000e+00   0.0000000e+00
   1.2901234e+00   1.5107862e+01  -5.6745701e+00   1.3586387e+01   6.4918703e+00  -8.6070923e-01  -2.0230691e+00  -1.1744756e+01   9.1190350e+00   6.1023276e+00  -5.1262073e+00   9.8835117e+00  -4.7353888e+00  -1.2806547e+01   1.0691668e+00  -2.0601098e+00   6.0414843e+00   3.8493583e+00  -2.9237516e+00  -7.0125988e+00   0.0000000e+00   3.0000000e+01   0.0000000e+00   0.0000000e+00
   3.5013132e-01   1.5185882e+01  -5.4416012e+00   1.3237276e+01   6.8976234e+00  -8.0509376e-01  -2.4662132e+00  -1.1939827e+01   9.8013928e+00   6.7214593e+00  -5.7890618e+00   9.2921417e+00  -5.3939091e+00  -1.3117290e+01  -2.2274167e-02  -2.7717648e+00   5.5974307e+00   4.0177771e+00  -3.4257840e+00  -7.7373882e+00   0.0000000e+00   3.0000000e+01   0.0000000e+00   0.0000000e+00
  -3.7532173e-01   1.5141036e+01  -5.7003484e+00   1.2543125e+01   7.3228604e+00  -4.9791828e-01  -2.4921510e+00  -1.2311503e+01   1.0965652e+01   7.7833846e+00  -5.9111345e+00   8.7570374e+00  -5.5984366e+00  -1.2679267e+01  -2.6917942e-01  -3.1424377e+00   5.4447169e+00   4.1338237e+00  -3.2980301e+00  -8.2757218e+00   0.0000000e+00   3.0000000e+01   0.0000000e+00   0.0000000e+00
  -8.5357663e-01   1.4917842e+01  -6.4749098e+00   1.1617923e+01   7.9474267e+00   2.6377907e-01  -2.1127230e+00  -1.2663286e+01   1.2590294e+01   9.2706528e+00  -5.4887704e+00   8.5077994e+00  -5.1837271e+00  -1.1443832e+01   3.0308647e-01  -3.4492372e+00   5.7595740e+00   4.0200237e+00  -2.3227335e+00  -8.4304895e+00   0.0000000e+00   3.0000000e+01   0.0000000e+00   0.0000000e+00
  -1.1114867e+00   1.4656562e+01  -7.3978053e+00   1.0732167e+01   8.8891549e+00   1.5393756e+00  -1.4562571e+00  -1.2737783e+01   1.4665940e+01   1.1023080e+01  -4.6682628e+00   8.6153635e+00  -4.1446027e+00  -9.5190902e+00   1.4581661e+00  -3.6660243e+00   6.5274337e+00   3.4480320e+00  -6.5882108e-01  -8.0504693e+00   0.0000000e+00   3.0000000e+01   0.0000000e+00   0.0000000e+00
  -1.5887230e+00   1.4615179e+01  -8.0859297e+00   9.8754679e+00   9.7991533e+00   2.9023105e+00  -6.4209461e-01  -1.2442403e+01   1.6767532e+01   1.2742040e+01  -3.6119245e+00   8.7021468e+00  -2.9194311e+00  -7.3852723e+00   2.8666953e+00  -3.5388684e+00   7.2534598e+00   2.7030460e+00   1.1627182e+00  -7.2738755e+00   0.0000000e+00   3.0000000e+01   0.0000000e+00   0.0000000e+00
  -2.5722197e+00   1.5065433e+01  -8.2744665e+00   9.0767085e+00   1.0337951e+01   3.9706299e+00   2.1027722e-01  -1.1759258e+01   1.8217470e+01   1.3930361e+01  -2.5624106e+00   8.5169864e+00  -1.8562894e+00  -5.6118272e+00   4.1019221e+00  -2.9650697e+00   7.4771250e+00   2.1033230e+00   2.7216598e+00  -6.3668370e+00   0.0000000e+00   3.0000000e+01   0.0000000e+00   0.0000000e+00
  -3.8816722e+00   1.6056893e+01  -7.7728453e+00   8.3124376e+00   1.0470809e+01   4.6591305e+00   9.0305166e-01  -1.0845573e+01   1.8580429e+01   1.4038984e+01  -1.9662335e+00   8.0119700e+00  -1.2893707e+00  -4.5729318e+00   4.6642656e+00  -2.2614709e+00   7.0372404e+00   1.3420625e+00   3.7986522e+00  -5.5327512e+00   0.0000000e+00   3.0000000e+01   0.0000000e+00   0.0000000e+00
  -5.1530567e+00   1.7434434e+01  -6.4919175e+00   7.5547597e+00   1.0151679e+01   5.1399479e+00   1.5860465e+00  -9.8920313e+00   1.7830131e+01   1.3008704e+01  -2.0256557e+00   7.0887360e+00  -1.5424680e+00  -4.1699739e+00   4.4388670e+00  -1.7136307e+00   6.0343617e+00   1.4986730e-01   4.3593285e+00  -4.7578484e+00   0.0000000e+00   3.0000000e+01   0.0000000e+00   0.0000000e+00
  -5.8457075e+00   1.8910068e+01  -4.6330181e+00   7.1922853e+00   9.6693633e+00   5.8253867e+00   2.7189234e+00  -8.8048964e+00   1.6529954e+01   1.1329302e+01  -2.4283189e+00   6.0051083e+00  -2.4038310e+00  -3.8636213e+00   3.9809787e+00  -1.2511482e+00   5.0097476e+00  -7.8851183e-01   4.6927915e+00  -3.9843148e+00   0.0000000e+00   3.0000000e+01   0.0000000e+00   0.0000000e+00
  -5.7829211e+00   2.0429996e+01  -2.6927672e+00   7.4258091e+00   9.5467223e+00   6.8074145e+00   4.2837202e+00  -7.7497089e+00   1.5129168e+01   9.5607272e+00  -2.9676127e+00   4.9506449e+00  -3.4802657e+00  -3.3300874e+00   3.8657525e+00  -9.0086116e-01   4.4325535e+00  -7.9655339e-01   5.1058363e+00  -3.3258380e+00   0.0000000e+00   3.0000000e+01   0.0000000e+00   0.0000000e+00
  -5.5321624e+00   2.2092696e+01  -1.1240005e+00   8.0340136e+00   9.6881630e+00   7.7016402e+00   5.6802487e+00  -7.1320776e+00   1.3651776e+01   8.1653840e+00  -3.6795559e+00   3.8429373e+00  -4.5152067e+00  -2.6824619e+00   4.1387594e+00  -8.2573375e-01   4.2065125e+00  -2.9013521e-01   5.6952043e+00  -2.8717661e+00   0.0000000e+00   3.0000000e+01   5.0000000e+01   0.0000000e+00
  -5.4854635e+00   2.3523243e+01  -8.9642315e-02   8.5371498e+00   9.5931575e+00   8.1972529e+00   6.4765825e+00  -7.1336354e+00   1.2093264e+01   7.3082953e+00  -4.5641935e+00   2.5616978e+00  -5.5325711e+00  -2.2856429e+00   4.4647995e+00  -1.0823020e+00   3.8278701e+00  -1.9536542e-02   6.2941209e+00  -2.7018854e+00   0.0000000e+00   3.0000000e+01   5.0000000e+01   0.0000000e+00
  -5.6362430e+00   2.4091874e+01   4.7717418e-01   8.4533581e+00   8.9324718e+00   8.1410105e+00   6.6713209e+00  -7.6438824e+00   1.0356441e+01   6.7771985e+00  -5.7851457e+00   9.3178366e-01  -6.9490817e+00  -2.6666951e+00   4.2516285e+00  -1.7489678e+00   2.7212087e+00  -1.3686311e-01   6.3206016e+00  -3.0346758e+00   0.0000000e+00   3.0000000e+01   5.0000000e+01   0.0000000e+00
  -6.0957429e+00   2.3664947e+01   5.4470538e-01   7.8692628e+00   7.6411981e+00   7.3947331e+00   6.2890120e+00  -8.4361718e+00   8.4483000e+00   6.2394425e+00  -7.4948994e+00  -1.0673368e+00  -8.9188584e+00  -4.1805483e+00   3.0742114e+00  -2.8237741e+00   7.5778182e-01  -5.0879351e-01   5.2720898e+00  -3.9674274e+00   0.0000000e+00   3.0000000e+01   5.0000000e+01   0.0000000e+00
  -6.8750239e+00   2.2789025e+01   4.7015017e-02   7.1238622e+00   5.7998500e+00   5.9655583e+00   5.2494693e+00  -9.3847818e+00   6.4569257e+00   5.5117554e+00  -9.5860167e+00  -3.3737289e+00  -1.1216695e+01  -6.5999841e+00   1.0339418e+00  -4.0973969e+00  -1.7198987e+00  -1.3891200e+00   3.3246432e+00  -5.2890144e+00   0.0000000e+00   3.0000000e+01   5.0000000e+01   0.0000000e+00
  -7.7663285e+00   2.1811249e+01  -8.2907547e-01   6.2627173e+00   3.6492791e+00   4.1252175e+00   3.8417616e+00  -1.0370930e+01   4.5898989e+00   4.6446926e+00  -1.1630029e+01  -5.8429320e+00  -1.3631937e+01  -9.2993622e+00  -1.3412456e+00  -5.2903141e+00  -4.3510201e+00  -2.9703837e+00   1.0964984e+00  -6.7152891e+00   0.0000000e+00   3.0000000e+01   5.0000000e+01   0.0000000e+00
  -8.6694881e+00   2.0632051e+01  -1.8650558e+00   5.3279084e+00   1.6098568e+00   2.2341566e+00   2.6093973e+00  -1.1359723e+01   3.4488117e+00   3.9594811e+00  -1.3178096e+01  -7.8534508e+00  -1.5802975e+01  -1.1909885e+01  -3.5867070e+00  -6.2811741e+00  -6.7742971e+00  -4.6918077e+00  -9.6068527e-01  -8.1523824e+00   0.0000000e+00   3.0000000e+01   5.0000000e+01   0.0000000e+00
  -9.4659552e+00   1.9251029e+01  -2.9455150e+00   4.7172721e+00   1.7159781e-03   5.3295688e-01   1.7907063e+00  -1.2344041e+01   3.1286054e+00   3.5876597e+00  -1.4245123e+01  -9.0004006e+00  -1.7269846e+01  -1.4303326e+01  -5.5156893e+00  -7.0729473e+00  -8.5975393e+00  -5.9016468e+00  -2.8498214e+00  -9.6218028e+00   0.0000000e+00   3.0000000e+01   5.0000000e+01   0.0000000e+00
  -9.8479149e+00   1.8064566e+01  -3.8555470e+00   4.7336426e+00  -1.0556072e+00  -6.2309213e-01   1.2324268e+00  -1.3339905e+01   3.1190601e+00   3.3652752e+00  -1.5030992e+01  -9.5142662e+00  -1.7843676e+01  -1.6367788e+01  -7.0816511e+00  -7.7303690e+00  -9.4948424e+00  -6.6774787e+00  -4.5066910e+00  -1.1004007e+01   0.0000000e+00   3.0000000e+01   5.0000000e+01   0.0000000e+00
  -9.8198918e+00   1.7194320e+01  -4.3444128e+00   5.1386171e+00  -1.5728589e+00  -9.3959552e-01   9.1983876e-01  -1.4264869e+01   3.0632804e+00   3.1530554e+00  -1.5677001e+01  -9.6857004e+00  -1.7724250e+01  -1.8007965e+01  -8.2353994e+00  -8.3633763e+00  -9.3950355e+00  -7.3337439e+00  -5.6811777e+00  -1.2048998e+01   0.0000000e+00   3.0000000e+01   5.0000000e+01   0.0000000e+00
  -9.5520254e+00   1.6479546e+01  -4.2921597e+00   5.8110296e+00  -1.5993658e+00  -5.1102674e-01   1.0761034e+00  -1.4734473e+01   2.6834204e+00   2.8073113e+00  -1.6289112e+01  -9.7206510e+00  -1.7268373e+01  -1.9056384e+01  -8.9577365e+00  -8.9592310e+00  -8.5966264e+00  -7.5388564e+00  -6.2845094e+00  -1.2501299e+01   0.0000000e+00   3.0000000e+01   5.0000000e+01   0.0000000e+00
  -9.0175493e+00   1.5885863e+01  -3.9691380e+00   6.9324238e+00  -1.1834329e+00   4.0533455e-01   1.6952371e+00  -1.4479251e+01   2.1632482e+00   2.3955645e+00  -1.6844943e+01  -9.5122773e+00  -1.6687350e+01  -1.9402653e+01  -9.2253927e+00  -9.4070023e+00  -7.4496886e+00  -6.8004152e+00  -6.3314057e+00  -1.2371838e+01   0.0000000e+00   3.0000000e+01   5.0000000e+01   0.0000000e+00
  -8.3893453e+00   1.5267447e+01  -3.8522315e+00   8.3963511e+00  -5.3425288e-01   1.4648705e+00   2.2743846e+00  -1.3812692e+01   1.9531908e+00   2.1357508e+00  -1.7310396e+01  -8.8618213e+00  -1.6023708e+01  -1.9130715e+01  -9.2027846e+00  -9.7165099e+00  -6.2429262e+00  -5.5561148e+00  -5.8473267e+00  -1.1932972e+01   0.0000000e+00   3.0000000e+01   5.0000000e+01   0.0000000e+00
  -8.1323606e+00   1.4572913e+01  -3.8526690e+00   9.6571332e+00   6.8142357e-02   2.4205821e+00   2.5789421e+00  -1.3242261e+01   2.3915819e+00   2.3316614e+00  -1.7520617e+01  -7.7732720e+00  -1.5226242e+01  -1.8281413e+01  -8.9486463e+00  -9.7948745e+00  -5.1627131e+00  -4.5309238e+00  -4.8550483e+00  -1.1361183e+01   0.0000000e+00   3.0000000e+01   5.0000000e+01   0.0000000e+00
  -8.3052999e+00   1.4076416e+01  -3.7200029e+00   1.0330708e+01   5.7264380e-01   3.2181382e+00   2.9608705e+00  -1.2831191e+01   3.5324203e+00   3.1758899e+00  -1.7280210e+01  -6.3570029e+00  -1.4220276e+01  -1.6910819e+01  -8.2077589e+00  -9.5613838e+00  -4.1806843e+00  -3.5569598e+00  -3.4428299e+00  -1.0828222e+01   0.0000000e+00   3.0000000e+01   5.0000000e+01   0.0000000e+00
  -8.6375433e+00   1.4077956e+01  -3.5510204e+00   1.0419866e+01   1.0903411e+00   3.8979630e+00   3.6858262e+00  -1.2477333e+01   4.8324225e+00   4.4928409e+00  -1.6639536e+01  -5.0052818e+00  -1.2958035e+01  -1.5330852e+01  -6.8706299e+00  -9.0426889e+00  -3.2278051e+00  -2.2054734e+00  -1.8192921e+00  -1.0567277e+01   0.0000000e+00   3.0000000e+01   5.0000000e+01   0.0000000e+00
  -9.2557968e+00   1.4302711e+01  -3.6039310e+00   9.9604476e+00   1.5099836e+00   4.3923670e+00   4.4124565e+00  -1.2354852e+01   5.7165553e+00   5.9151620e+00  -1.5869640e+01  -4.1181882e+00  -1.1679662e+01  -1.4014754e+01  -5.3536394e+00  -8.4064725e+00  -2.4938642e+00  -9.6657433e-01  -3.4904697e-01  -1.0606168e+01   0.0000000e+00   3.0000000e+01   5.0000000e+01   0.0000000e+00
  -1.0311415e+01   1.4271916e+01  -3.9266134e+00   9.0586272e+00   1.5014438e+00   4.5064403e+00   4.6881511e+00  -1.2600122e+01   6.2103207e+00   7.1754253e+00  -1.4945712e+01  -3.7374000e+00  -1.0777396e+01  -1.3111036e+01  -3.9850348e+00  -7.7443842e+00  -2.3614616e+00  -4.3837903e-01   5.7234051e-01  -1.0780918e+01   0.0000000e+00   3.0000000e+01   5.0000000e+01   0.0000000e+00
  -1.1546497e+01   1.3874647e+01  -4.3449799e+00   8.0355830e+00   1.0334743e+00   4.1364843e+00   4.4454373e+00  -1.3098094e+01   6.5587886e+00   8.1810237e+00  -1.3792613e+01  -3.8330318e+00  -1.0372736e+01  -1.2403076e+01  -2.8258061e+00  -7.0876921e+00  -3.0163537e+00  -2.4610824e-01   6.8403508e-01  -1.1151881e+01   0.0000000e+00   3.0000000e+01   5.0000000e+01   0.0000000e+00
  -1.2489329e+01   1.3499851e+01  -4.6553887e+00   7.4914492e+00   4.9697268e-01   3.6172101e+00   3.9863086e+00  -1.3590440e+01   7.1208918e+00   9.0175530e+00  -1.2600899e+01  -4.0599405e+00  -9.9189052e+00  -1.1617283e+01  -1.8886496e+00  -6.4801694e+00  -3.9450143e+00   3.7657239e-01   2.8989545e-01  -1.1668805e+01   0.0000000e+00   3.0000000e+01   5.0000000e+01   0.0000000e+00
  -1.2834337e+01   1.3173350e+01  -4.8668404e+00   7.7415734e+00   3.2543120e-01   3.4829341e+00   3.4688800e+00  -1.3952739e+01   8.2586324e+00   1.0039454e+01  -1.1619392e+01  -3.9837158e+00  -8.6950709e+00  -1.0538501e+01  -1.1802322e+00  -6.1499975e+00  -4.2934144e+00   1.3587021e+00   7.4250683e-02  -1.1987561e+01   0.0000000e+00   3.0000000e+01   5.0000000e+01   0.0000000e+00
  -1.2512750e+01   1.2758798e+01  -4.9000668e+00   8.4586547e+00   7.8356597e-01   4.0322906e+00   3.0900584e+00  -1.4197505e+01   9.8231115e+00   1.1374358e+01  -1.0960479e+01  -3.9434189e+00  -6.8164717e+00  -9.0382322e+00  -5.4313427e-01  -6.1732056e+00  -3.7867501e+00   2.2299452e+00   3.6574223e-01  -1.1856141e+01   0.0000000e+00   3.0000000e+01   5.0000000e+01   0.0000000e+00
  -1.1399063e+01   1.2861112e+01  -4.5608921e+00   9.6462966e+00   1.8890872e+00   5.2086553e+00   3.1554824e+00  -1.4321977e+01   1.1189072e+01   1.2649252e+01  -1.0697033e+01  -4.4337987e+00  -4.9551706e+00  -7.4006999e+00   1.2779054e-01  -6.3925423e+00  -2.7489743e+00   3.1654252e+00   9.4993138e-01  -1.1359504e+01   0.0000000e+00   3.0000000e+01   5.0000000e+01   0.0000000e+00
  -9.7472036e+00   1.3736674e+01  -4.0441116e+00   1.1353044e+01   3.2719256e+00   6.6596088e+00   3.6096293e+00  -1.4346207e+01   1.2112959e+01   1.3579500e+01  -1.0811431e+01  -5.2312867e+00  -3.4687652e+00  -6.0765763e+00   7.8021748e-01  -6.7222277e+00  -1.6379995e+00   4.4097498e+00   1.5565705e+00  -1.0738369e+01   0.0000000e+00   3.0000000e+01   5.0000000e+01   0.0000000e+00
  -8.3958577e+00   1.4833849e+01  -3.8680909e+00   1.2890777e+01   4.3165420e+00   7.9419540e+00   4.0822151e+00  -1.4418044e+01   1.2792028e+01   1.4294628e+01  -1.1044062e+01  -5.9278255e+00  -2.4749216e+00  -5.2086319e+00   1.3443764e+00  -7.2225034e+00  -8.6939759e-01   5.4149429e+00   2.2266648e+00  -1.0105806e+01   0.0000000e+00   3.0000000e+01   5.0000000e+01   0.0000000e+00
  -7.7475379e+00   1.5815168e+01  -4.2371580e+00   1.3712051e+01   4.8477795e+00   8.8479635e+00   4.5106412e+00  -1.4584121e+01   1.3422580e+01   1.5178880e+01  -1.0934109e+01  -6.4622940e+00  -1.9640863e+00  -4.5121254e+00   2.0535932e+00  -7.7526350e+00  -5.5103829e-01   5.6117591e+00   3.0314647e+00  -9.4194723e+00   0.0000000e+00   3.0000000e+01   5.0000000e+01   0.0000000e+00
  -7.7624632e+00   1.6296261e+01  -5.0000895e+00   1.3913615e+01   4.9804237e+00   9.3750026e+00   4.8939779e+00  -1.4819690e+01   1.4360884e+01   1.6443262e+01  -1.0167932e+01  -6.8081141e+00  -1.7284275e+00  -3.5313844e+00   3.1252667e+00  -8.0778027e+00  -4.7404777e-01   5.3038324e+00   3.7459211e+00  -8.7256460e+00   0.0000000e+00   3.0000000e+01   5.0000000e+01   0.0000000e+00
  -8.1993511e+00   1.5906830e+01  -6.2935281e+00   1.4000898e+01   4.7085617e+00   9.4688089e+00   4.9383420e+00  -1.5436776e+01   1.5797148e+01   1.7953648e+01  -8.7838898e+00  -6.7210356e+00  -1.5695009e+00  -2.3186513e+00   4.3742617e+00  -8.2754904e+00  -4.4616990e-01   5.0512093e+00   4.0744637e+00  -8.3426008e+00   0.0000000e+00   3.0000000e+01   5.0000000e+01   0.0000000e+00
  -8.7290707e+00   1.5032736e+01  -8.4054166e+00   1.4430925e+01   4.0601166e+00   9.0632579e+00   4.2187722e+00  -1.6906064e+01   1.7539703e+01   1.9392206e+01  -7.2930988e+00  -6.0732250e+00  -1.3869538e+00  -1.3185015e+00   5.3477367e+00  -8.7596448e+00  -3.6479750e-01   4.7922312e+00   3.9709968e+00  -8.6048980e+00   0.0000000e+00   3.0000000e+01   5.0000000e+01   0.0000000e+00
  -9.2609599e+00   1.4400583e+01  -1.0889575e+01   1.5225581e+01   3.0497356e+00   8.2630722e+00   2.7871815e+00  -1.9043312e+01   1.9197310e+01   2.0383162e+01  -6.3365660e+00  -5.1521047e+00  -1.1915430e+00  -8.7493275e-01   5.6882851e+00  -9.6898211e+00  -3.2945075e-01   4.3397167e+00   3.4909024e+00  -9.4324867e+00   0.0000000e+00   3.0000000e+01   5.0000000e+01   0.0000000e+00
  -9.7655319e+00   1.4145846e+01  -1.2540770e+01   1.5843914e+01   1.7087561e+00   7.2955871e+00   1.1322921e+00  -2.0772560e+01   2.0067242e+01   2.0346825e+01  -6.2975825e+00  -4.7762493e+00  -1.4248917e+00  -1.2500754e+00   5.2498202e+00  -1.0648398e+01  -7.3240223e-01   4.0066957e+00   2.6397589e+00  -1.0237091e+01   0.0000000e+00   3.0000000e+01   5.0000000e+01   0.0000000e+00
  -1.0407540e+01   1.4184289e+01  -1.2699405e+01   1.5642459e+01   1.5983519e-01   6.2495349e+00  -3.7004695e-01  -2.1109979e+01   1.9695064e+01   1.9208241e+01  -7.0037863e+00  -5.5858548e+00  -2.5057997e+00  -2.3772379e+00   4.1803798e+00  -1.1087356e+01  -1.7881364e+00   4.1689898e+00   1.5741674e+00  -1.0484464e+01   0.0000000e+00   3.0000000e+01   5.0000000e+01   0.0000000e+00
  -1.1568490e+01   1.4296621e+01  -1.2069950e+01   1.4410505e+01  -1.7520396e+00   5.0160830e+00  -1.8337668e+00  -2.0247199e+01   1.8346807e+01   1.7759104e+01  -7.8848355e+00  -7.5020955e+00  -4.3250541e+00  -3.9284037e+00   2.7340373e+00  -1.1002446e+01  -3.4900931e+00   4.4272541e+00   5.4007530e-01  -1.0212206e+01   0.0000000e+00   3.0000000e+01   5.0000000e+01   0.0000000e+00
  -1.3385371e+01   1.3963742e+01  -1.1685162e+01   1.2700220e+01  -4.2147290e+00   3.6772735e+00  -3.3403375e+00  -1.8995593e+01   1.6818371e+01   1.6702402e+01  -8.4372077e+00  -9.8643535e+00  -6.2792440e+00  -5.4463604e+00   1.2771341e+00  -1.0645982e+01  -5.5725326e+00   4.2354378e+00  -3.6513269e-01  -9.6922325e+00   0.0000000e+00   3.0000000e+01   5.0000000e+01   0.0000000e+00
  -1.5740762e+01   1.3197987e+01  -1.1729280e+01   1.1147386e+01  -6.9784395e+00   2.4562494e+00  -4.6447187e+00  -1.7782305e+01   1.5740208e+01   1.6084679e+01  -8.4162463e+00  -1.1907835e+01  -7.5792853e+00  -6.5336183e+00   2.6090496e-01  -1.0033766e+01  -7.5232766e+00   3.9622710e+00  -1.0634129e+00  -9.0201025e+00   0.0000000e+00   3.0000000e+01   5.0000000e+01   0.0000000e+00
  -1.8209351e+01   1.2580438e+01  -1.1761433e+01   9.9860397e+00  -9.3618124e+00   1.5362552e+00  -5.3778263e+00  -1.6570189e+01   1.5198868e+01   1.5770242e+01  -7.7907587e+00  -1.3349065e+01  -7.9552210e+00  -6.9640656e+00   1.4862386e-01  -9.0346526e+00  -8.8806900e+00   4.3437817e+00  -1.1839337e+00  -8.0274621e+00   0.0000000e+00   3.0000000e+01   5.0000000e+01   0.0000000e+00
  -2.0210638e+01   1.2113841e+01  -1.1630574e+01   9.3142825e+00  -1.0874594e+01   9.8852165e-01  -5.5442547e+00  -1.5394871e+01   1.4822357e+01   1.5519346e+01  -6.9324758e+00  -1.4334280e+01  -7.9299861e+00  -6.9815806e+00   7.6527862e-01  -7.8844123e+00  -9.5650678e+00   5.2145937e+00  -5.8973303e-01  -6.6791583e+00   0.0000000e+00   3.0000000e+01   5.0000000e+01   0.0000000e+00
  -2.1390187e+01   1.1585027e+01  -1.1411688e+01   9.1541258e+00  -1.1592648e+01   7.1225798e-01  -5.3332543e+00  -1.4390650e+01   1.4219338e+01   1.5005164e+01  -6.2037949e+00  -1.5079283e+01  -7.9797003e+00  -7.1001533e+00   1.5282308e+00  -6.8033995e+00  -9.8754804e+00   6.0492552e+00   3.7453644e-01  -5.1891234e+00   0.0000000e+00   3.0000000e+01   5.0000000e+01   0.0000000e+00
  -2.1482645e+01   1.1152133e+01  -1.0970608e+01   9.6902243e+00  -1.1629274e+01   7.5169796e-01  -4.5834776e+00  -1.3347138e+01   1.3725560e+01   1.4235726e+01  -5.5261799e+00  -1.5384159e+01  -7.7152296e+00  -7.1672044e+00   2.3556230e+00  -5.6062410e+00  -9.7933247e+00   7.3184358e+00   1.4556317e+00  -3.7286324e+00   0.0000000e+00   3.0000000e+01   5.0000000e+01   0.0000000e+00
  -2.0859225e+01   1.0693407e+01  -1.0347340e+01   1.0879452e+01  -1.1304809e+01   1.0687348e+00  -3.4176140e+00  -1.2185544e+01   1.3638487e+01   1.3449535e+01  -4.9041246e+00  -1.5259051e+01  -6.9307760e+00  -6.9339365e+00   3.2682204e+00  -4.3053046e+00  -9.2558899e+00   9.4905343e+00   2.4328490e+00  -2.4725831e+00   0.0000000e+00   0.0000000e+00   5.0000000e+01   0.0000000e+00
  -2.0437653e+01   9.8248161e+00  -1.0022923e+01   1.2228412e+01  -1.1131594e+01   1.1833929e+00  -2.5580727e+00  -1.1323020e+01   1.3567102e+01   1.2772930e+01  -4.6476389e+00  -1.5161821e+01  -6.0637586e+00  -6.7015944e+00   3.8764206e+00  -3.3297508e+00  -8.6109071e+00   1.1845739e+01   3.0087560e+00  -1.5931461e+00   0.0000000e+00   0.0000000e+00   5.0000000e+01   0.0000000e+00
  -2.0587848e+01   8.4604992e+00  -1.0304498e+01   1.3122152e+01  -1.1387502e+01   6.9491752e-01  -2.3290568e+00  -1.0957807e+01   1.3168007e+01   1.2158185e+01  -4.8033310e+00  -1.5310853e+01  -5.5182236e+00  -6.7721769e+00   3.8071565e+00  -2.7888923e+00  -8.3231703e+00   1.3455761e+01   2.9457906e+00  -1.0726126e+00   0.0000000e+00   0.0000000e+00   5.0000000e+01   0.0000000e+00
  -2.1022597e+01   6.9814632e+00  -1.0847963e+01   1.3256070e+01  -1.2206563e+01  -3.2933870e-01  -2.5223298e+00  -1.0880526e+01   1.2343082e+01   1.1575133e+01  -5.0749116e+00  -1.5873246e+01  -5.7191840e+00  -7.4045020e+00   3.0889467e+00  -2.3662217e+00  -8.7554960e+00   1.4361276e+01   2.1680243e+00  -7.6852151e-01   0.0000000e+00   0.0000000e+00   5.0000000e+01   0.0000000e+00
  -2.1335839e+01   5.6033522e+00  -1.1157895e+01   1.2827336e+01  -1.3516733e+01  -1.6042804e+00  -3.0209607e+00  -1.0953897e+01   1.0988963e+01   1.0803608e+01  -5.3498690e+00  -1.7004669e+01  -7.0507657e+00  -8.9247542e+00   1.9668814e+00  -1.9863132e+00  -1.0081258e+01   1.4965449e+01   8.8383266e-01  -5.3678626e-01   0.0000000e+00   0.0000000e+00   5.0000000e+01   0.0000000e+00
  -2.1555341e+01   4.2463142e+00  -1.1182476e+01   1.2016031e+01  -1.5015159e+01  -2.9001525e+00  -3.9189591e+00  -1.1212337e+01   9.0968581e+00   9.7153248e+00  -5.7926288e+00  -1.8532912e+01  -9.3552331e+00  -1.1223371e+01   4.9941856e-01  -1.9307973e+00  -1.2103210e+01   1.4971007e+01  -4.9170432e-01  -3.3540148e-01   0.0000000e+00   0.0000000e+00   5.0000000e+01   0.0000000e+00
  -2.1913142e+01   3.1176594e+00  -1.1124629e+01   1.0967466e+01  -1.6257391e+01  -3.8595889e+00  -4.8887305e+00  -1.1526001e+01   7.0607058e+00   8.5891376e+00  -6.4271461e+00  -2.0048177e+01  -1.2070447e+01  -1.3584441e+01  -9.6581922e-01  -2.1681124e+00  -1.4263272e+01   1.4036346e+01  -1.5611970e+00  -2.0399800e-01   0.0000000e+00   0.0000000e+00   5.0000000e+01   0.0000000e+00
  -2.2187491e+01   2.7765277e+00  -1.0957965e+01   1.0063990e+01  -1.6783787e+01  -3.9839374e+00  -5.1470976e+00  -1.1470664e+01   5.3055727e+00   7.7093094e+00  -6.9791500e+00  -2.1193377e+01  -1.4651292e+01  -1.5362220e+01  -1.8082042e+00  -2.1825423e+00  -1.5920058e+01   1.2812742e+01  -2.0710644e+00   5.0500063e-02   0.0000000e+00   0.0000000e+00   5.0000000e+01   0.0000000e+00
  -2.2249562e+01   3.1481561e+00  -1.0480420e+01   9.3467464e+00  -1.6678457e+01  -3.3679426e+00  -4.5407419e+00  -1.0958517e+01   3.6867611e+00   6.9130982e+00  -7.2956317e+00  -2.1945766e+01  -1.6766165e+01  -1.6533011e+01  -1.9618255e+00  -1.7349385e+00  -1.6980537e+01   1.2010684e+01  -2.1299731e+00   4.5645616e-01   0.0000000e+00   0.0000000e+00   5.0000000e+01   0.0000000e+00
  -2.2531701e+01   3.5188586e+00  -9.8124469e+00   8.5719904e+00  -1.6480267e+01  -2.5460626e+00  -3.8385582e+00  -1.0525594e+01   1.9725404e+00   5.8318318e+00  -7.5769249e+00  -2.2548617e+01  -1.8428588e+01  -1.7412726e+01  -1.9640633e+00  -1.2134934e+00  -1.7836895e+01   1.1239930e+01  -2.0582181e+00   7.6280406e-01   0.0000000e+00   0.0000000e+00   5.0000000e+01   0.0000000e+00
  -2.3153907e+01   3.7235441e+00  -9.1750416e+00   7.6824850e+00  -1.6450593e+01  -1.9016426e+00  -3.3580788e+00  -1.0434178e+01   1.9589265e-01   4.5536403e+00  -7.7256766e+00  -2.3201191e+01  -1.9885060e+01  -1.8149523e+01  -1.9988977e+00  -6.7351844e-01  -1.8796355e+01   1.0015655e+01  -1.9123862e+00   9.8560669e-01   0.0000000e+00   0.0000000e+00   5.0000000e+01   0.0000000e+00
  -2.3690874e+01   3.8357563e+00  -8.5099818e+00   6.7965932e+00  -1.6491141e+01  -1.5606138e+00  -2.6793370e+00  -1.0418359e+01  -1.2490039e+00   3.5793531e+00  -7.3540956e+00  -2.3742631e+01  -2.1049549e+01  -1.8458303e+01  -1.7205312e+00   1.6510217e-01  -1.9740522e+01   8.9233371e+00  -1.4471167e+00   1.3072723e+00   0.0000000e+00   0.0000000e+00   5.0000000e+01   0.0000000e+00
  -2.3983005e+01   3.7004959e+00  -7.8524295e+00   6.0214566e+00  -1.6463542e+01  -1.4857266e+00  -1.7537250e+00  -1.0415904e+01  -2.0300271e+00   3.2702293e+00  -6.3958434e+00  -2.3990665e+01  -2.1495851e+01  -1.7942876e+01  -9.0005672e-01   1.2326620e+00  -2.0253547e+01   8.6251095e+00  -6.1155484e-01   1.6879989e+00   0.0000000e+00   0.0000000e+00   5.0000000e+01   0.0000000e+00
  -2.4390176e+01   3.5789892e+00  -7.5319920e+00   5.4695627e+00  -1.6207275e+01  -1.5336589e+00  -1.0280907e+00  -1.0574065e+01  -2.2599832e+00   3.7518289e+00  -5.1064775e+00  -2.3911289e+01  -2.1182212e+01  -1.6557756e+01   1.8135793e-01   2.1719135e+00  -2.0078475e+01   8.7231937e+00   3.7158790e-01   1.9484242e+00   0.0000000e+00   0.0000000e+00   5.0000000e+01   0.0000000e+00
  -2.5041810e+01   3.8622780e+00  -7.5586663e+00   5.3461229e+00  -1.5667627e+01  -1.5592774e+00  -5.3910060e-01  -1.0863163e+01  -2.0378848e+00   4.9520777e+00  -3.7553845e+00  -2.3507681e+01  -2.0548178e+01  -1.4609483e+01   1.1999596e+00   2.8703943e+00  -1.9379466e+01   8.6308194e+00   1.2969792e+00   2.0742811e+00   0.0000000e+00   0.0000000e+00   5.0000000e+01   0.0000000e+00
  -2.5542736e+01   4.5156072e+00  -7.5546393e+00   5.7230444e+00  -1.4831575e+01  -1.3382694e+00   1.6119053e-01  -1.1143806e+01  -1.2604322e+00   6.5106753e+00  -2.5324378e+00  -2.2859926e+01  -1.9934426e+01  -1.2395197e+01   2.2336107e+00   3.5325729e+00  -1.8489240e+01   8.6917939e+00   2.1169455e+00   2.1476558e+00   0.0000000e+00   0.0000000e+00   5.0000000e+01   0.0000000e+00
  -2.5741687e+01   5.1687145e+00  -7.3554126e+00   6.2411145e+00  -1.3800520e+01  -8.3579373e-01   1.1941715e+00  -1.1385287e+01  -2.4475596e-02   7.8962402e+00  -1.5162157e+00  -2.2054890e+01  -1.9321922e+01  -1.0252915e+01   3.2989342e+00   4.2230722e+00  -1.7560127e+01   9.2584727e+00   2.8241146e+00   2.2430405e+00   0.0000000e+00   0.0000000e+00   5.0000000e+01   0.0000000e+00
  -2.5885280e+01   5.3950293e+00  -7.2833735e+00   6.4377183e+00  -1.2795356e+01  -3.3283952e-01   1.9816589e+00  -1.1861975e+01   1.1487987e+00   8.7713438e+00  -8.3794627e-01  -2.1244524e+01  -1.8792910e+01  -8.7238556e+00   3.9831176e+00   4.6397780e+00  -1.6683510e+01   9.6156818e+00   3.1751327e+00   2.3216750e+00   0.0000000e+00   0.0000000e+00   5.0000000e+01   0.0000000e+00
  -2.5995926e+01   5.2545175e+00  -7.5536881e+00   6.4226050e+00  -1.2016818e+01   2.8483061e-02   2.1538950e+00  -1.2687171e+01   1.9716647e+00   9.1915306e+00  -5.4489950e-01  -2.0605049e+01  -1.8535931e+01  -8.1078448e+00   4.1022582e+00   4.6795269e+00  -1.5903521e+01   9.1781626e+00   2.9661019e+00   2.2704559e+00   0.0000000e+00   0.0000000e+00   5.0000000e+01   0.0000000e+00
  -2.5844009e+01   5.3020703e+00  -8.0069855e+00   6.6420785e+00  -1.1473757e+01   3.2339957e-01   2.1313193e+00  -1.3516094e+01   2.5749111e+00   9.3497972e+00  -4.3488146e-01  -2.0121012e+01  -1.8469230e+01  -8.1527774e+00   3.9457190e+00   4.6621535e+00  -1.5116065e+01   8.6014644e+00   2.4917103e+00   2.1199912e+00   0.0000000e+00   0.0000000e+00   5.0000000e+01   0.0000000e+00
  -2.5665507e+01   5.5836362e+00  -8.6507986e+00   7.0843417e+00  -1.1249350e+01   2.6497007e-01   2.0545638e+00  -1.4362432e+01   2.9910019e+00   9.1634683e+00  -6.3867458e-01  -1.9793655e+01  -1.8702128e+01  -8.6878551e+00   3.5635056e+00   4.5469673e+00  -1.4476080e+01   8.4262517e+00   1.8370080e+00   1.6730912e+00   0.0000000e+00   0.0000000e+00   5.0000000e+01   0.0000000e+00
  -2.5972947e+01   5.4388017e+00  -9.4626803e+00   7.3889272e+00  -1.1571959e+01  -4.4596690e-01   1.3860741e+00  -1.5426508e+01   3.0909518e+00   8.5626076e+00  -1.4868049e+00  -1.9792000e+01  -1.9496122e+01  -9.8324849e+00   2.6172415e+00   4.0221306e+00  -1.4325698e+01   8.1088621e+00   8.0996781e-01   7.4875500e-01   0.0000000e+00   0.0000000e+00   5.0000000e+01   0.0000000e+00
  -2.6708573e+01   4.6191511e+00  -1.0154530e+01   7.4195990e+00  -1.2405881e+01  -1.6146401e+00   6.0536739e-02  -1.6403871e+01   2.8659550e+00   7.6819408e+00  -2.8434375e+00  -2.0420292e+01  -2.0822299e+01  -1.1468656e+01   1.1423750e+00   3.2647596e+00  -1.4948705e+01   7.2072741e+00  -4.7528984e-01  -3.7736424e-01   0.0000000e+00   0.0000000e+00   5.0000000e+01   0.0000000e+00
  -2.7310577e+01   3.6089241e+00  -1.0376035e+01   7.5007062e+00  -1.3309442e+01  -2.8112848e+00  -1.3858940e+00  -1.6829988e+01   2.6335229e+00   6.7352457e+00  -4.3596194e+00  -2.1578006e+01  -2.2119494e+01  -1.3190394e+01  -4.0860041e-01   2.5616723e+00  -1.6224598e+01   6.3212641e+00  -1.8116536e+00  -1.4026627e+00   0.0000000e+00   0.0000000e+00   5.0000000e+01   0.0000000e+00
  -2.7273408e+01   3.1637237e+00  -1.0183866e+01   8.0864683e+00  -1.3620158e+01  -3.5630966e+00  -2.5161264e+00  -1.6651192e+01   2.7729152e+00   6.0799525e+00  -5.8046060e+00  -2.2522192e+01  -2.2579158e+01  -1.4564527e+01  -1.6215883e+00   2.0426373e+00  -1.7401004e+01   6.2756492e+00  -2.9531779e+00  -2.1707360e+00   0.0000000e+00   0.0000000e+00   5.0000000e+01   0.0000000e+00
  -2.6771670e+01   3.5486929e+00  -1.0108635e+01   9.1525423e+00  -1.3221625e+01  -3.8503878e+00  -3.5024045e+00  -1.6321512e+01   2.9783652e+00   5.6874403e+00  -7.1549260e+00  -2.2911810e+01  -2.2232837e+01  -1.5615670e+01  -2.5296245e+00   1.6379755e+00  -1.8027934e+01   6.6423687e+00  -3.6309690e+00  -2.5896368e+00   0.0000000e+00   0.0000000e+00   5.0000000e+01   0.0000000e+00
  -2.6301151e+01   4.3544499e+00  -1.0172026e+01   1.0293650e+01  -1.2572252e+01  -3.9812516e+00  -4.5804736e+00  -1.6034372e+01   2.6097197e+00   5.1292368e+00  -8.2653164e+00  -2.3045657e+01  -2.1824645e+01  -1.6705419e+01  -3.3141543e+00   1.4017970e+00  -1.8312642e+01   6.5141421e+00  -3.7982576e+00  -2.6000492e+00   0.0000000e+00   0.0000000e+00   5.0000000e+01   0.0000000e+00
  -2.5870612e+01   5.0460297e+00  -9.9664139e+00   1.1222169e+01  -1.1956255e+01  -4.0139631e+00  -5.4470501e+00  -1.5499384e+01   1.7406207e+00   4.5301197e+00  -8.8222275e+00  -2.2932213e+01  -2.1464892e+01  -1.7761272e+01  -3.7944386e+00   1.5307100e+00  -1.8338556e+01   6.1005438e+00  -3.4324447e+00  -2.2332876e+00   0.0000000e+00   0.0000000e+00   5.0000000e+01   0.0000000e+00
  -2.5354759e+01   5.1551863e+00  -9.8047379e+00   1.1730648e+01  -1.1539955e+01  -4.0603885e+00  -5.9062192e+00  -1.4731428e+01   9.0582265e-01   4.1495670e+00  -8.9234345e+00  -2.2529893e+01  -2.0847119e+01  -1.8449790e+01  -3.8045850e+00   1.8837813e+00  -1.8142673e+01   5.8120012e+00  -2.6889035e+00  -1.7362290e+00   0.0000000e+00   0.0000000e+00   5.0000000e+01   0.0000000e+00
  -2.4946565e+01   4.4293534e+00  -1.0228452e+01   1.1574214e+01  -1.1344451e+01  -4.2123474e+00  -6.3058282e+00  -1.4181461e+01   1.8404527e-01   3.6953102e+00  -9.1222564e+00  -2.2190082e+01  -2.0132587e+01  -1.8854937e+01  -3.6784499e+00   2.0014945e+00  -1.7991163e+01   5.1550465e+00  -2.0520970e+00  -1.4196113e+00   0.0000000e+00   0.0000000e+00   5.0000000e+01   0.0000000e+00
  -2.4858659e+01   3.3379887e+00  -1.0953461e+01   1.0699142e+01  -1.1346275e+01  -4.4410489e+00  -6.7740020e+00  -1.4013542e+01  -5.8420346e-01   2.9581904e+00  -9.5754727e+00  -2.2187535e+01  -1.9580385e+01  -1.9260029e+01  -3.6728948e+00   1.7632260e+00  -1.8221269e+01   3.7656896e+00  -1.8243624e+00  -1.4060251e+00   0.0000000e+00   0.0000000e+00   5.0000000e+01   0.0000000e+00
  -2.4986071e+01   2.6371523e+00  -1.1285758e+01   9.4424956e+00  -1.1502516e+01  -4.8102485e+00  -7.0683777e+00  -1.3874109e+01  -1.3338194e+00   2.1330301e+00  -9.9782351e+00  -2.2473196e+01  -1.9094338e+01  -1.9695088e+01  -3.6572258e+00   1.4643418e+00  -1.8915681e+01   2.3547438e+00  -1.8713013e+00  -1.5956906e+00   0.0000000e+00   0.0000000e+00   5.0000000e+01   0.0000000e+00
  -2.5391780e+01   2.2483804e+00  -1.1055128e+01   8.0935403e+00  -1.1828759e+01  -5.4064878e+00  -7.1760403e+00  -1.3737769e+01  -2.2215122e+00   1.1086780e+00  -1.0226237e+01  -2.3148832e+01  -1.8888426e+01  -2.0238775e+01  -3.7038296e+00   1.2329949e+00  -1.9953242e+01   1.6417951e+00  -2.1239090e+00  -1.9583146e+00   0.0000000e+00   0.0000000e+00   5.0000000e+01   0.0000000e+00
  -2.6214145e+01   1.6962146e+00  -1.0727277e+01   6.6586032e+00  -1.2448394e+01  -6.2091227e+00  -7.3900183e+00  -1.3740668e+01  -3.4847745e+00  -2.8552691e-01  -1.0399631e+01  -2.4458890e+01  -1.9417031e+01  -2.0933915e+01  -3.9779783e+00   9.2986302e-01  -2.1215836e+01   1.4271278e+00  -2.5482854e+00  -2.4554191e+00   0.0000000e+00   0.0000000e+00   5.0000000e+01   0.0000000e+00
  -2.7077907e+01   1.0016944e+00  -1.0475144e+01   5.1107196e+00  -1.3113954e+01  -6.8954799e+00  -7.6383430e+00  -1.3579073e+01  -5.0631221e+00  -1.6661869e+00  -1.0324246e+01  -2.6481398e+01  -2.0564673e+01  -2.1423648e+01  -4.1096775e+00   7.7035745e-01  -2.2422611e+01   1.4312220e+00  -2.6595220e+00  -2.6692129e+00   0.0000000e+00   0.0000000e+00   5.0000000e+01   0.0000000e+00
  -2.7685035e+01   5.2384030e-01  -1.0025001e+01   3.3036235e+00  -1.3621193e+01  -7.1243323e+00  -7.5114394e+00  -1.2951282e+01  -6.4724626e+00  -2.4419570e+00  -9.7699271e+00  -2.8877526e+01  -2.1759120e+01  -2.1397779e+01  -3.6915632e+00   1.0280815e+00  -2.3337518e+01   1.9250212e+00  -2.0295056e+00  -2.2755892e+00   0.0000000e+00   0.0000000e+00   5.0000000e+01   0.0000000e+00
  -2.7909806e+01   3.8019588e-01  -9.2138355e+00   1.6034193e+00  -1.3914055e+01  -6.7854101e+00  -6.8417207e+00  -1.2083570e+01  -7.1157049e+00  -2.3753364e+00  -8.9988712e+00  -3.0720325e+01  -2.2468153e+01  -2.1022962e+01  -2.8017082e+00   1.5642113e+00  -2.3818369e+01   3.1033674e+00  -8.1786372e-01  -1.4878326e+00   0.0000000e+00   0.0000000e+00   5.0000000e+01   0.0000000e+00
  -2.7670835e+01   3.8130880e-01  -8.2109818e+00   6.8258971e-01  -1.3803904e+01  -6.1083122e+00  -6.0548820e+00  -1.1484162e+01  -7.2257238e+00  -1.9141159e+00  -8.5668588e+00  -3.1818694e+01  -2.2647368e+01  -2.0697504e+01  -1.9616439e+00   1.9034027e+00  -2.3833559e+01   4.2986052e+00   4.8411354e-01  -6.7630349e-01   0.0000000e+00   0.0000000e+00   5.0000000e+01   0.0000000e+00
  -2.7338083e+01   2.7057931e-01  -7.4614992e+00   5.0386383e-01  -1.3440602e+01  -5.5965528e+00  -5.5905284e+00  -1.1389817e+01  -7.2816111e+00  -1.7295347e+00  -8.5883754e+00  -3.2690581e+01  -2.2679078e+01  -2.0670102e+01  -1.5613215e+00   1.8951809e+00  -2.3711503e+01   4.6743518e+00   1.3616640e+00   5.9127061e-03   0.0000000e+00   0.0000000e+00   5.0000000e+01   0.0000000e+00
  -2.7187261e+01   1.8170090e-01  -7.1764023e+00   8.1633125e-01  -1.3091630e+01  -5.4579766e+00  -5.3039205e+00  -1.1617541e+01  -7.2901638e+00  -1.9493862e+00  -8.7614130e+00  -3.3334863e+01  -2.2669868e+01  -2.0783220e+01  -1.4823355e+00   1.9320642e+00  -2.3683542e+01   4.5228689e+00   1.6314564e+00   5.9894583e-01   0.0000000e+00   0.0000000e+00   5.0000000e+01   0.0000000e+00
  -2.7206401e+01   3.0788342e-01  -7.0774289e+00   1.3338694e+00  -1.2739818e+01  -5.5359180e+00  -4.8954384e+00  -1.1803265e+01  -7.1296928e+00  -2.0618292e+00  -8.9182555e+00  -3.3453606e+01  -2.2324965e+01  -2.0626147e+01  -1.4154313e+00   2.2665288e+00  -2.3577802e+01   4.5382353e+00   1.5471085e+00   1.0637986e+00   0.0000000e+00   0.0000000e+00   5.0000000e+01   0.0000000e+00
  -2.7175490e+01   4.4137316e-01  -6.8999616e+00   1.9678823e+00  -1.2077308e+01  -5.4664299e+00  -4.3386601e+00  -1.1901469e+01  -6.7662158e+00  -1.7275180e+00  -9.1672205e+00  -3.3015847e+01  -2.1523607e+01  -2.0138324e+01  -1.3678768e+00   2.5851292e+00  -2.3004321e+01   4.5800473e+00   1.4704651e+00   1.2631228e+00   0.0000000e+00   0.0000000e+00   5.0000000e+01   0.0000000e+00
  -2.6670494e+01   4.4467769e-01  -6.6678529e+00   2.7244331e+00  -1.0946678e+01  -4.8459635e+00  -3.5214471e+00  -1.1981521e+01  -6.2839759e+00  -1.1448076e+00  -9.6298427e+00  -3.2277572e+01  -2.0471652e+01  -1.9406687e+01  -1.4267888e+00   2.4822528e+00  -2.1824911e+01   4.3332879e+00   1.5513012e+00   1.1226175e+00   0.0000000e+00   0.0000000e+00   5.0000000e+01   0.0000000e+00
  -2.5502515e+01   4.6814864e-01  -6.3617525e+00   3.3918746e+00  -9.5173860e+00  -3.5016413e+00  -2.2695904e+00  -1.1926083e+01  -5.5971724e+00  -4.5269928e-01  -1.0158382e+01  -3.1237855e+01  -1.9165856e+01  -1.8259040e+01  -1.4116207e+00   1.9505662e+00  -2.0280797e+01   4.3015887e+00   1.8811256e+00   7.7271614e-01   0.0000000e+00   0.0000000e+00   5.0000000e+01   0.0000000e+00
  -2.3803942e+01   7.1369588e-01  -5.9527939e+00   3.9712156e+00  -7.7912372e+00  -1.6304905e+00  -6.8447937e-01  -1.1751815e+01  -4.3993620e+00   3.7325768e-01  -1.0429357e+01  -2.9732559e+01  -1.7496901e+01  -1.6703972e+01  -1.0839747e+00   1.3517637e+00  -1.8572022e+01   5.0579248e+00   2.5141496e+00   3.5410826e-01   0.0000000e+00   0.0000000e+00   5.0000000e+01   0.0000000e+00
  -2.2105236e+01   1.3013130e+00  -5.7244662e+00   4.5084692e+00  -5.8411467e+00   2.6648374e-01   6.7401241e-01  -1.1714884e+01  -2.9318325e+00   1.1547818e+00  -1.0377149e+01  -2.8135882e+01  -1.5839684e+01  -1.5125561e+01  -5.5462955e-01   9.7162674e-01  -1.6836476e+01   6.0113624e+00   3.3243287e+00  -1.3277424e-01   0.0000000e+00   0.0000000e+00   5.0000000e+01   0.0000000e+00
  -2.0819888e+01   2.1189750e+00  -5.8096402e+00   5.0052901e+00  -3.9715136e+00   1.9388175e+00   1.5988471e+00  -1.1889000e+01  -1.8755504e+00   1.6316424e+00  -1.0012616e+01  -2.6997526e+01  -1.4598419e+01  -1.3765002e+01   9.1797872e-02   1.0267583e+00  -1.5348043e+01   6.3342904e+00   4.1085343e+00  -5.4963634e-01   0.0000000e+00   0.0000000e+00   5.0000000e+01   0.0000000e+00
  -1.9919788e+01   2.6236216e+00  -5.9754557e+00   5.4166636e+00  -2.3673235e+00   3.4258697e+00   2.2796834e+00  -1.2065535e+01  -1.5955041e+00   1.7281978e+00  -9.4043829e+00  -2.6439546e+01  -1.3951326e+01  -1.2783809e+01   7.8866168e-01   1.5116562e+00  -1.4322172e+01   6.2573015e+00   4.6310121e+00  -8.0270728e-01   0.0000000e+00   0.0000000e+00   5.0000000e+01   0.0000000e+00
  -1.9377923e+01   2.4429342e+00  -6.0161378e+00   5.6138134e+00  -1.2535758e+00   4.5307731e+00   2.6136875e+00  -1.2217126e+01  -2.0338860e+00   1.5532277e+00  -8.8360364e+00  -2.6518797e+01  -1.3988834e+01  -1.2357495e+01   1.3532868e+00   2.1626653e+00  -1.3834952e+01   6.3594287e+00   4.7445264e+00  -9.5406398e-01   0.0000000e+00   0.0000000e+00   5.0000000e+01   0.0000000e+00
  -1.9138721e+01   1.6378430e+00  -5.9616471e+00   5.6378408e+00  -7.5451823e-01   5.2216812e+00   2.3846090e+00  -1.2451519e+01  -2.5584444e+00   1.3702384e+00  -8.5536405e+00  -2.6915276e+01  -1.4276719e+01  -1.2368456e+01   1.4955158e+00   2.6653289e+00  -1.3717977e+01   6.5622652e+00   4.5661771e+00  -1.0301394e+00   0.0000000e+00   0.0000000e+00   5.0000000e+01   0.0000000e+00
  -1.9012086e+01   5.9885403e-01  -5.8747945e+00   5.6275137e+00  -5.0320410e-01   5.7132932e+00   1.8014529e+00  -1.2609471e+01  -2.3534562e+00   1.5380650e+00  -8.3911420e+00  -2.6903123e+01  -1.4023265e+01  -1.2394328e+01   1.3256578e+00   2.8335668e+00  -1.3566247e+01   6.6579620e+00   4.3143955e+00  -1.0902628e+00   0.0000000e+00   0.0000000e+00   5.0000000e+01   0.0000000e+00
  -1.8662633e+01  -2.7481448e-01  -5.8489111e+00   5.8542719e+00   1.2045803e-01   6.1425203e+00   1.3306772e+00  -1.2462499e+01  -1.1121802e+00   2.4948465e+00  -7.9310140e+00  -2.6010809e+01  -1.2901081e+01  -1.1968979e+01   1.3396975e+00   2.8344613e+00  -1.3039138e+01   7.0660657e+00   4.2058334e+00  -1.1876729e+00   0.0000000e+00   0.0000000e+00   5.0000000e+01   0.0000000e+00
  -1.8249895e+01  -1.0038458e+00  -6.1449958e+00   6.4176241e+00   1.0672326e+00   6.5477557e+00   1.1251748e+00  -1.2222876e+01   7.8427520e-01   4.1612402e+00  -7.1659199e+00  -2.4428581e+01  -1.1482041e+01  -1.1215797e+01   1.6970364e+00   2.8222542e+00  -1.2213625e+01   8.0102129e+00   4.3905522e+00  -1.2372839e+00   0.0000000e+00   0.0000000e+00   5.0000000e+01   0.0000000e+00
  -1.8116597e+01  -1.5420788e+00  -6.7948774e+00   6.9772587e+00   1.6737386e+00   6.8669440e+00   9.8475607e-01  -1.2133384e+01   2.6840132e+00   5.8452107e+00  -6.5455156e+00  -2.2780544e+01  -1.0472343e+01  -1.0706624e+01   2.0865942e+00   2.6593555e+00  -1.1456943e+01   8.8607407e+00   4.8193913e+00  -1.1804565e+00   0.0000000e+00   0.0000000e+00   5.0000000e+01   0.0000000e+00
  -1.7983310e+01  -1.5011835e+00  -7.3381134e+00   7.3773143e+00   1.6862079e+00   7.1408785e+00   9.5983687e-01  -1.1940409e+01   4.1377139e+00   6.9073157e+00  -6.2362387e+00  -2.1422033e+01  -9.9485975e+00  -1.0609528e+01   2.3746423e+00   2.4990287e+00  -1.1056650e+01   9.1982457e+00   5.3214295e+00  -1.0732808e+00   0.0000000e+00   0.0000000e+00   5.0000000e+01   0.0000000e+00
  -1.7497892e+01  -5.6971021e-01  -7.2702058e+00   7.8845617e+00   1.3545252e+00   7.3697948e+00   1.3338153e+00  -1.1316200e+01   5.0238946e+00   7.0920485e+00  -6.0060666e+00  -2.0320618e+01  -9.7892817e+00  -1.0613777e+01   2.7365440e+00   2.7133433e+00  -1.1099861e+01   9.5409733e+00   5.7260928e+00  -8.4483563e-01   0.0000000e+00   0.0000000e+00   5.0000000e+01   0.0000000e+00
  -1.6938521e+01   6.7034706e-01  -6.6966104e+00   8.3676624e+00   8.3832623e-01   7.3664017e+00   1.9949293e+00  -1.0388097e+01   5.2593517e+00   6.4191869e+00  -5.8368614e+00  -1.9663530e+01  -1.0113660e+01  -1.0724078e+01   3.0503230e+00   3.2045382e+00  -1.1554012e+01   1.0221227e+01   5.8546743e+00  -4.4405936e-01   0.0000000e+00   0.0000000e+00   5.0000000e+01   0.0000000e+00
  -1.6821932e+01   1.2519247e+00  -6.0862524e+00   8.4006120e+00   8.4579749e-02   7.0375702e+00   2.3410982e+00  -9.4910468e+00   4.8121907e+00   5.2534903e+00  -5.8058251e+00  -1.9575787e+01  -1.0927520e+01  -1.1149386e+01   2.9370262e+00   3.6487457e+00  -1.2329639e+01   1.0616641e+01   5.7421578e+00   1.0211420e-01   0.0000000e+00   0.0000000e+00   5.0000000e+01   0.0000000e+00
  -1.6957923e+01   1.1711569e+00  -5.6176238e+00   8.2275097e+00  -4.7714001e-01   6.5480940e+00   2.1522436e+00  -8.7581849e+00   3.9527243e+00   4.2244008e+00  -5.6583802e+00  -1.9742236e+01  -1.1854993e+01  -1.1609121e+01   2.5267253e+00   4.1215696e+00  -1.3067387e+01   1.0329731e+01   5.6090837e+00   8.9468618e-01   0.0000000e+00   0.0000000e+00   5.0000000e+01   0.0000000e+00
  -1.7170974e+01   7.2010357e-01  -5.3899866e+00   8.0004669e+00  -6.0687150e-01   5.9562185e+00   1.6018992e+00  -8.2368520e+00   2.8830738e+00   3.3955998e+00  -5.3234284e+00  -2.0043654e+01  -1.2709835e+01  -1.1848244e+01   2.0976739e+00   4.5555248e+00  -1.3578977e+01   9.7289217e+00   5.3778696e+00   1.7851168e+00   0.0000000e+00   0.0000000e+00   5.0000000e+01   0.0000000e+00
  -1.7645889e+01   2.5579332e-01  -5.4359215e+00   7.5318231e+00  -6.1597370e-01   5.4790828e+00   1.1155703e+00  -7.9041164e+00   1.8655602e+00   2.7890475e+00  -4.8873805e+00  -2.0264977e+01  -1.3358621e+01  -1.1766229e+01   1.8406862e+00   4.9398118e+00  -1.3898100e+01   9.3632715e+00   5.1143736e+00   2.6457399e+00   0.0000000e+00   0.0000000e+00   5.0000000e+01   0.0000000e+00
  -1.8500152e+01   9.7836532e-02  -5.6056569e+00   6.9163908e+00  -7.2455495e-01   5.3681104e+00   1.0380915e+00  -7.5291066e+00   1.1332125e+00   2.6433848e+00  -4.3869789e+00  -2.0108036e+01  -1.3530472e+01  -1.1293975e+01   1.8609807e+00   5.3618413e+00  -1.3998474e+01   9.1654670e+00   5.1990390e+00   3.6938092e+00   0.0000000e+00   0.0000000e+00   5.0000000e+01   0.0000000e+00
  -1.9787366e+01   9.3221562e-02  -5.7293972e+00   6.1218290e+00  -1.0303855e+00   5.4111364e+00   1.2967304e+00  -6.8675590e+00   5.0054814e-01   2.7943607e+00  -3.8410302e+00  -1.9967850e+01  -1.3208335e+01  -1.0535104e+01   2.0809017e+00   5.7600784e+00  -1.4112003e+01   8.7003386e+00   5.6435672e+00   5.0052915e+00   0.0000000e+00   0.0000000e+00   5.0000000e+01   0.0000000e+00
  -2.1231923e+01   1.1975205e-01  -5.6717474e+00   5.0981065e+00  -1.2985760e+00   5.4805691e+00   1.7785266e+00  -6.0375269e+00  -1.4250934e-01   2.8787760e+00  -3.1787057e+00  -2.0244348e+01  -1.2627515e+01  -9.5291353e+00   2.4953841e+00   6.0207474e+00  -1.4276893e+01   8.2589073e+00   6.1879206e+00   6.4131197e+00   0.0000000e+00   0.0000000e+00   5.0000000e+01   0.0000000e+00
  -2.2299022e+01   2.1361969e-01  -5.5622255e+00   4.2825805e+00  -1.1746571e+00   5.7519543e+00   2.4342046e+00  -5.2167237e+00  -4.5506896e-01   2.7915178e+00  -2.3122444e+00  -2.0605010e+01  -1.1986019e+01  -8.4137307e+00   3.2244652e+00   6.2579187e+00  -1.4145752e+01   8.4643286e+00   6.7571294e+00   7.7390219e+00   0.0000000e+00   0.0000000e+00   5.0000000e+01   0.0000000e+00
  -2.2917772e+01   8.9261107e-02  -5.8256449e+00   3.9236983e+00  -7.6626435e-01   6.1544246e+00   2.8705578e+00  -4.6015211e+00  -4.3712808e-01   2.6093744e+00  -1.5440014e+00  -2.0702335e+01  -1.1301214e+01  -7.4575221e+00   3.9451728e+00   6.4730114e+00  -1.3630840e+01   9.0579076e+00   7.2953486e+00   8.6598090e+00   0.0000000e+00   0.0000000e+00   5.0000000e+01   0.0000000e+00
  -2.3410954e+01  -4.9003700e-01  -6.4176598e+00   3.8041698e+00  -4.1424440e-01   6.4402288e+00   2.8236162e+00  -4.3758380e+00  -4.3710548e-01   2.2511717e+00  -1.2501219e+00  -2.0532782e+01  -1.0607484e+01  -6.7615094e+00   4.2738399e+00   6.5120408e+00  -1.2910038e+01   9.5111119e+00   7.5818521e+00   9.0008497e+00   0.0000000e+00   0.0000000e+00   5.0000000e+01   0.0000000e+00
  -2.3806909e+01  -1.2787868e+00  -6.9111386e+00   3.7337378e+00  -1.9316464e-01   6.5338372e+00   2.4115756e+00  -4.5013223e+00  -5.4002069e-01   1.7390954e+00  -1.4098753e+00  -2.0268159e+01  -9.9564817e+00  -6.3686278e+00   4.1094553e+00   6.2462866e+00  -1.2223650e+01   9.9745112e+00   7.4349832e+00   8.9336476e+00   0.0000000e+00   0.0000000e+00   5.0000000e+01   0.0000000e+00
  -2.4169067e+01  -2.0896123e+00  -7.3932309e+00   3.5818994e+00  -3.0592721e-01   6.2952087e+00   1.6589358e+00  -4.8449362e+00  -7.1773994e-01   1.1421234e+00  -1.9142496e+00  -2.0204545e+01  -9.7111340e+00  -6.4427329e+00   3.3199117e+00   5.4541905e+00  -1.2009731e+01   1.0618939e+01   6.6489442e+00   8.4798418e+00   0.0000000e+00   0.0000000e+00   5.0000000e+01   0.0000000e+00
  -2.4711424e+01  -2.8378033e+00  -8.2115205e+00   3.2566759e+00  -7.7927285e-01   5.6619505e+00   4.6057252e-01  -5.1707842e+00  -1.0312361e+00   5.7312732e-01  -2.5727086e+00  -2.0445066e+01  -1.0159580e+01  -6.9340987e+00   2.0011053e+00   4.2115265e+00  -1.2344684e+01   1.1067604e+01   5.3958223e+00   7.7687887e+00   0.0000000e+00   0.0000000e+00   5.0000000e+01   0.0000000e+00
  -2.5519041e+01  -3.3100083e+00  -9.2099192e+00   2.6227471e+00  -1.3893445e+00   4.8603892e+00  -8.1171787e-01  -5.1821001e+00  -1.4651135e+00   3.0401213e-01  -2.8707902e+00  -2.0838913e+01  -1.0862173e+01  -7.3434666e+00   7.9086037e-01   3.1245174e+00  -1.2774139e+01   1.1028516e+01   4.3776783e+00   7.2733642e+00   0.0000000e+00   0.0000000e+00   5.0000000e+01   0.0000000e+00
  -2.6524893e+01  -3.7198687e+00  -9.9334879e+00   1.6662108e+00  -2.2436394e+00   4.0326280e+00  -1.7256501e+00  -4.7209407e+00  -1.8427900e+00   4.6442359e-01  -2.4316396e+00  -2.1418490e+01  -1.1559271e+01  -7.5926700e+00   1.2885039e-01   2.7168440e+00  -1.3179474e+01   1.0788122e+01   3.9189803e+00   7.2971226e+00   0.0000000e+00   0.0000000e+00   5.0000000e+01   0.0000000e+00
  -2.7597344e+01  -4.6906326e+00  -1.0271004e+01   3.8542749e-01  -3.5377935e+00   3.0524482e+00  -2.4217131e+00  -3.9569578e+00  -2.1471604e+00   8.5767954e-01  -1.3587674e+00  -2.2481901e+01  -1.2618197e+01  -8.2167850e+00  -1.4355673e-01   3.1526540e+00  -1.3970652e+01   1.0508779e+01   3.7316736e+00   7.7334243e+00   0.0000000e+00   0.0000000e+00   5.0000000e+01   0.0000000e+00
  -2.8714200e+01  -6.1314974e+00  -1.0526216e+01  -1.3559467e+00  -5.2527503e+00   1.7490242e+00  -3.4062635e+00  -3.3224318e+00  -2.3499721e+00   1.1204652e+00  -2.0501616e-01  -2.3953022e+01  -1.4062264e+01  -9.3517003e+00  -4.4684892e-01   4.0822585e+00  -1.5358101e+01   9.7166710e+00   3.4482074e+00   8.2644645e+00   0.0000000e+00   0.0000000e+00   5.0000000e+01   0.0000000e+00
