nt = 720
nc = 24
channels = F7 T3 T5 Fp1 F3 C3 P3 O1 F8 T4 T6 Fp2 F4 C4 P4 O2 Fz Cz Pz Oz TR SOn Occ RAp
ne = 20
type = N
fsmp = 120.0000000000
band = 0.1 0.2 44 58 0
orig.file = s5_bl1-2
orig.nt = 555755
orig.sample_range = 239150 242745
orig.fsmp = 600
orig.subject = 5
orig.run = 44
  -2.5298913e+01  -3.3291101e+01  -2.6903355e+01  -8.2631858e+00  -2.4887588e+01  -2.5168892e+01  -3.8973911e+01  -2.1061126e+01  -4.0000233e+01   1.8097800e+01  -2.6057388e+01  -1.1669387e+01  -2.0126738e+01  -2.1089403e+01  -2.1442149e+01  -2.7756125e+01  -1.8385897e+01  -2.3529615e+01  -2.2927403e+01  -2.0693936e+01   0.0000000e+00   0.0000000e+00   0.0000000e+00   0.0000000e+00
  -3.1879566e+01  -4.2231632e+01  -3.3138943e+01  -1.4330559e+00  -3.2307377e+01  -3.3349889e+01  -4.7686112e+01  -2.9377056e+01  -4.5916343e+01   1.8799169e+01  -3.4322364e+01  -1.5073571e+01  -2.6897841e+01  -2.7958488e+01  -2.7503620e+01  -3.6459830e+01  -2.5363527e+01  -3.1852559e+01  -3.0297125e+01  -2.8400640e+01   0.0000000e+00   0.0000000e+00   0.0000000e+00   0.0000000e+00
  -3.6022442e+01  -4.7815433e+01  -3.6656429e+01   2.7485020e+00  -3.6822374e+01  -3.7795911e+01  -5.2527774e+01  -3.4538152e+01  -5.0253068e+01   1.9699141e+01  -3.8977745e+01  -1.7428753e+01  -3.0750599e+01  -3.1397528e+01  -3.0130485e+01  -4.1852658e+01  -2.9595846e+01  -3.6489717e+01  -3.3689248e+01  -3.2864543e+01   0.0000000e+00   0.0000000e+00   0.0000000e+00   0.0000000e+00
  -3.8241763e+01  -5.1181502e+01  -3.8534853e+01   5.5738896e+00  -3.9072359e+01  -3.9758149e+01  -5.4864466e+01  -3.7635094e+01  -5.3509866e+01   2.0496214e+01  -4.1409708e+01  -1.8496231e+01  -3.2782676e+01  -3.2839100e+01  -3.0861674e+01  -4.5048560e+01  -3.1764813e+01  -3.8537625e+01  -3.4719234e+01  -3.5349914e+01   0.0000000e+00   0.0000000e+00   0.0000000e+00   0.0000000e+00
  -3.9259769e+01  -5.3333047e+01  -3.9718623e+01   7.8871329e+00  -3.9879579e+01  -4.0518270e+01  -5.6186082e+01  -3.9722263e+01  -5.6329558e+01   2.0838049e+01  -4.2944303e+01  -1.8890253e+01  -3.4057030e+01  -3.3737389e+01  -3.1211646e+01  -4.7190352e+01  -3.2692618e+01  -3.9297324e+01  -3.4933007e+01  -3.7052849e+01   0.0000000e+00   0.0000000e+00   0.0000000e+00   0.0000000e+00
  -3.9906421e+01  -5.4779269e+01  -4.0625162e+01   9.8716713e+00  -3.9907862e+01  -4.0872970e+01  -5.7444597e+01  -4.1485578e+01  -5.8972446e+01   2.0684336e+01  -4.4475127e+01  -1.9177053e+01  -3.4843061e+01  -3.4674790e+01  -3.2078578e+01  -4.9070293e+01  -3.3029488e+01  -3.9693271e+01  -3.5215485e+01  -3.8653814e+01   0.0000000e+00   0.0000000e+00   0.0000000e+00   0.0000000e+00
  -4.0266767e+01  -5.5797513e+01  -4.1127199e+01   1.1322980e+01  -3.9737617e+01  -4.1226465e+01  -5.8580336e+01  -4.2983791e+01  -6.1576869e+01   2.0258745e+01  -4.6056880e+01  -1.9579637e+01  -3.4981917e+01  -3.5542057e+01  -3.3495653e+01  -5.0895544e+01  -3.3155172e+01  -3.9908435e+01  -3.5827946e+01  -4.0161481e+01   0.0000000e+00   0.0000000e+00   0.0000000e+00   0.0000000e+00
  -4.0588040e+01  -5.6821657e+01  -4.1385898e+01   1.2408892e+01  -3.9807066e+01  -4.1923029e+01  -5.9977673e+01  -4.4330388e+01  -6.4458242e+01   1.9730295e+01  -4.7732346e+01  -1.9847044e+01  -3.4766425e+01  -3.6341531e+01  -3.5221096e+01  -5.2572364e+01  -3.3435204e+01  -4.0137581e+01  -3.6978813e+01  -4.1486206e+01   0.0000000e+00   0.0000000e+00   0.0000000e+00   0.0000000e+00
  -4.0912400e+01  -5.8071561e+01  -4.1670287e+01   1.3384704e+01  -4.0045698e+01  -4.3059953e+01  -6.1900611e+01  -4.5522412e+01  -6.7455223e+01   1.9137183e+01  -4.9318062e+01  -1.9813906e+01  -3.4749469e+01  -3.7126819e+01  -3.6949688e+01  -5.3929462e+01  -3.3811587e+01  -4.0451169e+01  -3.8700097e+01  -4.2527040e+01   0.0000000e+00   0.0000000e+00   0.0000000e+00   0.0000000e+00
  -4.1373277e+01  -5.9580164e+01  -4.2124374e+01   1.4093426e+01  -4.0272778e+01  -4.4457833e+01  -6.4356777e+01  -4.6586120e+01  -7.0301772e+01   1.8438072e+01  -5.0671503e+01  -1.9960163e+01  -3.5316135e+01  -3.8006899e+01  -3.8497265e+01  -5.4886529e+01  -3.4218645e+01  -4.0935265e+01  -4.0783079e+01  -4.3275141e+01   0.0000000e+00   0.0000000e+00   0.0000000e+00   0.0000000e+00
  -4.1688221e+01  -6.1095553e+01  -4.2513016e+01   1.4198259e+01  -4.0607632e+01  -4.5896267e+01  -6.6784027e+01  -4.7436767e+01  -7.3030482e+01   1.7748027e+01  -5.1541884e+01  -2.0781241e+01  -3.6389409e+01  -3.9006348e+01  -3.9753830e+01  -5.5557923e+01  -3.4817080e+01  -4.1463054e+01  -4.2924768e+01  -4.3772736e+01   0.0000000e+00   0.0000000e+00   0.0000000e+00   0.0000000e+00
  -4.1928120e+01  -6.2501163e+01  -4.2721676e+01   1.3489229e+01  -4.1318957e+01  -4.7268140e+01  -6.8998003e+01  -4.8186392e+01  -7.5641402e+01   1.7177432e+01  -5.1972498e+01  -2.2199342e+01  -3.7706587e+01  -4.0111760e+01  -4.0661290e+01  -5.6102981e+01  -3.5844280e+01  -4.2024087e+01  -4.4789758e+01  -4.4146623e+01   0.0000000e+00   0.0000000e+00   0.0000000e+00   0.0000000e+00
  -4.2066700e+01  -6.3678337e+01  -4.2721025e+01   1.2080869e+01  -4.2443146e+01  -4.8423228e+01  -7.0625669e+01  -4.8800250e+01  -7.8262654e+01   1.6586690e+01  -5.1937470e+01  -2.3899482e+01  -3.9196824e+01  -4.1234666e+01  -4.1119243e+01  -5.6480421e+01  -3.7287628e+01  -4.2505623e+01  -4.5997009e+01  -4.4363432e+01   0.0000000e+00   0.0000000e+00   0.0000000e+00   0.0000000e+00
  -4.2169328e+01  -6.4613963e+01  -4.2635263e+01   1.0385172e+01  -4.3638523e+01  -4.9247225e+01  -7.1679341e+01  -4.9375978e+01  -8.1184411e+01   1.5856792e+01  -5.1691348e+01  -2.5366974e+01  -4.0838753e+01  -4.2332180e+01  -4.1214871e+01  -5.6709860e+01  -3.8981207e+01  -4.2908551e+01  -4.6482625e+01  -4.4474203e+01   0.0000000e+00   0.0000000e+00   0.0000000e+00   0.0000000e+00
  -4.1893765e+01  -6.5275926e+01  -4.2424727e+01   9.0162193e+00  -4.4379269e+01  -4.9686040e+01  -7.1988355e+01  -4.9805975e+01  -8.4079135e+01   1.5033988e+01  -5.1203113e+01  -2.6530695e+01  -4.2220922e+01  -4.3253146e+01  -4.0987076e+01  -5.6779741e+01  -4.0463650e+01  -4.2984483e+01  -4.6307046e+01  -4.4443479e+01   0.0000000e+00   0.0000000e+00   0.0000000e+00   0.0000000e+00
  -4.1497108e+01  -6.5914785e+01  -4.2133156e+01   8.2202469e+00  -4.4741640e+01  -4.9913895e+01  -7.1803538e+01  -5.0133400e+01  -8.6547974e+01   1.4212979e+01  -5.0687420e+01  -2.7898257e+01  -4.3115934e+01  -4.4057487e+01  -4.0685192e+01  -5.6779631e+01  -4.1633047e+01  -4.2807092e+01  -4.5793518e+01  -4.4362069e+01   0.0000000e+00   0.0000000e+00   0.0000000e+00   0.0000000e+00
  -4.1295286e+01  -6.6742037e+01  -4.1746814e+01   7.6264560e+00  -4.5262718e+01  -5.0164376e+01  -7.1352875e+01  -5.0407906e+01  -8.8766373e+01   1.3189172e+01  -5.0461395e+01  -2.9359989e+01  -4.3909768e+01  -4.4998066e+01  -4.0699168e+01  -5.6877799e+01  -4.2764947e+01  -4.2687767e+01  -4.5394188e+01  -4.4409335e+01   0.0000000e+00   0.0000000e+00   0.0000000e+00   0.0000000e+00
  -4.1530992e+01  -6.7785727e+01  -4.1334192e+01   6.9755905e+00  -4.6200178e+01  -5.0525805e+01  -7.1016495e+01  -5.0718960e+01  -9.0984593e+01   1.1798431e+01  -5.0857586e+01  -3.0241126e+01  -4.5090930e+01  -4.6212667e+01  -4.1321196e+01  -5.7166590e+01  -4.4119667e+01  -4.2968581e+01  -4.5468076e+01  -4.4754736e+01   0.0000000e+00   0.0000000e+00   0.0000000e+00   0.0000000e+00
  -4.1805974e+01  -6.8801127e+01  -4.0864878e+01   6.3095859e+00  -4.7247418e+01  -5.0918591e+01  -7.0837512e+01  -5.1002038e+01  -9.2958268e+01   1.0106356e+01  -5.1731706e+01  -3.0588249e+01  -4.6478624e+01  -4.7552788e+01  -4.2517657e+01  -5.7618857e+01  -4.5489372e+01  -4.3531354e+01  -4.6101916e+01  -4.5358758e+01   0.0000000e+00   0.0000000e+00   0.0000000e+00   0.0000000e+00
  -4.1916103e+01  -6.9726774e+01  -4.0409201e+01   5.8199877e+00  -4.8031536e+01  -5.1336485e+01  -7.1095187e+01  -5.1301270e+01  -9.4481634e+01   8.2098951e+00  -5.2980349e+01  -3.0591933e+01  -4.7819273e+01  -4.8907637e+01  -4.4139770e+01  -5.8221288e+01  -4.6666081e+01  -4.4261964e+01  -4.7300077e+01  -4.6152844e+01   0.0000000e+00   0.0000000e+00   0.0000000e+00   0.0000000e+00
  -4.1493919e+01  -7.0531244e+01  -4.0033819e+01   5.4608762e+00  -4.8471633e+01  -5.1739864e+01  -7.1608974e+01  -5.1507752e+01  -9.5502005e+01   6.3008941e+00  -5.4185822e+01  -3.0706667e+01  -4.8894702e+01  -5.0028970e+01  -4.5765801e+01  -5.8856661e+01  -4.7416637e+01  -4.4914431e+01  -4.8824694e+01  -4.6927602e+01   0.0000000e+00   0.0000000e+00   0.0000000e+00   0.0000000e+00
  -4.0850971e+01  -7.1418423e+01  -4.0104497e+01   4.8409165e+00  -4.8797264e+01  -5.2180431e+01  -7.2636052e+01  -5.1813735e+01  -9.6189992e+01   4.7076473e+00  -5.5106627e+01  -3.1561073e+01  -4.9563719e+01  -5.0571510e+01  -4.6933191e+01  -5.9367537e+01  -4.7816072e+01  -4.5510303e+01  -5.0252426e+01  -4.7588601e+01   0.0000000e+00   0.0000000e+00   0.0000000e+00   0.0000000e+00
  -4.0080938e+01  -7.2414403e+01  -4.0654164e+01   3.6322517e+00  -4.9183255e+01  -5.2594883e+01  -7.3952848e+01  -5.2210865e+01  -9.6976500e+01   3.7599147e+00  -5.5384880e+01  -3.3432395e+01  -4.9716130e+01  -5.0285559e+01  -4.7288517e+01  -5.9550964e+01  -4.7975467e+01  -4.5901193e+01  -5.1148990e+01  -4.8024791e+01   0.0000000e+00   0.0000000e+00   0.0000000e+00   0.0000000e+00
  -3.9346725e+01  -7.3433027e+01  -4.1510331e+01   1.8963313e+00  -4.9456905e+01  -5.2802699e+01  -7.5309377e+01  -5.2710224e+01  -9.8093769e+01   3.3452140e+00  -5.5152651e+01  -3.5620872e+01  -4.9574256e+01  -4.9395112e+01  -4.6980554e+01  -5.9482797e+01  -4.7969569e+01  -4.6011627e+01  -5.1500569e+01  -4.8333289e+01   0.0000000e+00   0.0000000e+00   0.0000000e+00   0.0000000e+00
  -3.8583333e+01  -7.4272405e+01  -4.2389226e+01  -8.7147729e-02  -4.9309899e+01  -5.2714345e+01  -7.6446119e+01  -5.3275337e+01  -9.9228439e+01   3.0492697e+00  -5.4663462e+01  -3.7424691e+01  -4.9424321e+01  -4.8308526e+01  -4.6394159e+01  -5.9375317e+01  -4.7784186e+01  -4.5796722e+01  -5.1493724e+01  -4.8644937e+01   0.0000000e+00   0.0000000e+00   0.0000000e+00   0.0000000e+00
  -3.8014221e+01  -7.4875718e+01  -4.3114947e+01  -2.1696460e+00  -4.8886944e+01  -5.2415860e+01  -7.7427665e+01  -5.3933923e+01  -1.0031233e+02   2.5881935e+00  -5.4290074e+01  -3.9175117e+01  -4.9406933e+01  -4.7349475e+01  -4.5913740e+01  -5.9385703e+01  -4.7668150e+01  -4.5488751e+01  -5.1283948e+01  -4.9008445e+01   0.0000000e+00   0.0000000e+00   0.0000000e+00   0.0000000e+00
  -3.7562879e+01  -7.5196607e+01  -4.3388589e+01  -4.5911421e+00  -4.8620370e+01  -5.1959682e+01  -7.7748292e+01  -5.4379200e+01  -1.0159984e+02   1.8446915e+00  -5.4014129e+01  -4.1570395e+01  -4.9579066e+01  -4.6590520e+01  -4.5561486e+01  -5.9429916e+01  -4.7807673e+01  -4.5073912e+01  -5.0812690e+01  -4.9158957e+01   0.0000000e+00   0.0000000e+00   0.0000000e+00   0.0000000e+00
  -3.7647045e+01  -7.5569615e+01  -4.3323692e+01  -7.9242944e+00  -4.8923442e+01  -5.1598938e+01  -7.7514393e+01  -5.4583014e+01  -1.0329780e+02   6.8450420e-01  -5.3982202e+01  -4.4707541e+01  -5.0313494e+01  -4.6277072e+01  -4.5346799e+01  -5.9381404e+01  -4.8483296e+01  -4.4775858e+01  -5.0251375e+01  -4.9014758e+01   0.0000000e+00   0.0000000e+00   0.0000000e+00   0.0000000e+00
  -3.8371328e+01  -7.6265353e+01  -4.3129510e+01  -1.2492029e+01  -4.9924054e+01  -5.1612637e+01  -7.7054429e+01  -5.4612775e+01  -1.0524993e+02  -8.2962823e-01  -5.4084905e+01  -4.8590165e+01  -5.1813918e+01  -4.6651111e+01  -4.5254388e+01  -5.9183546e+01  -4.9762626e+01  -4.4843350e+01  -4.9810194e+01  -4.8655452e+01   0.0000000e+00   0.0000000e+00   0.0000000e+00   0.0000000e+00
  -3.9660238e+01  -7.7254802e+01  -4.2925856e+01  -1.7872235e+01  -5.1394133e+01  -5.2021180e+01  -7.6859577e+01  -5.4528628e+01  -1.0720922e+02  -2.5459030e+00  -5.4236143e+01  -5.3242870e+01  -5.3948436e+01  -4.7636572e+01  -4.5215985e+01  -5.8778869e+01  -5.1556248e+01  -4.5430891e+01  -4.9526057e+01  -4.8113622e+01   0.0000000e+00   0.0000000e+00   0.0000000e+00   0.0000000e+00
  -4.1061148e+01  -7.8178141e+01  -4.2515273e+01  -2.3752672e+01  -5.3061493e+01  -5.2597421e+01  -7.6670816e+01  -5.4195588e+01  -1.0906050e+02  -4.3144535e+00  -5.4185078e+01  -5.8719041e+01  -5.6340216e+01  -4.8722365e+01  -4.5054234e+01  -5.8092553e+01  -5.3661909e+01  -4.6266450e+01  -4.9260632e+01  -4.7303107e+01   0.0000000e+00   0.0000000e+00   0.0000000e+00   0.0000000e+00
  -4.2483470e+01  -7.8831258e+01  -4.1923699e+01  -3.0072577e+01  -5.4866058e+01  -5.3239354e+01  -7.6457499e+01  -5.3753595e+01  -1.1080368e+02  -5.9855058e+00  -5.4048453e+01  -6.4846778e+01  -5.8678400e+01  -4.9561468e+01  -4.4902350e+01  -5.7323608e+01  -5.6049489e+01  -4.7191223e+01  -4.9093036e+01  -4.6500486e+01   0.0000000e+00   0.0000000e+00   0.0000000e+00   0.0000000e+00
  -4.3914108e+01  -7.9293725e+01  -4.1403239e+01  -3.6561637e+01  -5.6855832e+01  -5.4098029e+01  -7.6393729e+01  -5.3442592e+01  -1.1251076e+02  -7.4746016e+00  -5.4056882e+01  -7.0980540e+01  -6.0800716e+01  -5.0259125e+01  -4.5144759e+01  -5.6804754e+01  -5.8597725e+01  -4.8178796e+01  -4.9331578e+01  -4.6161120e+01   0.0000000e+00   0.0000000e+00   0.0000000e+00   0.0000000e+00
  -4.5753935e+01  -7.9932222e+01  -4.1292859e+01  -4.2990797e+01  -5.9087993e+01  -5.5307682e+01  -7.6958099e+01  -5.3552778e+01  -1.1426060e+02  -8.9601405e+00  -5.4548383e+01  -7.6638174e+01  -6.2925158e+01  -5.1170661e+01  -4.6035058e+01  -5.6767423e+01  -6.1278026e+01  -4.9481189e+01  -5.0261804e+01  -4.6592111e+01   0.0000000e+00   0.0000000e+00   0.0000000e+00   0.0000000e+00
  -4.7655745e+01  -8.0694845e+01  -4.1448296e+01  -4.9079521e+01  -6.1211987e+01  -5.6573741e+01  -7.7855390e+01  -5.3926598e+01  -1.1570177e+02  -1.0472413e+01  -5.5179317e+01  -8.1833195e+01  -6.5028278e+01  -5.2173787e+01  -4.7214291e+01  -5.7126455e+01  -6.3830151e+01  -5.0906397e+01  -5.1631640e+01  -4.7589757e+01   0.0000000e+00   0.0000000e+00   0.0000000e+00   0.0000000e+00
  -4.9200007e+01  -8.1397951e+01  -4.1833638e+01  -5.4075777e+01  -6.2785110e+01  -5.7478201e+01  -7.8904522e+01  -5.4512282e+01  -1.1639409e+02  -1.1695719e+01  -5.5677915e+01  -8.6280661e+01  -6.6574583e+01  -5.2792236e+01  -4.8301667e+01  -5.7781373e+01  -6.5874873e+01  -5.2151367e+01  -5.3015890e+01  -4.8889379e+01   0.0000000e+00   0.0000000e+00   0.0000000e+00   0.0000000e+00
  -5.0013193e+01  -8.1851912e+01  -4.2394179e+01  -5.7317934e+01  -6.3574923e+01  -5.7811590e+01  -7.9873265e+01  -5.5163639e+01  -1.1623077e+02  -1.2455932e+01  -5.5904144e+01  -8.9452909e+01  -6.7126816e+01  -5.2755248e+01  -4.9161020e+01  -5.8560334e+01  -6.7064462e+01  -5.2937619e+01  -5.4060929e+01  -5.0177218e+01   0.0000000e+00   0.0000000e+00   0.0000000e+00   0.0000000e+00
  -5.0461773e+01  -8.2152509e+01  -4.2938986e+01  -5.8819939e+01  -6.3882775e+01  -5.7808351e+01  -8.0768238e+01  -5.5693763e+01  -1.1575668e+02  -1.3172518e+01  -5.6109813e+01  -9.1015989e+01  -6.6953680e+01  -5.2454692e+01  -4.9887865e+01  -5.9183582e+01  -6.7610581e+01  -5.3458690e+01  -5.4640222e+01  -5.1177949e+01   0.0000000e+00   0.0000000e+00   0.0000000e+00   0.0000000e+00
  -5.0626436e+01  -8.2253040e+01  -4.3043866e+01  -5.8852387e+01  -6.3973779e+01  -5.7673692e+01  -8.0901798e+01  -5.5739479e+01  -1.1526027e+02  -1.4140234e+01  -5.6195562e+01  -9.0877978e+01  -6.6478146e+01  -5.2265285e+01  -5.0308885e+01  -5.9347438e+01  -6.7695690e+01  -5.3696225e+01  -5.4665084e+01  -5.1543431e+01   0.0000000e+00   0.0000000e+00   0.0000000e+00   0.0000000e+00
  -5.0512131e+01  -8.2027970e+01  -4.2610320e+01  -5.7479243e+01  -6.3582118e+01  -5.7358589e+01  -7.9942507e+01  -5.5275124e+01  -1.1454535e+02  -1.4864062e+01  -5.5976854e+01  -8.9020359e+01  -6.5823618e+01  -5.2111219e+01  -5.0089947e+01  -5.8978533e+01  -6.7227661e+01  -5.3530589e+01  -5.4057195e+01  -5.1190281e+01   0.0000000e+00   0.0000000e+00   0.0000000e+00   0.0000000e+00
  -4.9909258e+01  -8.1516497e+01  -4.1743880e+01  -5.5030241e+01  -6.2452159e+01  -5.6720663e+01  -7.7913469e+01  -5.4408819e+01  -1.1340275e+02  -1.5077731e+01  -5.5161849e+01  -8.5735053e+01  -6.4889073e+01  -5.1632678e+01  -4.9109782e+01  -5.8192925e+01  -6.6022543e+01  -5.2862787e+01  -5.2849053e+01  -5.0268095e+01   0.0000000e+00   0.0000000e+00   0.0000000e+00   0.0000000e+00
  -4.9249366e+01  -8.1048208e+01  -4.0803727e+01  -5.2000158e+01  -6.0984628e+01  -5.5896839e+01  -7.5555175e+01  -5.3462691e+01  -1.1207483e+02  -1.5165536e+01  -5.3974385e+01  -8.1830004e+01  -6.3914475e+01  -5.0798176e+01  -4.7713068e+01  -5.7161283e+01  -6.4440357e+01  -5.2044981e+01  -5.1323187e+01  -4.9126473e+01   0.0000000e+00   0.0000000e+00   0.0000000e+00   0.0000000e+00
  -4.8657372e+01  -8.0737421e+01  -3.9892387e+01  -4.8817959e+01  -5.9675654e+01  -5.5132829e+01  -7.3099181e+01  -5.2525548e+01  -1.1080873e+02  -1.5373626e+01  -5.2630690e+01  -7.7804873e+01  -6.3074524e+01  -4.9899370e+01  -4.6217611e+01  -5.5948807e+01  -6.2964864e+01  -5.1241052e+01  -4.9805531e+01  -4.7994283e+01   0.0000000e+00   0.0000000e+00   0.0000000e+00   0.0000000e+00
  -4.8170904e+01  -8.0608855e+01  -3.9096312e+01  -4.5565232e+01  -5.8595123e+01  -5.4580905e+01  -7.0848291e+01  -5.1775811e+01  -1.0940319e+02  -1.5594198e+01  -5.1578645e+01  -7.3560164e+01  -6.2218220e+01  -4.9233380e+01  -4.4945636e+01  -5.4811483e+01  -6.1760825e+01  -5.0467428e+01  -4.8673087e+01  -4.7177370e+01   0.0000000e+00   0.0000000e+00   0.0000000e+00   0.0000000e+00
  -4.7484033e+01  -8.0461725e+01  -3.8350233e+01  -4.2079340e+01  -5.7539496e+01  -5.4122227e+01  -6.8849754e+01  -5.1300599e+01  -1.0761506e+02  -1.5649356e+01  -5.0843249e+01  -6.9110966e+01  -6.1010932e+01  -4.8596817e+01  -4.4031105e+01  -5.4067567e+01  -6.0477970e+01  -4.9503383e+01  -4.7995961e+01  -4.6848577e+01   0.0000000e+00   0.0000000e+00   0.0000000e+00   0.0000000e+00
  -4.6773761e+01  -8.0189378e+01  -3.7668293e+01  -3.8509573e+01  -5.6535672e+01  -5.3549384e+01  -6.7397235e+01  -5.1199957e+01  -1.0549398e+02  -1.5561545e+01  -5.0512862e+01  -6.4413190e+01  -5.9472472e+01  -4.7718055e+01  -4.3492834e+01  -5.3850834e+01  -5.9137079e+01  -4.8454054e+01  -4.7696330e+01  -4.7082510e+01   0.0000000e+00   0.0000000e+00   0.0000000e+00   0.0000000e+00
  -4.5812252e+01  -7.9638107e+01  -3.6884365e+01  -3.4914201e+01  -5.5447716e+01  -5.2662869e+01  -6.6176248e+01  -5.1182266e+01  -1.0325363e+02  -1.5598001e+01  -5.0308918e+01  -5.9558846e+01  -5.7782615e+01  -4.6425495e+01  -4.3147490e+01  -5.3942004e+01  -5.7775212e+01  -4.7261526e+01  -4.7563530e+01  -4.7670600e+01   0.0000000e+00   0.0000000e+00   0.0000000e+00   0.0000000e+00
  -4.4619667e+01  -7.8966790e+01  -3.6107318e+01  -3.1066596e+01  -5.4067358e+01  -5.1554796e+01  -6.5254976e+01  -5.1232346e+01  -1.0110057e+02  -1.5616293e+01  -5.0146578e+01  -5.5073463e+01  -5.6048977e+01  -4.4787459e+01  -4.2930459e+01  -5.4142593e+01  -5.6397556e+01  -4.6008731e+01  -4.7549327e+01  -4.8462432e+01   0.0000000e+00   0.0000000e+00   0.0000000e+00   0.0000000e+00
  -4.3185917e+01  -7.8332720e+01  -3.5482291e+01  -2.7040315e+01  -5.2627542e+01  -5.0555559e+01  -6.4561179e+01  -5.1310391e+01  -9.8744282e+01  -1.5291589e+01  -4.9823226e+01  -5.0995883e+01  -5.4312758e+01  -4.3121331e+01  -4.2762725e+01  -5.4237053e+01  -5.4962984e+01  -4.4758294e+01  -4.7622998e+01  -4.9179405e+01   0.0000000e+00   0.0000000e+00   0.0000000e+00   0.0000000e+00
  -4.1975923e+01  -7.8009590e+01  -3.5162367e+01  -2.3114391e+01  -5.1572477e+01  -4.9986196e+01  -6.4268663e+01  -5.1363342e+01  -9.6230969e+01  -1.4968530e+01  -4.9390218e+01  -4.6584344e+01  -5.2762440e+01  -4.1916049e+01  -4.2624501e+01  -5.4013142e+01  -5.3728714e+01  -4.3793224e+01  -4.7739326e+01  -4.9497218e+01   0.0000000e+00   0.0000000e+00   0.0000000e+00   0.0000000e+00
  -4.0941518e+01  -7.7843076e+01  -3.4919608e+01  -1.9387407e+01  -5.0748678e+01  -4.9621798e+01  -6.3938924e+01  -5.1133378e+01  -9.4233352e+01  -1.5043604e+01  -4.8749925e+01  -4.2107597e+01  -5.1218998e+01  -4.1163768e+01  -4.2300807e+01  -5.3412696e+01  -5.2605461e+01  -4.3047242e+01  -4.7600807e+01  -4.9155344e+01   0.0000000e+00   0.0000000e+00   0.0000000e+00   0.0000000e+00
  -4.0000257e+01  -7.7585386e+01  -3.4585316e+01  -1.5674908e+01  -4.9664291e+01  -4.9127922e+01  -6.3297918e+01  -5.0702473e+01  -9.2854199e+01  -1.5319533e+01  -4.8020542e+01  -3.7654068e+01  -4.9572086e+01  -4.0588089e+01  -4.1685883e+01  -5.2669994e+01  -5.1334804e+01  -4.2332447e+01  -4.7071253e+01  -4.8378802e+01   0.0000000e+00   0.0000000e+00   0.0000000e+00   0.0000000e+00
  -3.8937906e+01  -7.7250334e+01  -3.4110338e+01  -1.1920445e+01  -4.8165000e+01  -4.8424286e+01  -6.2228475e+01  -5.0239508e+01  -9.1469101e+01  -1.5479749e+01  -4.7253341e+01  -3.2867778e+01  -4.8021561e+01  -4.0062608e+01  -4.0907434e+01  -5.1991674e+01  -4.9714956e+01  -4.1486761e+01  -4.6267920e+01  -4.7507890e+01   0.0000000e+00   0.0000000e+00   0.0000000e+00   0.0000000e+00
  -3.7911204e+01  -7.7091957e+01  -3.3627378e+01  -8.2479873e+00  -4.6577622e+01  -4.7626128e+01  -6.1182095e+01  -4.9896273e+01  -8.9957761e+01  -1.5855997e+01  -4.6737115e+01  -2.7983965e+01  -4.6822549e+01  -3.9679278e+01  -4.0262455e+01  -5.1477080e+01  -4.7905992e+01  -4.0720572e+01  -4.5467176e+01  -4.6770792e+01   0.0000000e+00   0.0000000e+00   0.0000000e+00   0.0000000e+00
  -3.6689171e+01  -7.7059404e+01  -3.3135821e+01  -4.6376956e+00  -4.5018530e+01  -4.6773393e+01  -5.9991471e+01  -4.9506523e+01  -8.8467261e+01  -1.6696556e+01  -4.6289081e+01  -2.3544317e+01  -4.5682352e+01  -3.9212718e+01  -3.9704733e+01  -5.1097420e+01  -4.5946854e+01  -3.9962635e+01  -4.4735921e+01  -4.6156825e+01   0.0000000e+00   0.0000000e+00   0.0000000e+00   0.0000000e+00
  -3.5430858e+01  -7.7152000e+01  -3.2851238e+01  -8.8756475e-01  -4.3400382e+01  -4.5957899e+01  -5.8742427e+01  -4.9197246e+01  -8.6989947e+01  -1.7573928e+01  -4.5830995e+01  -1.9584738e+01  -4.4242028e+01  -3.8422326e+01  -3.9128092e+01  -5.0819960e+01  -4.3981020e+01  -3.9194014e+01  -4.4204312e+01  -4.5777528e+01   0.0000000e+00   0.0000000e+00   0.0000000e+00   0.0000000e+00
  -3.4016243e+01  -7.7243602e+01  -3.2660133e+01   3.0070776e+00  -4.1599266e+01  -4.5121748e+01  -5.7328984e+01  -4.8913053e+01  -8.5262149e+01  -1.7991650e+01  -4.5222241e+01  -1.5590435e+01  -4.2476281e+01  -3.7285936e+01  -3.8484778e+01  -5.0599235e+01  -4.2021997e+01  -3.8282878e+01  -4.3871156e+01  -4.5568975e+01   0.0000000e+00   0.0000000e+00   0.0000000e+00   0.0000000e+00
  -3.2427359e+01  -7.7189375e+01  -3.2367199e+01   6.7866236e+00  -3.9581455e+01  -4.4083948e+01  -5.5908430e+01  -4.8600411e+01  -8.3392951e+01  -1.8089917e+01  -4.4612504e+01  -1.1455124e+01  -4.0683831e+01  -3.6070978e+01  -3.7864723e+01  -5.0420746e+01  -4.0125521e+01  -3.7272248e+01  -4.3563395e+01  -4.5341531e+01   0.0000000e+00   0.0000000e+00   0.0000000e+00   0.0000000e+00
  -3.0459874e+01  -7.6672737e+01  -3.1706739e+01   1.0182268e+01  -3.7531541e+01  -4.2711380e+01  -5.4177697e+01  -4.8026732e+01  -8.1608459e+01  -1.8186837e+01  -4.3831970e+01  -7.5445601e+00  -3.8966629e+01  -3.4830845e+01  -3.7078205e+01  -5.0026791e+01  -3.8304217e+01  -3.5985621e+01  -4.2864520e+01  -4.4778789e+01   0.0000000e+00   0.0000000e+00   0.0000000e+00   0.0000000e+00
  -2.8408675e+01  -7.5800189e+01  -3.0762568e+01   1.3042487e+01  -3.5832337e+01  -4.1220819e+01  -5.2291294e+01  -4.7291201e+01  -8.0001566e+01  -1.8531165e+01  -4.2869585e+01  -4.3468000e+00  -3.7290463e+01  -3.3546332e+01  -3.6005502e+01  -4.9325252e+01  -3.6767445e+01  -3.4482453e+01  -4.1698568e+01  -4.3907259e+01   0.0000000e+00   0.0000000e+00   0.0000000e+00   0.0000000e+00
  -2.6651311e+01  -7.5077935e+01  -2.9762273e+01   1.5261598e+01  -3.4916494e+01  -4.0122705e+01  -5.0530993e+01  -4.6581426e+01  -7.8493463e+01  -1.9101359e+01  -4.1814597e+01  -1.6994938e+00  -3.5792923e+01  -3.2265557e+01  -3.4791555e+01  -4.8482297e+01  -3.5649438e+01  -3.3028566e+01  -4.0383118e+01  -4.2910111e+01   0.0000000e+00   0.0000000e+00   0.0000000e+00   0.0000000e+00
  -2.5889055e+01  -7.5023173e+01  -2.9024036e+01   1.6765533e+01  -3.4976003e+01  -3.9901170e+01  -4.9496066e+01  -4.6211361e+01  -7.7297330e+01  -1.9770095e+01  -4.1062907e+01   8.3108154e-01  -3.4816978e+01  -3.1286306e+01  -3.3926522e+01  -4.7759714e+01  -3.5139569e+01  -3.2228724e+01  -3.9508924e+01  -4.2028945e+01   0.0000000e+00   0.0000000e+00   0.0000000e+00   0.0000000e+00
  -2.5623013e+01  -7.5324909e+01  -2.8356718e+01   1.7811579e+01  -3.5361053e+01  -4.0174175e+01  -4.8722796e+01  -4.6022065e+01  -7.6528901e+01  -2.0410976e+01  -4.0573073e+01   3.1998515e+00  -3.4212819e+01  -3.0718519e+01  -3.3584194e+01  -4.7224115e+01  -3.4852691e+01  -3.2005797e+01  -3.9242010e+01  -4.1218082e+01   0.0000000e+00   0.0000000e+00   0.0000000e+00   0.0000000e+00
  -2.5278491e+01  -7.5589277e+01  -2.7667253e+01   1.8946417e+01  -3.5322215e+01  -4.0260333e+01  -4.7962201e+01  -4.5934307e+01  -7.5595047e+01  -2.0894528e+01  -4.0370280e+01   5.4817329e+00  -3.3548329e+01  -3.0528061e+01  -3.3656159e+01  -4.6796092e+01  -3.4486499e+01  -3.1979714e+01  -3.9408297e+01  -4.0428537e+01   0.0000000e+00   0.0000000e+00   0.0000000e+00   0.0000000e+00
  -2.4680736e+01  -7.5663278e+01  -2.7028803e+01   2.0204009e+01  -3.4748574e+01  -4.0007473e+01  -4.7289687e+01  -4.5932403e+01  -7.4251273e+01  -2.1202965e+01  -4.0354051e+01   7.6500111e+00  -3.2749392e+01  -3.0724329e+01  -3.4047566e+01  -4.6335804e+01  -3.4031987e+01  -3.1957447e+01  -3.9790261e+01  -3.9716103e+01   0.0000000e+00   0.0000000e+00   0.0000000e+00   0.0000000e+00
  -2.4213098e+01  -7.5721290e+01  -2.6628335e+01   2.1308129e+01  -3.4087866e+01  -3.9788150e+01  -4.7139413e+01  -4.6112603e+01  -7.2753046e+01  -2.1469892e+01  -4.0594709e+01   9.4315717e+00  -3.2387117e+01  -3.1423793e+01  -3.4872756e+01  -4.5861099e+01  -3.3764847e+01  -3.2229381e+01  -4.0449248e+01  -3.9354165e+01   0.0000000e+00   0.0000000e+00   0.0000000e+00   0.0000000e+00
  -2.3685119e+01  -7.5757445e+01  -2.6306635e+01   2.2120732e+01  -3.3674551e+01  -3.9790935e+01  -4.7032449e+01  -4.6221203e+01  -7.1114429e+01  -2.1903670e+01  -4.0697190e+01   1.0801867e+01  -3.2603769e+01  -3.2296245e+01  -3.5823000e+01  -4.5336280e+01  -3.3661033e+01  -3.2650686e+01  -4.1266345e+01  -3.9242290e+01   0.0000000e+00   0.0000000e+00   0.0000000e+00   0.0000000e+00
  -2.2975005e+01  -7.5626284e+01  -2.5947731e+01   2.2856815e+01  -3.3253177e+01  -3.9808289e+01  -4.6489865e+01  -4.6062777e+01  -6.9146528e+01  -2.2311792e+01  -4.0372378e+01   1.2395199e+01  -3.2847376e+01  -3.2601168e+01  -3.6273084e+01  -4.4672861e+01  -3.3358588e+01  -3.2809667e+01  -4.1838507e+01  -3.9055687e+01   0.0000000e+00   0.0000000e+00   0.0000000e+00   0.0000000e+00
  -2.1802554e+01  -7.4976359e+01  -2.5272523e+01   2.3760727e+01  -3.2370614e+01  -3.9341499e+01  -4.5069702e+01  -4.5311312e+01  -6.6950236e+01  -2.2260342e+01  -3.9312357e+01   1.4399084e+01  -3.2373028e+01  -3.1686137e+01  -3.5694218e+01  -4.3658750e+01  -3.2373240e+01  -3.2235442e+01  -4.1592672e+01  -3.8367523e+01   0.0000000e+00   0.0000000e+00   0.0000000e+00   0.0000000e+00
  -2.0632540e+01  -7.3898161e+01  -2.4227538e+01   2.4715107e+01  -3.1100574e+01  -3.8257618e+01  -4.3290305e+01  -4.3975179e+01  -6.4852173e+01  -2.1778067e+01  -3.7866996e+01   1.6384209e+01  -3.1269338e+01  -2.9874305e+01  -3.4290976e+01  -4.2192442e+01  -3.1023944e+01  -3.1175385e+01  -4.0424339e+01  -3.7044209e+01   0.0000000e+00   0.0000000e+00   0.0000000e+00   0.0000000e+00
  -1.9595903e+01  -7.2586334e+01  -2.2819890e+01   2.5712851e+01  -2.9752416e+01  -3.6958746e+01  -4.1366508e+01  -4.2199607e+01  -6.2578610e+01  -2.1103933e+01  -3.6224794e+01   1.8151448e+01  -3.0016241e+01  -2.7892375e+01  -3.2511133e+01  -4.0379062e+01  -2.9672531e+01  -2.9937541e+01  -3.8654014e+01  -3.5223203e+01   0.0000000e+00   0.0000000e+00   0.0000000e+00   0.0000000e+00
  -1.8714122e+01  -7.1272596e+01  -2.1367336e+01   2.7044675e+01  -2.8438200e+01  -3.5954824e+01  -3.9642443e+01  -4.0435033e+01  -5.9861093e+01  -2.0418741e+01  -3.4558562e+01   2.0383000e+01  -2.8698315e+01  -2.6056024e+01  -3.0709952e+01  -3.8547397e+01  -2.8351855e+01  -2.8758122e+01  -3.6785010e+01  -3.3399060e+01   0.0000000e+00   0.0000000e+00   0.0000000e+00   0.0000000e+00
  -1.7710759e+01  -7.0025875e+01  -2.0109824e+01   2.8865106e+01  -2.6992335e+01  -3.5139661e+01  -3.8225590e+01  -3.8869377e+01  -5.6837196e+01  -1.9756651e+01  -3.2857898e+01   2.3327566e+01  -2.7019372e+01  -2.4213047e+01  -2.8969088e+01  -3.6864361e+01  -2.6807299e+01  -2.7586231e+01  -3.4958242e+01  -3.1847203e+01   0.0000000e+00   0.0000000e+00   0.0000000e+00   0.0000000e+00
  -1.6686663e+01  -6.8910067e+01  -1.9199264e+01   3.0827170e+01  -2.5404610e+01  -3.4135985e+01  -3.7338009e+01  -3.7581553e+01  -5.3774040e+01  -1.9195182e+01  -3.1285729e+01   2.6405785e+01  -2.5016095e+01  -2.2481144e+01  -2.7411322e+01  -3.5330339e+01  -2.5099412e+01  -2.6504938e+01  -3.3231825e+01  -3.0605809e+01   0.0000000e+00   0.0000000e+00   0.0000000e+00   0.0000000e+00
  -1.5561451e+01  -6.7864934e+01  -1.8483622e+01   3.2417695e+01  -2.3953447e+01  -3.2938392e+01  -3.6633968e+01  -3.6412386e+01  -5.0820582e+01  -1.8834482e+01  -2.9833707e+01   2.9141928e+01  -2.3153604e+01  -2.1187621e+01  -2.6151503e+01  -3.3915090e+01  -2.3574939e+01  -2.5507749e+01  -3.1770846e+01  -2.9551053e+01   0.0000000e+00   0.0000000e+00   0.0000000e+00   0.0000000e+00
  -1.4613377e+01  -6.7024443e+01  -1.7861877e+01   3.3531467e+01  -2.3043135e+01  -3.1991354e+01  -3.6137393e+01  -3.5397062e+01  -4.8188122e+01  -1.8614045e+01  -2.8706505e+01   3.1242350e+01  -2.1826156e+01  -2.0445194e+01  -2.5229438e+01  -3.2668291e+01  -2.2703699e+01  -2.4787835e+01  -3.0837423e+01  -2.8663244e+01   0.0000000e+00   0.0000000e+00   0.0000000e+00   0.0000000e+00
  -1.3838838e+01  -6.6413198e+01  -1.7117956e+01   3.4352384e+01  -2.2680449e+01  -3.1504433e+01  -3.5718235e+01  -3.4498676e+01  -4.5835676e+01  -1.8421498e+01  -2.7730073e+01   3.2612418e+01  -2.0734724e+01  -1.9869733e+01  -2.4486636e+01  -3.1608049e+01  -2.2186778e+01  -2.4274718e+01  -3.0358214e+01  -2.7875365e+01   0.0000000e+00   0.0000000e+00   0.0000000e+00   0.0000000e+00
  -1.3245050e+01  -6.5934410e+01  -1.6166767e+01   3.5148986e+01  -2.2373039e+01  -3.1124316e+01  -3.5402238e+01  -3.3793859e+01  -4.3630903e+01  -1.8322779e+01  -2.6810075e+01   3.3758285e+01  -1.9634375e+01  -1.9104808e+01  -2.3815625e+01  -3.0759126e+01  -2.1477021e+01  -2.3799220e+01  -2.9970148e+01  -2.7187767e+01   0.0000000e+00   0.0000000e+00   0.0000000e+00   0.0000000e+00
  -1.2223175e+01  -6.5126645e+01  -1.4882354e+01   3.6070658e+01  -2.1630635e+01  -3.0255001e+01  -3.4710519e+01  -3.3151125e+01  -4.1532109e+01  -1.8173520e+01  -2.5720220e+01   3.4797867e+01  -1.8495310e+01  -1.7925344e+01  -2.3020759e+01  -3.0045212e+01  -2.0249543e+01  -2.2924771e+01  -2.9262519e+01  -2.6525417e+01   0.0000000e+00   0.0000000e+00   0.0000000e+00   0.0000000e+00
  -1.0739907e+01  -6.3893039e+01  -1.3481090e+01   3.7220470e+01  -2.0416669e+01  -2.8756492e+01  -3.3708150e+01  -3.2630063e+01  -3.9669396e+01  -1.7762599e+01  -2.4659673e+01   3.5831025e+01  -1.7345589e+01  -1.6379963e+01  -2.2110545e+01  -2.9509981e+01  -1.8784730e+01  -2.1616231e+01  -2.8284098e+01  -2.5974303e+01   0.0000000e+00   0.0000000e+00   0.0000000e+00   0.0000000e+00
  -9.0383812e+00  -6.2459594e+01  -1.2126673e+01   3.8563335e+01  -1.9050559e+01  -2.6930079e+01  -3.2434100e+01  -3.2174546e+01  -3.7792706e+01  -1.7230547e+01  -2.3665918e+01   3.7501924e+01  -1.6069707e+01  -1.4722851e+01  -2.1198230e+01  -2.9162863e+01  -1.7411356e+01  -2.0063602e+01  -2.7265968e+01  -2.5502307e+01   0.0000000e+00   0.0000000e+00   0.0000000e+00   0.0000000e+00
  -7.7930468e+00  -6.1219974e+01  -1.1022012e+01   3.9759274e+01  -1.8045142e+01  -2.5464960e+01  -3.1407808e+01  -3.1870227e+01  -3.5775156e+01  -1.6991995e+01  -2.2932170e+01   3.9812180e+01  -1.4782773e+01  -1.3495929e+01  -2.0593754e+01  -2.8901224e+01  -1.6386863e+01  -1.8787750e+01  -2.6566838e+01  -2.5117240e+01   0.0000000e+00   0.0000000e+00   0.0000000e+00   0.0000000e+00
  -6.9241605e+00  -6.0253134e+01  -1.0031064e+01   4.0281165e+01  -1.7525038e+01  -2.4771799e+01  -3.0489263e+01  -3.1504785e+01  -3.3964278e+01  -1.7243283e+01  -2.2237138e+01   4.1847930e+01  -1.3688128e+01  -1.2941472e+01  -2.0227569e+01  -2.8473563e+01  -1.5531187e+01  -1.7835406e+01  -2.6113345e+01  -2.4602739e+01   0.0000000e+00   0.0000000e+00   0.0000000e+00   0.0000000e+00
  -6.3238041e+00  -5.9549742e+01  -9.0876606e+00   4.0206141e+01  -1.7157528e+01  -2.4584729e+01  -2.9801380e+01  -3.1044284e+01  -3.2619533e+01  -1.7917062e+01  -2.1612462e+01   4.3092931e+01  -1.3111116e+01  -1.3008035e+01  -1.9881905e+01  -2.7807095e+01  -1.4887631e+01  -1.7174159e+01  -2.5689185e+01  -2.3865208e+01   0.0000000e+00   0.0000000e+00   0.0000000e+00   0.0000000e+00
  -5.6548752e+00  -5.8915450e+01  -8.0613897e+00   4.0072962e+01  -1.6662394e+01  -2.4324792e+01  -2.9163525e+01  -3.0455889e+01  -3.1364340e+01  -1.8948664e+01  -2.1046291e+01   4.3977843e+01  -1.3145336e+01  -1.3497434e+01  -1.9488192e+01  -2.6993906e+01  -1.4479992e+01  -1.6663944e+01  -2.5203320e+01  -2.2954332e+01   0.0000000e+00   0.0000000e+00   0.0000000e+00   0.0000000e+00
  -5.0832631e+00  -5.8385183e+01  -7.1518767e+00   4.0187898e+01  -1.6115720e+01  -2.3846413e+01  -2.8728131e+01  -2.9908143e+01  -2.9833146e+01  -2.0158250e+01  -2.0764349e+01   4.5121467e+01  -1.3572129e+01  -1.4266322e+01  -1.9225112e+01  -2.6242682e+01  -1.4307946e+01  -1.6429053e+01  -2.4765153e+01  -2.2113778e+01   0.0000000e+00   0.0000000e+00   0.0000000e+00   0.0000000e+00
  -4.3694903e+00  -5.7692284e+01  -6.4214282e+00   4.0642684e+01  -1.5368828e+01  -2.2987861e+01  -2.8117469e+01  -2.9459484e+01  -2.8175760e+01  -2.1042761e+01  -2.0562369e+01   4.6131307e+01  -1.3756577e+01  -1.4767842e+01  -1.8930200e+01  -2.5599966e+01  -1.3778659e+01  -1.6228596e+01  -2.4161222e+01  -2.1342326e+01   0.0000000e+00   0.0000000e+00   0.0000000e+00   0.0000000e+00
  -3.3453667e+00  -5.6483601e+01  -5.8238536e+00   4.1438105e+01  -1.4107857e+01  -2.1520472e+01  -2.7031189e+01  -2.9073561e+01  -2.6673027e+01  -2.1301996e+01  -2.0214965e+01   4.6743008e+01  -1.3125962e+01  -1.4401922e+01  -1.8333541e+01  -2.4976528e+01  -1.2451576e+01  -1.5683656e+01  -2.3161804e+01  -2.0595184e+01   0.0000000e+00   0.0000000e+00   0.0000000e+00   0.0000000e+00
  -1.8391305e+00  -5.4664901e+01  -5.2242078e+00   4.2397662e+01  -1.2471253e+01  -1.9633036e+01  -2.5381724e+01  -2.8457507e+01  -2.5256738e+01  -2.1127880e+01  -1.9513675e+01   4.7689954e+01  -1.1891869e+01  -1.3240430e+01  -1.7402169e+01  -2.4261272e+01  -1.0522846e+01  -1.4636969e+01  -2.1946295e+01  -1.9897794e+01   0.0000000e+00   0.0000000e+00   0.0000000e+00   0.0000000e+00
  -5.0332794e-01  -5.2827082e+01  -4.8570045e+00   4.3286461e+01  -1.1011190e+01  -1.7926970e+01  -2.4067798e+01  -2.7945905e+01  -2.4121304e+01  -2.0892071e+01  -1.8856499e+01   4.8976318e+01  -1.0962932e+01  -1.2120005e+01  -1.6568077e+01  -2.3559275e+01  -8.8405051e+00  -1.3690734e+01  -2.1057745e+01  -1.9463063e+01   0.0000000e+00   0.0000000e+00   0.0000000e+00   0.0000000e+00
   5.5829666e-01  -5.1194976e+01  -4.5620680e+00   4.4069481e+01  -9.9527687e+00  -1.6619767e+01  -2.3031242e+01  -2.7552955e+01  -2.3193475e+01  -2.0886067e+01  -1.8217935e+01   4.9968957e+01  -1.0498731e+01  -1.1405320e+01  -1.5977727e+01  -2.2920641e+01  -7.7336630e+00  -1.3004472e+01  -2.0499054e+01  -1.9168009e+01   0.0000000e+00   0.0000000e+00   0.0000000e+00   0.0000000e+00
   1.3841786e+00  -4.9689051e+01  -4.1129341e+00   4.4847091e+01  -9.2733475e+00  -1.5627480e+01  -2.2058372e+01  -2.7195401e+01  -2.2189774e+01  -2.1076738e+01  -1.7545940e+01   5.0662899e+01  -1.0095969e+01  -1.0891866e+01  -1.5464350e+01  -2.2309744e+01  -7.1577789e+00  -1.2449864e+01  -2.0023686e+01  -1.8851979e+01   0.0000000e+00   0.0000000e+00   0.0000000e+00   0.0000000e+00
   2.2093202e+00  -4.8185155e+01  -3.3740578e+00   4.5631813e+01  -8.8091941e+00  -1.4788699e+01  -2.0984290e+01  -2.6746024e+01  -2.0973594e+01  -2.1238809e+01  -1.6738474e+01   5.1212948e+01  -9.5227104e+00  -1.0244632e+01  -1.4840592e+01  -2.1673711e+01  -6.7704865e+00  -1.1878752e+01  -1.9450057e+01  -1.8435076e+01   0.0000000e+00   0.0000000e+00   0.0000000e+00   0.0000000e+00
   2.8027978e+00  -4.6912082e+01  -2.6150156e+00   4.6305155e+01  -8.4578647e+00  -1.4300499e+01  -2.0453145e+01  -2.6395177e+01  -1.9648132e+01  -2.1230838e+01  -1.6127264e+01   5.1949471e+01  -9.0301277e+00  -9.5562313e+00  -1.4325157e+01  -2.1155169e+01  -6.5288132e+00  -1.1597667e+01  -1.8973035e+01  -1.8155880e+01   0.0000000e+00   0.0000000e+00   0.0000000e+00   0.0000000e+00
   3.3391352e+00  -4.5945186e+01  -2.0069379e+00   4.6701426e+01  -8.1918218e+00  -1.4406454e+01  -2.0562024e+01  -2.6116161e+01  -1.8130031e+01  -2.1082464e+01  -1.5782193e+01   5.3112949e+01  -8.6597077e+00  -9.0600737e+00  -1.4078066e+01  -2.0780164e+01  -6.3647512e+00  -1.1666170e+01  -1.8766141e+01  -1.8071188e+01   0.0000000e+00   0.0000000e+00   0.0000000e+00   0.0000000e+00
   3.9004248e+00  -4.5217963e+01  -1.6329150e+00   4.6895007e+01  -7.9979125e+00  -1.5026265e+01  -2.1193206e+01  -2.5834483e+01  -1.6598042e+01  -2.1081934e+01  -1.5803115e+01   5.4492636e+01  -8.3435235e+00  -8.9525207e+00  -1.4067393e+01  -2.0373302e+01  -6.3465231e+00  -1.1995653e+01  -1.8818799e+01  -1.8067381e+01   0.0000000e+00   0.0000000e+00   0.0000000e+00   0.0000000e+00
   4.5971290e+00  -4.4626459e+01  -1.3989818e+00   4.7173236e+01  -7.8360347e+00  -1.5762090e+01  -2.1870636e+01  -2.5375695e+01  -1.5216321e+01  -2.1268200e+01  -1.5753454e+01   5.5248706e+01  -7.8979364e+00  -9.0769024e+00  -1.4028031e+01  -1.9735743e+01  -6.3482231e+00  -1.2317839e+01  -1.8789111e+01  -1.7897276e+01   0.0000000e+00   0.0000000e+00   0.0000000e+00   0.0000000e+00
   5.0113000e+00  -4.4265582e+01  -1.4520247e+00   4.7565509e+01  -7.7695790e+00  -1.6388301e+01  -2.2689742e+01  -2.4885817e+01  -1.3878665e+01  -2.1490874e+01  -1.5370434e+01   5.5230125e+01  -7.4830793e+00  -9.2704226e+00  -1.3928398e+01  -1.8945141e+01  -6.5007712e+00  -1.2683849e+01  -1.8549103e+01  -1.7554085e+01   0.0000000e+00   0.0000000e+00   0.0000000e+00   0.0000000e+00
   5.2644043e+00  -4.3917943e+01  -1.6388270e+00   4.7849842e+01  -7.7840169e+00  -1.6753927e+01  -2.3268127e+01  -2.4396240e+01  -1.2533685e+01  -2.1596956e+01  -1.4524221e+01   5.5189209e+01  -7.4007161e+00  -9.3830391e+00  -1.3737119e+01  -1.8120927e+01  -6.8386332e+00  -1.2982218e+01  -1.8109816e+01  -1.7068674e+01   0.0000000e+00   0.0000000e+00   0.0000000e+00   0.0000000e+00
   5.4987023e+00  -4.3493540e+01  -1.7230675e+00   4.7916071e+01  -7.8392451e+00  -1.6887534e+01  -2.3343485e+01  -2.3969843e+01  -1.1192894e+01  -2.1561390e+01  -1.3447887e+01   5.5678369e+01  -7.5792008e+00  -9.4189845e+00  -1.3481105e+01  -1.7333090e+01  -7.3594162e+00  -1.3098265e+01  -1.7615129e+01  -1.6515512e+01   0.0000000e+00   0.0000000e+00   0.0000000e+00   0.0000000e+00
   5.9961935e+00  -4.2885515e+01  -1.4955354e+00   4.7921083e+01  -7.7576582e+00  -1.6756486e+01  -2.2681352e+01  -2.3453686e+01  -9.6341188e+00  -2.1471090e+01  -1.2272674e+01   5.6685171e+01  -7.6091871e+00  -9.2929122e+00  -1.3107253e+01  -1.6533327e+01  -7.7266146e+00  -1.2826355e+01  -1.7056531e+01  -1.5783250e+01   0.0000000e+00   0.0000000e+00   0.0000000e+00   0.0000000e+00
   6.5280314e+00  -4.2034894e+01  -1.0360716e+00   4.8162864e+01  -7.3746962e+00  -1.6193073e+01  -2.1793311e+01  -2.2905364e+01  -8.0184915e+00  -2.1464786e+01  -1.1319372e+01   5.7777150e+01  -7.2892877e+00  -8.9130168e+00  -1.2531688e+01  -1.5737423e+01  -7.6384127e+00  -1.2329507e+01  -1.6287753e+01  -1.4864308e+01   0.0000000e+00   0.0000000e+00   0.0000000e+00   0.0000000e+00
   7.3252053e+00  -4.0750764e+01  -1.3912789e-01   4.8555225e+01  -6.7264626e+00  -1.4927235e+01  -2.0507667e+01  -2.2150190e+01  -6.6716852e+00  -2.1463029e+01  -1.0289378e+01   5.8293272e+01  -6.4602363e+00  -8.0732210e+00  -1.1420199e+01  -1.4901336e+01  -6.8295612e+00  -1.1503917e+01  -1.4887383e+01  -1.3629368e+01   0.0000000e+00   0.0000000e+00   0.0000000e+00   0.0000000e+00
   8.2886799e+00  -3.9196367e+01   1.1606830e+00   4.8793206e+01  -6.1270945e+00  -1.3100141e+01  -1.8926065e+01  -2.1269922e+01  -5.5021876e+00  -2.1386581e+01  -9.1445767e+00   5.8256017e+01  -5.4232953e+00  -6.8406303e+00  -9.7374047e+00  -1.3999268e+01  -5.7613367e+00  -1.0395980e+01  -1.2929267e+01  -1.2207957e+01   0.0000000e+00   0.0000000e+00   0.0000000e+00   0.0000000e+00
   9.2452020e+00  -3.7568243e+01   2.6937044e+00   4.8824870e+01  -5.6501106e+00  -1.1069614e+01  -1.7334956e+01  -2.0379957e+01  -4.0774521e+00  -2.1283020e+01  -7.9114517e+00   5.8099554e+01  -4.6620438e+00  -5.3306370e+00  -7.6584268e+00  -1.2971372e+01  -4.7674418e+00  -9.1165208e+00  -1.0715216e+01  -1.0737479e+01   0.0000000e+00   0.0000000e+00   0.0000000e+00   0.0000000e+00
   9.7740385e+00  -3.6110848e+01   4.1424431e+00   4.8950180e+01  -5.2496103e+00  -9.2926715e+00  -1.6464323e+01  -1.9695006e+01  -2.3075142e+00  -2.1136381e+01  -6.8501699e+00   5.8417796e+01  -4.2822030e+00  -3.6694674e+00  -5.5121352e+00  -1.1950874e+01  -3.9262729e+00  -7.9322806e+00  -8.5246760e+00  -9.3436161e+00   0.0000000e+00   0.0000000e+00   0.0000000e+00   0.0000000e+00
   1.0009057e+01  -3.4875290e+01   5.4367179e+00   4.9293353e+01  -4.9108137e+00  -8.1354387e+00  -1.6311744e+01  -1.9174616e+01  -3.1928943e-01  -2.1074587e+01  -5.9716340e+00   5.9065149e+01  -3.9670653e+00  -2.0729202e+00  -3.5894432e+00  -1.1079919e+01  -3.2023729e+00  -6.8656553e+00  -6.5840173e+00  -8.0758772e+00   0.0000000e+00   0.0000000e+00   0.0000000e+00   0.0000000e+00
   1.0046242e+01  -3.3996833e+01   6.4121628e+00   4.9796346e+01  -4.6519675e+00  -7.8563180e+00  -1.6907757e+01  -1.8921074e+01   1.4226859e+00  -2.1337269e+01  -5.4026499e+00   5.9521897e+01  -3.8006879e+00  -1.0440059e+00  -2.2836603e+00  -1.0452143e+01  -2.8294646e+00  -6.0409724e+00  -5.3159534e+00  -7.1401036e+00   0.0000000e+00   0.0000000e+00   0.0000000e+00   0.0000000e+00
   1.0201755e+01  -3.3407720e+01   6.9883411e+00   5.0394720e+01  -4.4719454e+00  -8.3330449e+00  -1.8164688e+01  -1.8899009e+01   2.5369240e+00  -2.1885756e+01  -5.0291122e+00   5.9932926e+01  -3.9088700e+00  -8.2323283e-01  -1.8241708e+00  -1.0109352e+01  -2.8058337e+00  -5.4653804e+00  -4.9317839e+00  -6.6777008e+00   0.0000000e+00   0.0000000e+00   0.0000000e+00   0.0000000e+00
   1.0174672e+01  -3.3029881e+01   6.9771112e+00   5.1019943e+01  -4.3994039e+00  -9.2348927e+00  -2.0391711e+01  -1.9220428e+01   3.2620708e+00  -2.2638136e+01  -5.0290451e+00   6.0503619e+01  -4.3731736e+00  -1.3342656e+00  -2.3191784e+00  -1.0086787e+01  -3.1696106e+00  -5.3181988e+00  -5.4436410e+00  -6.8128008e+00   0.0000000e+00   0.0000000e+00   0.0000000e+00   0.0000000e+00
   1.0120617e+01  -3.2650320e+01   6.6364300e+00   5.1648311e+01  -4.3223801e+00  -1.0083333e+01  -2.2975712e+01  -1.9637390e+01   4.2288118e+00  -2.3535887e+01  -5.1284907e+00   6.1296703e+01  -5.0141542e+00  -2.1672645e+00  -3.3896955e+00  -1.0183347e+01  -3.5414321e+00  -5.3236422e+00  -6.3893975e+00  -7.2567098e+00   0.0000000e+00   0.0000000e+00   0.0000000e+00   0.0000000e+00
   1.0129632e+01  -3.2226589e+01   6.2560090e+00   5.2352047e+01  -4.1768114e+00  -1.0603783e+01  -2.5488715e+01  -1.9959102e+01   5.5665004e+00  -2.4500029e+01  -5.1479941e+00   6.2296738e+01  -5.4816628e+00  -2.9897844e+00  -4.5574477e+00  -1.0219663e+01  -3.6430060e+00  -5.2431762e+00  -7.3994276e+00  -7.7347689e+00   0.0000000e+00   0.0000000e+00   0.0000000e+00   0.0000000e+00
   1.0219508e+01  -3.1771447e+01   6.0517097e+00   5.3169430e+01  -4.0922815e+00  -1.0831453e+01  -2.7765215e+01  -2.0018974e+01   6.9809604e+00  -2.5309478e+01  -5.0436127e+00   6.3367639e+01  -5.5793216e+00  -3.6592971e+00  -5.5396509e+00  -1.0131823e+01  -3.5457856e+00  -5.0556272e+00  -8.3130785e+00  -8.0824088e+00   0.0000000e+00   0.0000000e+00   0.0000000e+00   0.0000000e+00
   9.9279335e+00  -3.1424625e+01   5.9116385e+00   5.3931286e+01  -4.3108854e+00  -1.0949281e+01  -3.0096325e+01  -1.9953163e+01   8.0940937e+00  -2.5820195e+01  -5.0522601e+00   6.4175597e+01  -5.5856767e+00  -4.1287242e+00  -6.3071425e+00  -9.9223823e+00  -3.7611049e+00  -5.1146649e+00  -9.0745274e+00  -8.3105082e+00   0.0000000e+00   0.0000000e+00   0.0000000e+00   0.0000000e+00
   9.5374202e+00  -3.0968981e+01   5.8937920e+00   5.4399380e+01  -4.6506250e+00  -1.0810923e+01  -3.2065911e+01  -1.9752432e+01   9.1291296e+00  -2.6099046e+01  -4.8825339e+00   6.4255022e+01  -5.5051761e+00  -4.0402268e+00  -6.5635493e+00  -9.4994699e+00  -4.2212417e+00  -5.3006225e+00  -9.3476724e+00  -8.2537469e+00   1.0000000e+03   0.0000000e+00   0.0000000e+00   0.0000000e+00
   9.1369657e+00  -3.0408479e+01   5.9097624e+00   5.4562591e+01  -4.8209100e+00  -1.0346564e+01  -3.3641479e+01  -1.9607841e+01   1.0446977e+01  -2.6126326e+01  -4.5236302e+00   6.4190697e+01  -5.2695773e+00  -3.1813841e+00  -6.0820794e+00  -8.9109461e+00  -4.8247278e+00  -5.4909196e+00  -8.9204406e+00  -7.9211547e+00   1.0000000e+03   0.0000000e+00   0.0000000e+00   0.0000000e+00
   8.6974375e+00  -2.9826543e+01   5.9584335e+00   5.4445378e+01  -4.7822239e+00  -9.7141902e+00  -3.4887356e+01  -1.9518925e+01   1.2043250e+01  -2.6076266e+01  -4.0729486e+00   6.4416051e+01  -5.0941102e+00  -1.8095837e+00  -5.0118348e+00  -8.2187524e+00  -5.5356087e+00  -5.7091172e+00  -7.8406048e+00  -7.3943609e+00   1.0000000e+03   3.0000000e+01   0.0000000e+00   0.0000000e+00
   7.9686331e+00  -2.9261153e+01   6.0490942e+00   5.4213136e+01  -4.7390567e+00  -9.1841918e+00  -3.5996871e+01  -1.9504790e+01   1.3564957e+01  -2.6296716e+01  -3.8067493e+00   6.4679199e+01  -5.3251258e+00  -6.0526474e-01  -3.8387776e+00  -7.4664488e+00  -6.4132785e+00  -6.1676162e+00  -6.4690198e+00  -6.7534525e+00   1.0000000e+03   3.0000000e+01   0.0000000e+00   0.0000000e+00
   7.2729928e+00  -2.8503123e+01   6.4778782e+00   5.4009231e+01  -4.8169195e+00  -8.8334870e+00  -3.6433111e+01  -1.9391329e+01   1.4698865e+01  -2.6860435e+01  -3.5719432e+00   6.4873669e+01  -5.8691152e+00   1.9967175e-01  -2.7509096e+00  -6.6743947e+00  -7.1827447e+00  -6.6623023e+00  -5.0184170e+00  -5.9397998e+00   1.0000000e+03   3.0000000e+01   0.0000000e+00   0.0000000e+00
   6.7362317e+00  -2.7698443e+01   7.2359679e+00   5.3874754e+01  -4.9483117e+00  -8.7255762e+00  -3.6318271e+01  -1.9168840e+01   1.5476257e+01  -2.7448986e+01  -3.2970411e+00   6.4891625e+01  -6.3615578e+00   8.1536287e-01  -1.7441519e+00  -5.8796826e+00  -7.7729626e+00  -7.0078482e+00  -3.7317392e+00  -5.1000844e+00   0.0000000e+00   3.0000000e+01   0.0000000e+00   0.0000000e+00
   6.5247596e+00  -2.7024106e+01   8.0976710e+00   5.3849919e+01  -5.0221319e+00  -8.9266898e+00  -3.6104498e+01  -1.8832600e+01   1.6276329e+01  -2.7792277e+01  -2.8012384e+00   6.4860138e+01  -6.5650810e+00   1.4197830e+00  -7.4106768e-01  -5.1144093e+00  -8.2304913e+00  -7.0881271e+00  -2.7881488e+00  -4.3498866e+00   0.0000000e+00   3.0000000e+01   0.0000000e+00   0.0000000e+00
   6.3301149e+00  -2.6637885e+01   8.6400931e+00   5.3972475e+01  -5.0302381e+00  -9.4498966e+00  -3.6423907e+01  -1.8629075e+01   1.7245040e+01  -2.7902544e+01  -2.3253249e+00   6.5311106e+01  -6.6075899e+00   1.7497936e+00   1.2300818e-03  -4.6018197e+00  -8.5963749e+00  -7.1520487e+00  -2.3733399e+00  -3.8896292e+00   0.0000000e+00   3.0000000e+01   0.0000000e+00   0.0000000e+00
   6.4664541e+00  -2.6346846e+01   8.8618327e+00   5.4501025e+01  -4.7914712e+00  -9.9963937e+00  -3.6956678e+01  -1.8469350e+01   1.8577374e+01  -2.7822940e+01  -1.9349725e+00   6.6436750e+01  -6.3392045e+00   1.6834063e+00   2.7027676e-01  -4.4569825e+00  -8.4581360e+00  -7.1027595e+00  -2.4015914e+00  -3.7113049e+00   0.0000000e+00   3.0000000e+01   0.0000000e+00   0.0000000e+00
   6.8841324e+00  -2.6021955e+01   8.7498846e+00   5.5369096e+01  -4.3391914e+00  -1.0348099e+01  -3.7850070e+01  -1.8384140e+01   2.0059249e+01  -2.8071811e+01  -1.9783876e+00   6.7545170e+01  -5.9177311e+00   1.0214948e+00  -1.3796923e-01  -4.6457114e+00  -8.0652559e+00  -7.0549104e+00  -2.8907619e+00  -3.8640552e+00   0.0000000e+00   3.0000000e+01   0.0000000e+00   0.0000000e+00
   7.3576083e+00  -2.5594831e+01   8.4114152e+00   5.6049431e+01  -3.9698224e+00  -1.0410553e+01  -3.9134035e+01  -1.8268983e+01   2.1319622e+01  -2.9057749e+01  -2.4624059e+00   6.7866304e+01  -5.7891832e+00  -3.0536870e-01  -1.1180756e+00  -4.9707507e+00  -7.9007489e+00  -7.1128070e+00  -3.6882265e+00  -4.2421295e+00   0.0000000e+00   3.0000000e+01   0.0000000e+00   0.0000000e+00
   7.4746928e+00  -2.5183968e+01   7.8409994e+00   5.6547059e+01  -3.8000238e+00  -1.0322315e+01  -4.0901870e+01  -1.8210437e+01   2.2453750e+01  -3.0344643e+01  -3.2835545e+00   6.7924807e+01  -6.1405595e+00  -1.9245678e+00  -2.3773801e+00  -5.3024975e+00  -8.0999109e+00  -7.3554152e+00  -4.6030668e+00  -4.7184272e+00   0.0000000e+00   3.0000000e+01   0.0000000e+00   0.0000000e+00
   7.4338463e+00  -2.4743511e+01   7.1685534e+00   5.7201057e+01  -3.5705495e+00  -1.0147604e+01  -4.2658817e+01  -1.8152638e+01   2.4007157e+01  -3.1271744e+01  -3.9092602e+00   6.8222202e+01  -6.3909970e+00  -3.0151165e+00  -3.4268846e+00  -5.5154271e+00  -8.1240832e+00  -7.5071495e+00  -5.3553672e+00  -5.0755473e+00   0.0000000e+00   3.0000000e+01   0.0000000e+00   0.0000000e+00
   7.1934823e+00  -2.4286045e+01   6.3950149e+00   5.8025983e+01  -3.2005504e+00  -9.8882753e+00  -4.4173434e+01  -1.8186442e+01   2.6046428e+01  -3.1696481e+01  -4.1133193e+00   6.8672856e+01  -6.0689402e+00  -3.2186766e+00  -4.0251947e+00  -5.6592876e+00  -7.6861231e+00  -7.4536421e+00  -5.8441135e+00  -5.3614815e+00   0.0000000e+00   3.0000000e+01   0.0000000e+00   0.0000000e+00
   6.9353089e+00  -2.3724591e+01   5.6896088e+00   5.8765336e+01  -2.8029122e+00  -9.4545916e+00  -4.5101903e+01  -1.8381332e+01   2.8208423e+01  -3.1743126e+01  -3.7245235e+00   6.9204232e+01  -5.3484114e+00  -2.7364032e+00  -4.1118996e+00  -5.7710768e+00  -6.7967105e+00  -7.1316728e+00  -5.9530027e+00  -5.6347308e+00   0.0000000e+00   3.0000000e+01   0.0000000e+00   0.0000000e+00
   6.5484713e+00  -2.3222572e+01   5.1125745e+00   5.9180344e+01  -2.5771446e+00  -8.9364777e+00  -4.5568128e+01  -1.8758145e+01   2.9880460e+01  -3.1670715e+01  -2.9380294e+00   6.9536465e+01  -4.8580664e+00  -2.1178390e+00  -3.8487724e+00  -5.8631344e+00  -6.0530565e+00  -6.7588530e+00  -5.6455588e+00  -5.9195948e+00   0.0000000e+00   3.0000000e+01   0.0000000e+00   0.0000000e+00
   6.2355343e+00  -2.2763666e+01   4.9067257e+00   5.9178708e+01  -2.6452956e+00  -8.4633495e+00  -4.5299675e+01  -1.8888137e+01   3.0637533e+01  -3.1739779e+01  -1.8266752e+00   6.9129720e+01  -4.8611903e+00  -1.7396544e+00  -3.4216061e+00  -5.8608067e+00  -5.8171822e+00  -6.2970209e+00  -4.8998122e+00  -6.0093908e+00   0.0000000e+00   3.0000000e+01   0.0000000e+00   0.0000000e+00
   5.7886268e+00  -2.2508132e+01   4.9808745e+00   5.8682120e+01  -3.0902652e+00  -8.2076083e+00  -4.4619378e+01  -1.8679089e+01   3.0767030e+01  -3.2119348e+01  -7.9935749e-01   6.8339645e+01  -5.2970999e+00  -1.6955085e+00  -3.0586191e+00  -5.6802000e+00  -6.1358685e+00  -5.7758736e+00  -3.9776985e+00  -5.8668382e+00   0.0000000e+00   3.0000000e+01   0.0000000e+00   0.0000000e+00
   5.3691161e+00  -2.2385777e+01   5.2512830e+00   5.7791263e+01  -3.7466225e+00  -8.0931497e+00  -4.3622064e+01  -1.8061588e+01   3.1030261e+01  -3.2551921e+01   1.9818987e-01   6.8005381e+01  -5.6961675e+00  -1.5356461e+00  -2.5275686e+00  -5.2068104e+00  -6.5499428e+00  -4.9961432e+00  -2.9617309e+00  -5.4178153e+00   0.0000000e+00   3.0000000e+01   0.0000000e+00   0.0000000e+00
   4.9273143e+00  -2.2291825e+01   5.4669374e+00   5.7004285e+01  -4.2578558e+00  -8.0111315e+00  -4.2712691e+01  -1.7309470e+01   3.1626974e+01  -3.2741565e+01   1.1161475e+00   6.8154630e+01  -5.6519443e+00  -9.5965511e-01  -1.6874706e+00  -4.5435248e+00  -6.7750677e+00  -4.0325129e+00  -2.0351376e+00  -4.8225770e+00   0.0000000e+00   3.0000000e+01   0.0000000e+00   0.0000000e+00
   4.6943472e+00  -2.2047792e+01   5.5975084e+00   5.6695400e+01  -4.3640340e+00  -7.9391488e+00  -4.1805850e+01  -1.6511993e+01   3.2509228e+01  -3.2727549e+01   2.0031170e+00   6.8155853e+01  -5.0032262e+00  -1.2512679e-01  -6.8857679e-01  -3.8141582e+00  -6.6455100e+00  -2.9240046e+00  -1.3810334e+00  -4.2440504e+00   0.0000000e+00   3.0000000e+01   0.0000000e+00   0.0000000e+00
   4.5742773e+00  -2.1735826e+01   5.6891638e+00   5.6745901e+01  -4.1929234e+00  -8.0239308e+00  -4.1131560e+01  -1.5691584e+01   3.3508495e+01  -3.2798332e+01   2.6642622e+00   6.8004761e+01  -4.1694173e+00   3.6497577e-01   6.5925684e-02  -3.1107128e+00  -6.4898789e+00  -1.8875625e+00  -1.2955290e+00  -3.8695149e+00   0.0000000e+00   3.0000000e+01   0.0000000e+00   0.0000000e+00
   4.5900812e+00  -2.1419101e+01   5.9121835e+00   5.6906988e+01  -3.8812559e+00  -8.1558299e+00  -4.0829397e+01  -1.4788211e+01   3.4424383e+01  -3.3221398e+01   3.0897739e+00   6.8109409e+01  -3.7152104e+00   1.6623113e-01   3.2105964e-01  -2.4959213e+00  -6.5327674e+00  -1.1296694e+00  -1.8527540e+00  -3.7717575e+00   0.0000000e+00   3.0000000e+01   0.0000000e+00   0.0000000e+00
   4.5239790e+00  -2.1109827e+01   6.1547739e+00   5.7057770e+01  -3.3621373e+00  -8.0147004e+00  -4.1256445e+01  -1.4088400e+01   3.5245088e+01  -3.3779401e+01   3.1495321e+00   6.8207499e+01  -3.6463081e+00  -5.1811098e-01   1.6063828e-02  -2.1470245e+00  -6.6910793e+00  -8.9564498e-01  -2.8898154e+00  -4.0690109e+00   0.0000000e+00   3.0000000e+01   0.0000000e+00   0.0000000e+00
   4.6545142e+00  -2.0635080e+01   6.4590726e+00   5.7128092e+01  -2.5308785e+00  -7.5352025e+00  -4.1965474e+01  -1.3604823e+01   3.6190390e+01  -3.4012664e+01   3.1203594e+00   6.8133593e+01  -3.3886987e+00  -1.1893032e+00  -5.7343163e-01  -2.1296614e+00  -6.5368759e+00  -9.1401189e-01  -3.9968269e+00  -4.6317467e+00   0.0000000e+00   3.0000000e+01   0.0000000e+00   0.0000000e+00
   4.8778943e+00  -2.0269768e+01   6.7175046e+00   5.7202280e+01  -1.6653344e+00  -7.2571269e+00  -4.2801695e+01  -1.3396900e+01   3.7109781e+01  -3.3907190e+01   3.0157692e+00   6.8304126e+01  -2.8711245e+00  -1.7298271e+00  -1.2698259e+00  -2.4202354e+00  -6.2794188e+00  -1.0377256e+00  -5.0402848e+00  -5.4068912e+00   0.0000000e+00   3.0000000e+01   0.0000000e+00   0.0000000e+00
   5.0998370e+00  -2.0168468e+01   6.9076559e+00   5.7302686e+01  -1.0688329e+00  -7.4600064e+00  -4.3551219e+01  -1.3373430e+01   3.7765371e+01  -3.3810353e+01   2.9044104e+00   6.8640738e+01  -2.4581327e+00  -2.1232578e+00  -1.9106358e+00  -2.8607710e+00  -6.1416147e+00  -1.1793689e+00  -5.8852753e+00  -6.2536563e+00   0.0000000e+00   3.0000000e+01   0.0000000e+00   0.0000000e+00
   5.1048523e+00  -2.0184771e+01   7.0091371e+00   5.7270181e+01  -7.8799990e-01  -7.8446347e+00  -4.4150573e+01  -1.3479853e+01   3.8016722e+01  -3.3842844e+01   2.7667125e+00   6.9003463e+01  -2.5025244e+00  -2.2693860e+00  -2.3144914e+00  -3.2755974e+00  -6.1412942e+00  -1.3243755e+00  -6.3646637e+00  -6.9961393e+00   0.0000000e+00   3.0000000e+01   0.0000000e+00   0.0000000e+00
   5.2357016e+00  -1.9951017e+01   7.1951924e+00   5.7165888e+01  -5.6822777e-01  -7.8705276e+00  -4.4024782e+01  -1.3450968e+01   3.8078261e+01  -3.3904053e+01   2.8365970e+00   6.9470932e+01  -2.6396060e+00  -1.8804126e+00  -2.2111840e+00  -3.5016975e+00  -5.8656041e+00  -1.1070983e+00  -6.3515246e+00  -7.4177908e+00   0.0000000e+00   3.0000000e+01   0.0000000e+00   0.0000000e+00
   5.3439989e+00  -1.9504811e+01   7.2566117e+00   5.7244220e+01  -2.4083897e-01  -7.5275708e+00  -4.3513876e+01  -1.3392386e+01   3.8189500e+01  -3.3804023e+01   2.8658285e+00   6.9909636e+01  -2.4183064e+00  -1.0358062e+00  -1.7456977e+00  -3.6612293e+00  -5.2537814e+00  -5.3954967e-01  -6.0440253e+00  -7.7179498e+00   0.0000000e+00   3.0000000e+01   0.0000000e+00   0.0000000e+00
   5.4496155e+00  -1.8927794e+01   7.0556828e+00   5.7482067e+01   1.5585843e-01  -7.1608615e+00  -4.2976265e+01  -1.3364101e+01   3.8563970e+01  -3.3438787e+01   2.8300358e+00   7.0111455e+01  -1.8079841e+00  -4.8194975e-02  -1.2196058e+00  -3.9073956e+00  -4.3550464e+00   1.7899634e-01  -5.6490809e+00  -8.0961350e+00   0.0000000e+00   3.0000000e+01   0.0000000e+00   0.0000000e+00
   5.3288952e+00  -1.8508319e+01   6.4629913e+00   5.7733665e+01   3.3652960e-01  -7.1022535e+00  -4.2920619e+01  -1.3597225e+01   3.9191394e+01  -3.3124992e+01   2.5235872e+00   7.0090274e+01  -1.3736350e+00   4.6660529e-01  -1.0644831e+00  -4.3098300e+00  -3.5468434e+00   5.1848597e-01  -5.5158569e+00  -8.7211188e+00   0.0000000e+00   3.0000000e+01   0.0000000e+00   0.0000000e+00
   5.1416700e+00  -1.8232819e+01   5.6774552e+00   5.7854940e+01   1.1830244e-01  -7.3380905e+00  -4.2961901e+01  -1.3945786e+01   3.9946213e+01  -3.3228480e+01   2.0191991e+00   6.9782770e+01  -1.4594400e+00   1.6799377e-01  -1.3998531e+00  -4.7235598e+00  -3.0480512e+00   3.6014644e-01  -5.6768784e+00  -9.4016338e+00   0.0000000e+00   3.0000000e+01   0.0000000e+00   0.0000000e+00
   4.9030071e+00  -1.8067889e+01   4.7654175e+00   5.7855673e+01  -3.7375846e-01  -7.7713874e+00  -4.2919064e+01  -1.4235393e+01   4.0730411e+01  -3.3773302e+01   1.3840265e+00   6.9673114e+01  -1.7804894e+00  -7.6057355e-01  -2.1126992e+00  -5.0346831e+00  -2.9849594e+00  -1.7573914e-01  -6.1230638e+00  -9.9344898e+00   0.0000000e+00   3.0000000e+01   0.0000000e+00   0.0000000e+00
   4.6928514e+00  -1.7959838e+01   3.8584638e+00   5.7867673e+01  -8.4577342e-01  -8.3031986e+00  -4.2782560e+01  -1.4363746e+01   4.1673187e+01  -3.4424466e+01   7.7430428e-01   6.9972053e+01  -1.8653045e+00  -1.8645296e+00  -2.9828682e+00  -5.2651929e+00  -3.1270829e+00  -9.2146599e-01  -6.8052780e+00  -1.0269465e+01   0.0000000e+00   3.0000000e+01   0.0000000e+00   0.0000000e+00
   4.2168286e+00  -1.7937671e+01   2.9797263e+00   5.7841417e+01  -1.3496151e+00  -8.9868684e+00  -4.2992137e+01  -1.4574924e+01   4.2456621e+01  -3.4992452e+01  -4.2866656e-02   7.0147248e+01  -1.9590812e+00  -3.0797247e+00  -4.0494884e+00  -5.5771180e+00  -3.6419785e+00  -2.0708419e+00  -7.8369789e+00  -1.0635163e+01   0.0000000e+00   3.0000000e+01   0.0000000e+00   0.0000000e+00
   3.8065922e+00  -1.7707677e+01   2.3328285e+00   5.7725672e+01  -1.9412881e+00  -9.7170580e+00  -4.3119413e+01  -1.4821295e+01   4.2902177e+01  -3.5475240e+01  -9.6351761e-01   6.9833845e+01  -2.4395955e+00  -4.4591920e+00  -5.2993503e+00  -5.9810957e+00  -4.5619838e+00  -3.4972975e+00  -9.0662916e+00  -1.1021893e+01   0.0000000e+00   3.0000000e+01   0.0000000e+00   0.0000000e+00
   3.6941204e+00  -1.7111214e+01   1.9270894e+00   5.7713747e+01  -2.4082446e+00  -1.0444046e+01  -4.2953793e+01  -1.5119642e+01   4.3257902e+01  -3.5886830e+01  -2.0280548e+00   6.9492829e+01  -3.0835411e+00  -5.9763580e+00  -6.7776824e+00  -6.4915918e+00  -5.6469464e+00  -4.9795776e+00  -1.0332639e+01  -1.1464652e+01   0.0000000e+00   3.0000000e+01   0.0000000e+00   0.0000000e+00
   4.0977695e+00  -1.6282247e+01   1.7112127e+00   5.7984232e+01  -2.4894288e+00  -1.1084979e+01  -4.2314698e+01  -1.5366358e+01   4.3801819e+01  -3.6214043e+01  -3.0508340e+00   6.9705828e+01  -3.2347082e+00  -7.2544225e+00  -8.3597033e+00  -7.0267058e+00  -6.3246234e+00  -6.2016935e+00  -1.1385185e+01  -1.1891391e+01   0.0000000e+00   3.0000000e+01   0.0000000e+00   0.0000000e+00
   4.8758350e+00  -1.5463068e+01   1.5258595e+00   5.8558142e+01  -2.1109541e+00  -1.1419117e+01  -4.1346997e+01  -1.5506568e+01   4.4702186e+01  -3.6396360e+01  -3.8744425e+00   7.0417668e+01  -2.7432366e+00  -7.8146811e+00  -9.5833361e+00  -7.3770964e+00  -6.3576080e+00  -7.0086543e+00  -1.1862168e+01  -1.2118191e+01   0.0000000e+00   3.0000000e+01   0.0000000e+00   0.0000000e+00
   6.1446940e+00  -1.4484385e+01   1.4991796e+00   5.9376010e+01  -1.2724875e+00  -1.1044355e+01  -3.9649314e+01  -1.5187701e+01   4.5898267e+01  -3.6232045e+01  -4.0440717e+00   7.1074083e+01  -1.8098708e+00  -7.2543243e+00  -9.8057028e+00  -7.2085048e+00  -5.5856758e+00  -7.0119954e+00  -1.1233508e+01  -1.1738284e+01   0.0000000e+00   3.0000000e+01   0.0000000e+00   0.0000000e+00
   7.5598693e+00  -1.3361699e+01   1.6551262e+00   6.0195706e+01  -2.5771291e-01  -1.0023178e+01  -3.7443541e+01  -1.4441352e+01   4.6886256e+01  -3.5605788e+01  -3.6397435e+00   7.1423803e+01  -8.5799761e-01  -5.9318574e+00  -9.0609087e+00  -6.5047944e+00  -4.4033979e+00  -6.2210326e+00  -9.6986109e+00  -1.0765277e+01   0.0000000e+00   3.0000000e+01   0.0000000e+00   0.0000000e+00
   8.7061058e+00  -1.2165969e+01   1.9763665e+00   6.0759332e+01   5.4905220e-01  -8.8403894e+00  -3.5140880e+01  -1.3546675e+01   4.7560900e+01  -3.4737002e+01  -2.9282177e+00   7.1589593e+01  -1.6012935e-01  -4.5039121e+00  -7.7825343e+00  -5.5894414e+00  -3.2259103e+00  -4.9663936e+00  -7.8838837e+00  -9.5338560e+00   0.0000000e+00   3.0000000e+01   0.0000000e+00   0.0000000e+00
   9.0893692e+00  -1.1150872e+01   2.2485711e+00   6.0937374e+01   9.6460969e-01  -7.9921943e+00  -3.3419615e+01  -1.2878261e+01   4.7916064e+01  -3.3796380e+01  -2.3043493e+00   7.1305095e+01   2.3963693e-01  -3.3792707e+00  -6.4780895e+00  -4.8437162e+00  -2.3340019e+00  -3.8548706e+00  -6.4154814e+00  -8.4949376e+00   0.0000000e+00   3.0000000e+01   0.0000000e+00   0.0000000e+00
   9.1086157e+00  -1.0255109e+01   2.5576151e+00   6.0690758e+01   1.1103578e+00  -7.5465959e+00  -3.2007465e+01  -1.2330902e+01   4.8083805e+01  -3.2740199e+01  -1.6542079e+00   7.0353262e+01   7.2682907e-01  -2.4686712e+00  -5.3494333e+00  -4.3729215e+00  -1.6013216e+00  -2.9842920e+00  -5.4675711e+00  -7.7415428e+00   0.0000000e+00   3.0000000e+01   0.0000000e+00   0.0000000e+00
   8.9642938e+00  -9.4036569e+00   2.7875458e+00   6.0230699e+01   1.0583124e+00  -7.4279876e+00  -3.0800368e+01  -1.1841878e+01   4.8335408e+01  -3.1776499e+01  -1.1387262e+00   6.9401230e+01   1.2700389e+00  -1.8153493e+00  -4.6022222e+00  -4.1375162e+00  -1.1820790e+00  -2.3642507e+00  -5.0361410e+00  -7.2546842e+00   0.0000000e+00   3.0000000e+01   0.0000000e+00   0.0000000e+00
   8.8389548e+00  -8.5976389e+00   2.9299465e+00   5.9814782e+01   9.7400604e-01  -7.4328567e+00  -2.9558636e+01  -1.1283365e+01   4.8773657e+01  -3.0812570e+01  -7.8319217e-01   6.8777459e+01   1.5455914e+00  -1.5285485e+00  -4.2005940e+00  -3.9454709e+00  -1.0780600e+00  -1.9515508e+00  -4.8730327e+00  -6.8377111e+00   0.0000000e+00   3.0000000e+01   0.0000000e+00   0.0000000e+00
   8.5601701e+00  -7.9875862e+00   3.0022732e+00   5.9535209e+01   9.8107534e-01  -7.4788933e+00  -2.8357727e+01  -1.0717957e+01   4.9161249e+01  -2.9706356e+01  -6.4332287e-01   6.8527676e+01   1.6177431e+00  -1.5409935e+00  -4.0165137e+00  -3.7356902e+00  -1.1213142e+00  -1.8375156e+00  -4.7867685e+00  -6.4226941e+00   0.0000000e+00   3.0000000e+01   0.0000000e+00   0.0000000e+00
   8.3736322e+00  -7.3653785e+00   3.3101758e+00   5.9374029e+01   1.1150016e+00  -7.4701420e+00  -2.6838694e+01  -9.9865089e+00   4.9484240e+01  -2.8758770e+01  -5.0339943e-01   6.8641215e+01   1.7636299e+00  -1.5360114e+00  -3.9030991e+00  -3.4536460e+00  -9.1089124e-01  -1.8106163e+00  -4.6832475e+00  -5.9651771e+00   0.0000000e+00   3.0000000e+01   0.0000000e+00   0.0000000e+00
   8.2955054e+00  -6.6720302e+00   3.8274320e+00   5.9251059e+01   1.2879400e+00  -7.4271208e+00  -2.5191068e+01  -9.2125400e+00   4.9599421e+01  -2.8312664e+01  -4.7002064e-01   6.8910241e+01   1.8539470e+00  -1.4938449e+00  -3.9552738e+00  -3.1212914e+00  -6.2479388e-01  -1.8598110e+00  -4.7299170e+00  -5.6207035e+00   0.0000000e+00   3.0000000e+01   0.0000000e+00   0.0000000e+00
   8.2745353e+00  -5.9412558e+00   4.3175203e+00   5.9003653e+01   1.4346550e+00  -7.4069478e+00  -2.3525038e+01  -8.5257647e+00   4.9398239e+01  -2.8231459e+01  -5.1786333e-01   6.9051491e+01   1.8750147e+00  -1.3902923e+00  -4.1563428e+00  -2.8065373e+00  -4.2745589e-01  -2.0218936e+00  -4.9320812e+00  -5.4406695e+00   0.0000000e+00   3.0000000e+01   0.0000000e+00   0.0000000e+00
   7.9505156e+00  -5.4097615e+00   4.4521148e+00   5.8593806e+01   1.5586858e+00  -7.4992737e+00  -2.2362701e+01  -8.1247132e+00   4.9142329e+01  -2.8149065e+01  -7.9683966e-01   6.8732992e+01   1.7927351e+00  -1.2939549e+00  -4.4820618e+00  -2.6002435e+00  -5.0497922e-01  -2.5285120e+00  -5.2395729e+00  -5.4923798e+00   0.0000000e+00   3.0000000e+01   0.0000000e+00   0.0000000e+00
   7.6514516e+00  -5.0063871e+00   4.3659165e+00   5.8262990e+01   1.7888606e+00  -7.5496511e+00  -2.1521797e+01  -7.8419308e+00   4.9348453e+01  -2.7875284e+01  -1.0770235e+00   6.7925366e+01   1.6845931e+00  -1.2199164e+00  -4.7938316e+00  -2.4413011e+00  -5.7713095e-01  -3.1355893e+00  -5.4896813e+00  -5.6273924e+00   0.0000000e+00   3.0000000e+01   0.0000000e+00   0.0000000e+00
   7.4509181e+00  -4.6832741e+00   4.1736714e+00   5.8029865e+01   2.0521606e+00  -7.5124282e+00  -2.0929204e+01  -7.6601300e+00   5.0169587e+01  -2.7391706e+01  -1.2942234e+00   6.7103997e+01   1.5154523e+00  -1.2120916e+00  -5.0391904e+00  -2.3086511e+00  -5.9992809e-01  -3.6266474e+00  -5.7458871e+00  -5.8029025e+00   0.0000000e+00   3.0000000e+01   0.0000000e+00   0.0000000e+00
   7.3692275e+00  -4.3779919e+00   3.9259683e+00   5.7585769e+01   2.1474266e+00  -7.4624138e+00  -2.0442826e+01  -7.4839217e+00   5.1292491e+01  -2.6836722e+01  -1.3390379e+00   6.6389544e+01   1.0852516e+00  -1.2042258e+00  -5.0521445e+00  -2.1464019e+00  -7.6432649e-01  -4.0226287e+00  -6.0370007e+00  -5.8828576e+00   0.0000000e+00   3.0000000e+01   0.0000000e+00   0.0000000e+00
   7.2325056e+00  -4.0967879e+00   3.5869787e+00   5.6902921e+01   1.9408545e+00  -7.4108861e+00  -2.0158416e+01  -7.2843520e+00   5.2275471e+01  -2.6278819e+01  -1.2734139e+00   6.5217661e+01   3.4406620e-01  -1.1921083e+00  -4.7439261e+00  -1.8825452e+00  -1.2812272e+00  -4.5359346e+00  -6.2962765e+00  -5.7273165e+00   0.0000000e+00   3.0000000e+01   0.0000000e+00   0.0000000e+00
   7.3785441e+00  -3.5770756e+00   3.4196983e+00   5.6253792e+01   1.6290081e+00  -7.1638458e+00  -1.9417637e+01  -6.8364858e+00   5.3195511e+01  -2.5711338e+01  -8.8825809e-01   6.3550647e+01  -3.8349466e-01  -1.1720978e+00  -4.1601153e+00  -1.4830815e+00  -1.8265665e+00  -4.8656278e+00  -6.3071619e+00  -5.2406601e+00   0.0000000e+00   3.0000000e+01   0.0000000e+00   0.0000000e+00
   7.7266349e+00  -2.8509771e+00   3.3979616e+00   5.5921933e+01   1.4385104e+00  -6.6656172e+00  -1.8300720e+01  -6.2861642e+00   5.3957957e+01  -2.5340413e+01  -5.0895998e-01   6.2413059e+01  -1.0697776e+00  -1.4319582e+00  -3.7174852e+00  -1.1573645e+00  -2.3486663e+00  -4.8824263e+00  -6.3044437e+00  -4.7741462e+00   0.0000000e+00   3.0000000e+01   0.0000000e+00   0.0000000e+00
   8.2096172e+00  -1.9246114e+00   3.5287746e+00   5.5884214e+01   1.5568927e+00  -5.9034604e+00  -1.6978262e+01  -5.7144801e+00   5.4422856e+01  -2.5303102e+01  -4.0026291e-01   6.2102906e+01  -1.5801675e+00  -1.9579035e+00  -3.6921180e+00  -1.0611303e+00  -2.6376214e+00  -4.6017785e+00  -6.4618330e+00  -4.5747883e+00   0.0000000e+00   3.0000000e+01   0.0000000e+00   0.0000000e+00
   8.6060536e+00  -1.0284861e+00   3.7854629e+00   5.5924414e+01   2.0312905e+00  -5.0871235e+00  -1.5741655e+01  -5.2465983e+00   5.4475842e+01  -2.5375579e+01  -7.1539237e-01   6.2060624e+01  -1.7741664e+00  -2.4178015e+00  -4.0398140e+00  -1.2554681e+00  -2.5510387e+00  -4.2298966e+00  -6.6983096e+00  -4.6900987e+00   0.0000000e+00   3.0000000e+01   0.0000000e+00   0.0000000e+00
   9.1921226e+00  -2.3802292e-01   4.3596408e+00   5.5947577e+01   2.8796152e+00  -4.2907295e+00  -1.4223753e+01  -4.7505789e+00   5.4562841e+01  -2.5124268e+01  -1.0500234e+00   6.2089719e+01  -1.4433597e+00  -2.2479043e+00  -4.3285818e+00  -1.5512487e+00  -1.8070178e+00  -3.5825179e+00  -6.6769166e+00  -4.8831314e+00   0.0000000e+00   3.0000000e+01   0.0000000e+00   0.0000000e+00
   9.8539401e+00   3.9969025e-01   5.0387369e+00   5.5935202e+01   3.8195224e+00  -3.5846248e+00  -1.2560035e+01  -4.3365163e+00   5.5100698e+01  -2.4563189e+01  -1.2814155e+00   6.2113923e+01  -6.8864139e-01  -1.4069836e+00  -4.4222477e+00  -1.7471921e+00  -6.7726285e-01  -2.6490381e+00  -6.4165253e+00  -5.1032869e+00   0.0000000e+00   3.0000000e+01   0.0000000e+00   0.0000000e+00
   1.0333081e+01   8.3515856e-01   5.4685490e+00   5.5901070e+01   4.4209044e+00  -3.0927876e+00  -1.0989539e+01  -4.1510762e+00   5.5817762e+01  -2.3932477e+01  -1.3752931e+00   6.1723218e+01   2.7666861e-01  -3.6916058e-01  -4.4569104e+00  -1.8160390e+00   2.7013312e-01  -1.6762397e+00  -6.0954175e+00  -5.4185669e+00   0.0000000e+00   3.0000000e+01   0.0000000e+00   0.0000000e+00
   1.0317326e+01   1.0808649e+00   5.4257885e+00   5.5921877e+01   4.6457962e+00  -2.8374653e+00  -9.9929740e+00  -4.3572181e+00   5.6246941e+01  -2.3348308e+01  -1.4779562e+00   6.1047440e+01   1.3109483e+00   5.1590174e-01  -4.4810270e+00  -1.8330545e+00   6.9849246e-01  -1.0345270e+00  -5.8151091e+00  -5.8764869e+00   0.0000000e+00   3.0000000e+01   0.0000000e+00   0.0000000e+00
   1.0175080e+01   1.3711490e+00   5.1501570e+00   5.5877106e+01   4.9179234e+00  -2.5293768e+00  -9.1962543e+00  -4.6317947e+00   5.6373020e+01  -2.2759161e+01  -1.3558031e+00   6.0325614e+01   2.1724976e+00   1.3245465e+00  -4.1961229e+00  -1.6906342e+00   1.0355102e+00  -6.4315774e-01  -5.3913414e+00  -6.1352125e+00   0.0000000e+00   3.0000000e+01   0.0000000e+00   0.0000000e+00
   9.8800860e+00   1.5904705e+00   4.6992957e+00   5.5570414e+01   5.1514958e+00  -2.2182784e+00  -8.5944283e+00  -4.8217048e+00   5.6181535e+01  -2.2234942e+01  -1.1285695e+00   5.9668897e+01   2.1942360e+00   1.8364646e+00  -3.6195551e+00  -1.3944152e+00   1.2309450e+00  -5.8754009e-01  -4.9337427e+00  -6.0395291e+00   0.0000000e+00   3.0000000e+01   0.0000000e+00   0.0000000e+00
   9.2552233e+00   1.6130358e+00   4.2116601e+00   5.4798555e+01   4.7587214e+00  -2.2378795e+00  -8.2396810e+00  -4.8624087e+00   5.5767622e+01  -2.1838799e+01  -9.0558354e-01   5.8928865e+01   1.1907807e+00   1.8320936e+00  -3.0173172e+00  -1.0477796e+00   8.8808767e-01  -9.9373810e-01  -4.6450268e+00  -5.6126191e+00   0.0000000e+00   3.0000000e+01   0.0000000e+00   0.0000000e+00
   7.9616770e+00   1.2545631e+00   3.7818915e+00   5.3520435e+01   3.5424820e+00  -2.8249997e+00  -8.3858208e+00  -4.8968026e+00   5.5420451e+01  -2.1542856e+01  -8.7976496e-01   5.7822233e+01  -2.7938426e-01   1.2887754e+00  -2.7642423e+00  -7.8226624e-01  -2.8703732e-01  -2.0362688e+00  -4.8225959e+00  -5.2324554e+00   0.0000000e+00   3.0000000e+01   0.0000000e+00   0.0000000e+00
   6.4780993e+00   7.8487376e-01   3.6019730e+00   5.2211893e+01   2.2852086e+00  -3.5650272e+00  -8.5918972e+00  -4.8924469e+00   5.5380554e+01  -2.1453702e+01  -9.2325649e-01   5.6245715e+01  -1.3912140e+00   5.6342381e-01  -2.8472543e+00  -6.2026007e-01  -1.6504208e+00  -3.3566364e+00  -5.3054325e+00  -5.1147089e+00   0.0000000e+00   3.0000000e+01   0.0000000e+00   0.0000000e+00
   5.3598981e+00   5.3700073e-01   3.6001796e+00   5.1403819e+01   1.8195911e+00  -3.9492048e+00  -8.6393860e+00  -4.9683345e+00   5.5451593e+01  -2.1771344e+01  -1.1222713e+00   5.4407750e+01  -2.0160283e+00  -1.4370437e-01  -3.1514106e+00  -6.0321621e-01  -2.5570888e+00  -4.5174841e+00  -5.7660932e+00  -5.2156459e+00   0.0000000e+00   3.0000000e+01   0.0000000e+00   0.0000000e+00
   4.9874886e+00   7.3749801e-01   3.8129488e+00   5.1190978e+01   2.1866332e+00  -3.7791126e+00  -8.2381031e+00  -4.9835420e+00   5.5540806e+01  -2.2172274e+01  -1.2983017e+00   5.2747121e+01  -2.3338954e+00  -7.0429714e-01  -3.4626676e+00  -6.1392002e-01  -2.7312949e+00  -5.1660582e+00  -5.8429050e+00  -5.2257554e+00   0.0000000e+00   3.0000000e+01   0.0000000e+00   0.0000000e+00
   4.9774869e+00   1.1810803e+00   4.0882035e+00   5.1233257e+01   2.8248633e+00  -3.2455262e+00  -7.5943239e+00  -4.8650411e+00   5.5909562e+01  -2.1924010e+01  -1.3253805e+00   5.1822648e+01  -2.0633984e+00  -8.2865859e-01  -3.5543834e+00  -5.4840245e-01  -2.3598015e+00  -5.3194610e+00  -5.3555409e+00  -5.0518437e+00   0.0000000e+00   3.0000000e+01   0.0000000e+00   0.0000000e+00
   5.1996360e+00   1.6714696e+00   4.3859954e+00   5.1119301e+01   3.3755792e+00  -2.5829820e+00  -6.5664190e+00  -4.5298224e+00   5.6849180e+01  -2.0858383e+01  -9.6143730e-01   5.1742391e+01  -8.2540795e-01  -1.2422093e-01  -3.1827612e+00  -3.9939221e-01  -1.5424030e+00  -4.9048935e+00  -4.3056447e+00  -4.7000404e+00   0.0000000e+00   3.0000000e+01   0.0000000e+00   0.0000000e+00
   5.4288824e+00   2.0121571e+00   4.6273891e+00   5.0838119e+01   3.8089841e+00  -1.9680613e+00  -5.4204135e+00  -4.1795783e+00   5.8004861e+01  -1.9423347e+01  -4.1056899e-01   5.2175548e+01   7.3176447e-01   1.2404783e+00  -2.4787441e+00  -2.4792146e-01  -6.7346933e-01  -4.1126236e+00  -3.1126334e+00  -4.3486871e+00   0.0000000e+00   3.0000000e+01   0.0000000e+00   0.0000000e+00
   5.5966067e+00   2.2274891e+00   4.8622868e+00   5.0517855e+01   4.0991690e+00  -1.4388843e+00  -4.2808112e+00  -3.8683648e+00   5.8723979e+01  -1.8088668e+01   1.7745681e-01   5.2674623e+01   1.7613880e+00   2.7033047e+00  -1.6808385e+00  -4.5857016e-03  -7.7943834e-02  -3.2745918e+00  -2.0800022e+00  -3.9963340e+00   0.0000000e+00   3.0000000e+01   0.0000000e+00   0.0000000e+00
   5.4365528e+00   2.2804184e+00   5.0449812e+00   5.0003692e+01   3.8761549e+00  -1.1441650e+00  -3.4430339e+00  -3.6491625e+00   5.8587966e+01  -1.7272051e+01   5.9242962e-01   5.2666868e+01   1.8960079e+00   3.6249103e+00  -1.0043940e+00   4.1491339e-01  -1.9108289e-01  -2.8774214e+00  -1.4765215e+00  -3.6052815e+00   0.0000000e+00   3.0000000e+01   0.0000000e+00   0.0000000e+00
   5.0652895e+00   2.2247668e+00   5.2820525e+00   4.9040739e+01   2.9590086e+00  -1.1189760e+00  -2.7629053e+00  -3.3986295e+00   5.7847458e+01  -1.7095023e+01   9.6907226e-01   5.1767740e+01   1.3298612e+00   3.7374489e+00  -4.8645213e-01   1.0036355e+00  -9.8510938e-01  -2.9868427e+00  -1.4423450e+00  -3.1432079e+00   0.0000000e+00   3.0000000e+01   0.0000000e+00   0.0000000e+00
   4.5277769e+00   2.0916471e+00   5.5309236e+00   4.7823120e+01   1.7019055e+00  -1.2766216e+00  -2.3501237e+00  -3.1694425e+00   5.6849652e+01  -1.7200968e+01   1.2571284e+00   5.0131041e+01   3.8240235e-01   3.1038309e+00  -1.9632687e-01   1.6441476e+00  -2.1584046e+00  -3.5114051e+00  -1.9568655e+00  -2.7563463e+00   0.0000000e+00   3.0000000e+01   0.0000000e+00   0.0000000e+00
   4.2042143e+00   2.0775561e+00   5.8426874e+00   4.6872678e+01   7.6476141e-01  -1.3749747e+00  -1.8805250e+00  -2.8711270e+00   5.6092510e+01  -1.7269334e+01   1.5683760e+00   4.8566675e+01  -3.7216004e-01   2.2977011e+00  -2.9955632e-02   2.2124426e+00  -2.9901917e+00  -4.0465156e+00  -2.5628119e+00  -2.4423886e+00   0.0000000e+00   3.0000000e+01   0.0000000e+00   0.0000000e+00
   4.0550334e+00   2.0551434e+00   6.0711254e+00   4.6429388e+01   3.1801282e-01  -1.5116726e+00  -1.4098748e+00  -2.5825716e+00   5.5935976e+01  -1.7207118e+01   1.7536484e+00   4.7973697e+01  -6.9266044e-01   1.6631452e+00  -1.0658637e-02   2.5366820e+00  -3.3308370e+00  -4.4546519e+00  -3.0277244e+00  -2.3267015e+00   0.0000000e+00   3.0000000e+01   0.0000000e+00   0.0000000e+00
   4.0714981e+00   1.9608571e+00   6.2083609e+00   4.6342670e+01   1.2387491e-01  -1.8500648e+00  -8.6514574e-01  -2.2659936e+00   5.6353720e+01  -1.7022071e+01   1.7727474e+00   4.8078730e+01  -6.7553236e-01   1.2450037e+00  -1.4891227e-01   2.6050388e+00  -3.3531627e+00  -4.7077631e+00  -3.2513762e+00  -2.4016651e+00   0.0000000e+00   3.0000000e+01   0.0000000e+00   0.0000000e+00
   4.1614951e+00   1.8211444e+00   6.1717977e+00   4.6355386e+01   4.0581960e-03  -2.3013836e+00  -4.0391963e-01  -1.9867714e+00   5.6972239e+01  -1.6806131e+01   1.5588644e+00   4.8357068e+01  -3.7714409e-01   1.0549134e+00  -3.6496222e-01   2.5307752e+00  -3.3136397e+00  -4.8409701e+00  -3.2236443e+00  -2.6186732e+00   0.0000000e+00   3.0000000e+01   0.0000000e+00   0.0000000e+00
   4.3923880e+00   1.7982284e+00   5.9177291e+00   4.6450772e+01   7.1486619e-02  -2.5273136e+00   7.7036703e-02  -1.7402833e+00   5.7545586e+01  -1.6563315e+01   1.2860553e+00   4.8915747e+01   3.3220213e-01   1.2139969e+00  -5.4018533e-01   2.4181418e+00  -3.0618248e+00  -4.7854844e+00  -2.9592458e+00  -2.9092353e+00   0.0000000e+00   3.0000000e+01   0.0000000e+00   0.0000000e+00
   4.4567932e+00   1.8721854e+00   5.3970552e+00   4.6751420e+01   3.6574487e-01  -2.4552549e+00   3.7124390e-01  -1.7127501e+00   5.8092293e+01  -1.6166534e+01   8.8686527e-01   4.9821171e+01   1.2915543e+00   1.6565170e+00  -7.8621101e-01   2.1885224e+00  -2.6524105e+00  -4.7703433e+00  -2.6664584e+00  -3.3811430e+00   0.0000000e+00   3.0000000e+01   5.0000000e+01   0.0000000e+00
   4.4493630e+00   2.1137533e+00   4.9011465e+00   4.6925534e+01   7.3048196e-01  -2.2288878e+00   8.2817204e-01  -1.7772797e+00   5.8648643e+01  -1.5565074e+01   6.2185823e-01   5.0612907e+01   2.0828959e+00   2.2131914e+00  -1.0496109e+00   1.9649500e+00  -2.2243765e+00  -4.8325927e+00  -2.4681291e+00  -3.9077781e+00   0.0000000e+00   3.0000000e+01   5.0000000e+01   0.0000000e+00
   4.3547720e+00   2.3694993e+00   4.5749824e+00   4.6516680e+01   8.7283668e-01  -2.1095540e+00   1.4945853e+00  -1.8155171e+00   5.8932244e+01  -1.5018716e+01   5.4071025e-01   5.0901353e+01   2.2471039e+00   2.5112885e+00  -1.3255789e+00   1.9078060e+00  -2.1935568e+00  -5.0097261e+00  -2.5280115e+00  -4.3572879e+00   0.0000000e+00   3.0000000e+01   5.0000000e+01   0.0000000e+00
   4.3863381e+00   2.6781564e+00   4.5087617e+00   4.5704345e+01   8.6017617e-01  -1.9961719e+00   2.5419258e+00  -1.6090973e+00   5.8912041e+01  -1.4699867e+01   6.8525800e-01   5.0651328e+01   1.9035349e+00   2.5206739e+00  -1.5618106e+00   2.0768379e+00  -2.4685638e+00  -5.1639991e+00  -2.6883056e+00  -4.5298520e+00   0.0000000e+00   3.0000000e+01   5.0000000e+01   0.0000000e+00
   4.4759441e+00   3.0410722e+00   4.3971289e+00   4.4952624e+01   8.7494956e-01  -1.7991846e+00   3.6073130e+00  -1.2616446e+00   5.8671678e+01  -1.4590784e+01   7.7205518e-01   4.9787040e+01   1.3689396e+00   2.3201078e+00  -1.7668064e+00   2.3414395e+00  -2.8831537e+00  -5.4222227e+00  -2.8946252e+00  -4.4560306e+00   0.0000000e+00   3.0000000e+01   5.0000000e+01   0.0000000e+00
   4.6595376e+00   3.4347545e+00   4.1181676e+00   4.4305035e+01   8.9642682e-01  -1.6533471e+00   4.6390123e+00  -7.6682929e-01   5.8410245e+01  -1.4419092e+01   8.1809632e-01   4.8497933e+01   7.7434916e-01   2.0109531e+00  -1.8436911e+00   2.6340166e+00  -3.2960079e+00  -5.7991629e+00  -3.0379013e+00  -4.1745257e+00   0.0000000e+00   3.0000000e+01   5.0000000e+01   0.0000000e+00
   4.7921487e+00   3.7223755e+00   3.6843220e+00   4.3594928e+01   8.4195755e-01  -1.8062245e+00   5.4007673e+00  -1.8250523e-01   5.8141482e+01  -1.4002764e+01   8.4061704e-01   4.7439662e+01   1.0395365e-02   1.5972676e+00  -1.7733134e+00   2.9221929e+00  -3.8123237e+00  -6.2625575e+00  -3.1968748e+00  -3.8150603e+00   0.0000000e+00   3.0000000e+01   5.0000000e+01   0.0000000e+00
   4.9179839e+00   3.8713342e+00   3.2437338e+00   4.2801972e+01   8.2018938e-01  -2.0980910e+00   5.9113565e+00   4.2654207e-01   5.7832419e+01  -1.3378289e+01   9.1559717e-01   4.6336887e+01  -6.1688016e-01   1.2320661e+00  -1.6041821e+00   3.1336392e+00  -4.2638081e+00  -6.7128349e+00  -3.3320705e+00  -3.4792889e+00   0.0000000e+00   3.0000000e+01   5.0000000e+01   0.0000000e+00
   4.8598450e+00   3.8103036e+00   2.8231776e+00   4.2021451e+01   8.5161766e-01  -2.2460527e+00   6.0906383e+00   8.2854159e-01   5.7429945e+01  -1.2845940e+01   8.0426575e-01   4.5018644e+01  -8.4945266e-01   9.8585458e-01  -1.5379655e+00   3.1014271e+00  -4.5667849e+00  -7.2100926e+00  -3.4509790e+00  -3.3767097e+00   0.0000000e+00   3.0000000e+01   5.0000000e+01   0.0000000e+00
   4.8664240e+00   3.7672327e+00   2.5799992e+00   4.1265935e+01   8.2176633e-01  -2.1691341e+00   6.4000761e+00   1.0946018e+00   5.6942027e+01  -1.2705925e+01   6.8854588e-01   4.4045854e+01  -6.8652420e-01   9.7313279e-01  -1.5331822e+00   2.8702418e+00  -4.5243033e+00  -7.5024172e+00  -3.4587769e+00  -3.5340328e+00   0.0000000e+00   3.0000000e+01   5.0000000e+01   0.0000000e+00
   4.9701764e+00   3.8343986e+00   2.3728950e+00   4.0493398e+01   6.8427395e-01  -2.0345651e+00   6.7193140e+00   1.1757731e+00   5.6416088e+01  -1.2880051e+01   6.3525927e-01   4.3437606e+01  -4.3482202e-01   1.1512236e+00  -1.5747291e+00   2.5700042e+00  -4.2410596e+00  -7.4794641e+00  -3.4040306e+00  -3.9548793e+00   0.0000000e+00   3.0000000e+01   5.0000000e+01   0.0000000e+00
   5.2567343e+00   4.0545605e+00   2.1791982e+00   3.9799592e+01   7.5057588e-01  -1.8302225e+00   7.0682740e+00   1.1299399e+00   5.5832963e+01  -1.3089821e+01   6.3593751e-01   4.2730692e+01  -4.2112559e-01   1.4467880e+00  -1.6634204e+00   2.2984473e+00  -3.7582977e+00  -7.1709567e+00  -3.2581308e+00  -4.4772367e+00   0.0000000e+00   3.0000000e+01   5.0000000e+01   0.0000000e+00
   5.5450765e+00   4.2998749e+00   2.0212660e+00   3.9283898e+01   1.0298306e+00  -1.5790298e+00   7.3833852e+00   9.3042231e-01   5.5037028e+01  -1.3180867e+01   5.0044570e-01   4.1832570e+01  -6.7660715e-01   1.8097362e+00  -1.8035788e+00   2.0103020e+00  -3.3244274e+00  -6.8571514e+00  -3.0383554e+00  -5.0072086e+00   0.0000000e+00   3.0000000e+01   5.0000000e+01   0.0000000e+00
   5.8955931e+00   4.5506749e+00   2.0120024e+00   3.8812073e+01   1.1781462e+00  -1.3486234e+00   7.8943291e+00   7.2151001e-01   5.4424278e+01  -1.2970144e+01   4.2611415e-01   4.1020232e+01  -8.5187333e-01   2.3175435e+00  -1.8196434e+00   1.7147991e+00  -2.9864234e+00  -6.5361189e+00  -2.7282873e+00  -5.4179740e+00   0.0000000e+00   3.0000000e+01   5.0000000e+01   0.0000000e+00
   6.1091694e+00   4.7778469e+00   2.1367224e+00   3.8246323e+01   9.9092667e-01  -1.2762910e+00   8.3038979e+00   4.7136547e-01   5.4183254e+01  -1.2583529e+01   3.2244704e-01   4.0327252e+01  -1.0526239e+00   2.6399259e+00  -1.8075208e+00   1.4609060e+00  -2.9334604e+00  -6.2854487e+00  -2.5347702e+00  -5.7286490e+00   0.0000000e+00   3.0000000e+01   5.0000000e+01   0.0000000e+00
   6.2334713e+00   5.1760615e+00   2.5492276e+00   3.7743166e+01   6.9318731e-01  -1.2765187e+00   8.6198677e+00   3.3364224e-01   5.4172564e+01  -1.2388865e+01   2.2616689e-01   3.9592878e+01  -1.4069846e+00   2.4954733e+00  -1.8984613e+00   1.3904024e+00  -3.0451029e+00  -6.1403798e+00  -2.5316311e+00  -5.8098748e+00   0.0000000e+00   3.0000000e+01   5.0000000e+01   0.0000000e+00
   6.2274356e+00   5.6861977e+00   3.1056448e+00   3.7509366e+01   4.6843469e-01  -1.3253672e+00   8.6352021e+00   3.0793228e-01   5.4172776e+01  -1.2462163e+01   1.1969967e-01   3.8602740e+01  -1.8165688e+00   1.9581649e+00  -2.1200974e+00   1.5974019e+00  -3.2861596e+00  -6.3041933e+00  -2.7790881e+00  -5.6397892e+00   0.0000000e+00   3.0000000e+01   5.0000000e+01   0.0000000e+00
   6.2694322e+00   6.1618532e+00   3.6859389e+00   3.7380019e+01   2.8976558e-01  -1.5065412e+00   8.5566263e+00   5.2853811e-01   5.3998548e+01  -1.2602371e+01   1.4722352e-01   3.7180824e+01  -2.1090473e+00   1.3265363e+00  -2.3408830e+00   2.1359119e+00  -3.5573880e+00  -6.7706081e+00  -3.1866417e+00  -5.2094176e+00   0.0000000e+00   3.0000000e+01   5.0000000e+01   0.0000000e+00
   6.3830935e+00   6.4122680e+00   4.1630922e+00   3.7012910e+01   1.0756092e-01  -1.9446128e+00   8.3981442e+00   9.6773337e-01   5.3583010e+01  -1.2714923e+01   2.0342781e-01   3.5858051e+01  -2.4683382e+00   5.9383708e-01  -2.5638469e+00   2.8389938e+00  -3.9200940e+00  -7.4675134e+00  -3.7974316e+00  -4.7058486e+00   0.0000000e+00   3.0000000e+01   5.0000000e+01   0.0000000e+00
   6.7125610e+00   6.5538900e+00   4.6261657e+00   3.6607324e+01   2.0216861e-01  -2.4376649e+00   8.3089842e+00   1.5600003e+00   5.3093128e+01  -1.2926331e+01   2.9091810e-01   3.4976368e+01  -3.0299431e+00  -2.2379567e-01  -2.7857416e+00   3.5188674e+00  -4.1569271e+00  -8.1455024e+00  -4.4312569e+00  -4.2319524e+00   0.0000000e+00   3.0000000e+01   5.0000000e+01   0.0000000e+00
   7.1744629e+00   6.7401342e+00   4.9691884e+00   3.6652085e+01   7.3632252e-01  -2.7372616e+00   8.1848525e+00   2.0879354e+00   5.2543201e+01  -1.3159535e+01   2.9475022e-01   3.4507127e+01  -3.6532175e+00  -9.4423138e-01  -2.9781445e+00   4.0305840e+00  -4.1031489e+00  -8.6686192e+00  -4.8215052e+00  -3.9030858e+00   0.0000000e+00   3.0000000e+01   5.0000000e+01   0.0000000e+00
   7.8736705e+00   7.2485559e+00   5.0896854e+00   3.7027427e+01   1.5872358e+00  -2.6150177e+00   8.3220537e+00   2.4463986e+00   5.2230851e+01  -1.3121344e+01   3.8207463e-01   3.4152017e+01  -3.8179306e+00  -1.1375973e+00  -2.9533343e+00   4.3657073e+00  -3.4880426e+00  -8.8059393e+00  -4.7388571e+00  -3.7333337e+00   0.0000000e+00   3.0000000e+01   5.0000000e+01   0.0000000e+00
   8.7018100e+00   8.0807784e+00   4.9381396e+00   3.7442634e+01   2.5414836e+00  -2.0468540e+00   8.6949251e+00   2.4988683e+00   5.2499165e+01  -1.2754072e+01   4.5950473e-01   3.3728108e+01  -3.3014419e+00  -7.2323680e-01  -2.7550623e+00   4.4690285e+00  -2.4895389e+00  -8.5280303e+00  -4.3138054e+00  -3.8798177e+00   0.0000000e+00   3.0000000e+01   5.0000000e+01   0.0000000e+00
   9.6656632e+00   9.1874087e+00   4.7862345e+00   3.7965822e+01   3.6111531e+00  -1.0511385e+00   9.2941220e+00   2.3041444e+00   5.3255037e+01  -1.2159231e+01   4.7557737e-01   3.3714301e+01  -2.3570431e+00   7.7934050e-02  -2.4799246e+00   4.3039997e+00  -1.2775204e+00  -7.9003267e+00  -3.6739123e+00  -4.3193986e+00   0.0000000e+00   3.0000000e+01   5.0000000e+01   0.0000000e+00
   1.0576358e+01   1.0451905e+01   4.7816886e+00   3.8628296e+01   4.7493966e+00   1.4688584e-01   9.7893636e+00   1.9268128e+00   5.3937884e+01  -1.1418023e+01   2.9201529e-01   3.4026684e+01  -1.4453009e+00   9.0605035e-01  -2.2357371e+00   3.8718149e+00  -1.5715558e-01  -7.2379912e+00  -2.9759887e+00  -4.9422139e+00   0.0000000e+00   3.0000000e+01   5.0000000e+01   0.0000000e+00
   1.1346352e+01   1.1716345e+01   4.9135266e+00   3.9284162e+01   5.6985869e+00   1.2308499e+00   1.0150561e+01   1.5662287e+00   5.4116262e+01  -1.0724539e+01   9.4199867e-02   3.4018261e+01  -8.0778580e-01   1.5242734e+00  -1.9769119e+00   3.3952601e+00   6.4308334e-01  -6.7499510e+00  -2.4143432e+00  -5.4863898e+00   0.0000000e+00   3.0000000e+01   5.0000000e+01   0.0000000e+00
   1.1737747e+01   1.2711078e+01   5.0150424e+00   3.9739774e+01   6.1092432e+00   1.8737070e+00   1.0300666e+01   1.3586782e+00   5.3750047e+01  -1.0381866e+01   5.8801575e-02   3.3555613e+01  -5.8585108e-01   1.6482056e+00  -1.7270618e+00   3.1459355e+00   8.3481384e-01  -6.5537209e+00  -2.2349006e+00  -5.7896430e+00   0.0000000e+00   3.0000000e+01   5.0000000e+01   0.0000000e+00
   1.1658109e+01   1.3356397e+01   5.1083795e+00   3.9776803e+01   5.8449854e+00   1.9074298e+00   1.0337316e+01   1.4179502e+00   5.3121196e+01  -1.0482375e+01   2.7116172e-01   3.2390840e+01  -7.7362280e-01   1.1840266e+00  -1.5473414e+00   3.2599042e+00   4.1142913e-01  -6.6678589e+00  -2.3620742e+00  -5.7182338e+00   0.0000000e+00   3.0000000e+01   5.0000000e+01   0.0000000e+00
   1.0871016e+01   1.3500377e+01   5.2391824e+00   3.9208211e+01   4.9835069e+00   1.3425646e+00   9.9867211e+00   1.6162874e+00   5.2429583e+01  -1.0872018e+01   4.5319523e-01   3.0961716e+01  -1.3557413e+00   2.4532303e-01  -1.4914339e+00   3.6380758e+00  -6.3912924e-01  -7.2336655e+00  -2.6585700e+00  -5.3264735e+00   0.0000000e+00   3.0000000e+01   5.0000000e+01   0.0000000e+00
   9.6956664e+00   1.3254630e+01   5.5526981e+00   3.8127058e+01   3.8754877e+00   4.9979829e-01   9.5395203e+00   1.9650205e+00   5.1947197e+01  -1.1111612e+01   7.7195193e-01   2.9980286e+01  -1.9270349e+00  -6.5286224e-01  -1.3093277e+00   4.1784724e+00  -1.8516647e+00  -7.9655220e+00  -2.8513528e+00  -4.6349974e+00   0.0000000e+00   3.0000000e+01   5.0000000e+01   0.0000000e+00
   8.4034705e+00   1.2811563e+01   5.8845106e+00   3.6878981e+01   2.8739829e+00  -3.7356329e-01   9.1222378e+00   2.3850465e+00   5.1645966e+01  -1.1084752e+01   1.3406960e+00   2.9328498e+01  -2.2045785e+00  -1.1669357e+00  -8.6255809e-01   4.7838711e+00  -2.9443778e+00  -8.5382135e+00  -2.8434056e+00  -3.7849519e+00   0.0000000e+00   3.0000000e+01   5.0000000e+01   0.0000000e+00
   7.2291830e+00   1.2476475e+01   6.1125229e+00   3.5784566e+01   2.3649318e+00  -9.4013435e-01   8.8347822e+00   2.8418949e+00   5.1311876e+01  -1.0897084e+01   2.0413054e+00   2.8734022e+01  -2.2316915e+00  -1.3114531e+00  -2.4831990e-01   5.3915688e+00  -3.6987227e+00  -8.7951128e+00  -2.4666608e+00  -2.9044045e+00   0.0000000e+00   3.0000000e+01   5.0000000e+01   0.0000000e+00
   6.4351525e+00   1.2440094e+01   6.2181702e+00   3.5283674e+01   2.6412132e+00  -8.8526394e-01   8.6708407e+00   3.2316736e+00   5.0959620e+01  -1.0447964e+01   2.6111257e+00   2.8454098e+01  -1.9125153e+00  -1.2142723e+00   3.7613255e-01   5.9304461e+00  -3.8896834e+00  -8.7392689e+00  -1.6621447e+00  -2.0932220e+00   0.0000000e+00   3.0000000e+01   5.0000000e+01   0.0000000e+00
   6.5478454e+00   1.2887484e+01   6.4253199e+00   3.5630907e+01   3.6639586e+00  -7.1348229e-02   9.1317705e+00   3.6681687e+00   5.1005404e+01  -9.6436194e+00   3.2376189e+00   2.8997110e+01  -8.8280004e-01  -6.5378269e-01   1.1669402e+00   6.3577684e+00  -3.1103497e+00  -8.0777225e+00  -2.9683688e-01  -1.2972440e+00   0.0000000e+00   3.0000000e+01   5.0000000e+01   0.0000000e+00
   7.3278295e+00   1.3639323e+01   6.6855131e+00   3.6401039e+01   4.8920630e+00   1.2049403e+00   1.0082698e+01   4.0963205e+00   5.1595594e+01  -8.7011229e+00   3.8522920e+00   3.0147536e+01   6.1223499e-01   4.1427903e-01   2.0960398e+00   6.5499626e+00  -1.6482420e+00  -6.8201867e+00   1.3653575e+00  -6.7028352e-01   0.0000000e+00   3.0000000e+01   5.0000000e+01   0.0000000e+00
   8.2165195e+00   1.4464048e+01   6.8981846e+00   3.7144235e+01   5.9202939e+00   2.5886034e+00   1.1110935e+01   4.4030242e+00   5.2518368e+01  -7.9131830e+00   4.2874674e+00   3.1146262e+01   1.9624439e+00   1.5905751e+00   2.8621831e+00   6.4593443e+00  -6.6148360e-02  -5.3147937e+00   2.7598278e+00  -4.0726910e-01   0.0000000e+00   3.0000000e+01   5.0000000e+01   0.0000000e+00
   8.6687477e+00   1.5176839e+01   6.9739161e+00   3.7935266e+01   6.7717275e+00   3.7996617e+00   1.1664216e+01   4.4448364e+00   5.3256951e+01  -7.3579360e+00   4.2783117e+00   3.1857443e+01   3.0079707e+00   2.4217310e+00   3.1596633e+00   6.1477180e+00   1.2177169e+00  -4.0330365e+00   3.3885325e+00  -5.9306020e-01   0.0000000e+00   3.0000000e+01   5.0000000e+01   0.0000000e+00
   8.7966125e+00   1.5744324e+01   7.1177167e+00   3.8715634e+01   7.5199680e+00   4.6521974e+00   1.2021557e+01   4.5092836e+00   5.3437012e+01  -6.8558884e+00   4.0692183e+00   3.2611506e+01   4.0763646e+00   3.0395345e+00   3.1469766e+00   5.8653294e+00   2.3297681e+00  -2.9270782e+00   3.3794538e+00  -8.5979945e-01   0.0000000e+00   3.0000000e+01   5.0000000e+01   0.0000000e+00
   8.6527291e+00   1.6002407e+01   7.3978933e+00   3.9061952e+01   7.9341766e+00   4.9941261e+00   1.2314548e+01   4.7728259e+00   5.3100573e+01  -6.2304776e+00   3.8546505e+00   3.2999409e+01   4.9301010e+00   3.5624467e+00   3.0515681e+00   5.8400877e+00   3.0670128e+00  -1.9077956e+00   3.0457667e+00  -8.7585915e-01   0.0000000e+00   3.0000000e+01   5.0000000e+01   0.0000000e+00
   8.3511409e+00   1.6036354e+01   7.8078051e+00   3.8988743e+01   7.9555276e+00   4.9478255e+00   1.2581344e+01   5.2761459e+00   5.2492378e+01  -5.6954004e+00   3.7823023e+00   3.2064741e+01   5.0578596e+00   3.8531443e+00   3.0107824e+00   6.1582399e+00   3.1907800e+00  -9.9988566e-01   2.6972177e+00  -4.6696641e-01   0.0000000e+00   0.0000000e+00   5.0000000e+01   0.0000000e+00
   7.8816815e+00   1.5929450e+01   8.1121142e+00   3.8746462e+01   7.7383365e+00   4.6486996e+00   1.2510025e+01   5.7785310e+00   5.1716964e+01  -5.4673377e+00   3.7691876e+00   3.0156955e+01   4.3939882e+00   3.7155095e+00   3.0421383e+00   6.6199888e+00   2.6646740e+00  -3.6129710e-01   2.4096998e+00   1.6947680e-01   0.0000000e+00   0.0000000e+00   5.0000000e+01   0.0000000e+00
   7.5028984e+00   1.5831496e+01   8.3508898e+00   3.8399966e+01   7.5390162e+00   4.3841278e+00   1.2336161e+01   6.2546187e+00   5.1056707e+01  -5.3605918e+00   3.9012546e+00   2.8446584e+01   3.6160840e+00   3.4282525e+00   3.3157718e+00   7.0743845e+00   2.0828226e+00   1.9771767e-01   2.4210417e+00   8.8167505e-01   0.0000000e+00   0.0000000e+00   5.0000000e+01   0.0000000e+00
   7.3907258e+00   1.5742600e+01   8.5291017e+00   3.8120266e+01   7.4904028e+00   4.4207914e+00   1.2217926e+01   6.6546538e+00   5.0567718e+01  -5.0863764e+00   4.0584106e+00   2.7637210e+01   3.3115302e+00   3.2548138e+00   3.7929428e+00   7.4211947e+00   1.8893971e+00   8.7714069e-01   2.7518893e+00   1.4853378e+00   0.0000000e+00   0.0000000e+00   5.0000000e+01   0.0000000e+00
   7.5573595e+00   1.5726407e+01   8.4835711e+00   3.8130835e+01   7.6578437e+00   4.8691802e+00   1.2134084e+01   6.8393727e+00   5.0064350e+01  -4.6492516e+00   4.0615632e+00   2.7573729e+01   3.4673054e+00   3.2095333e+00   4.1352772e+00   7.5435034e+00   2.1862422e+00   1.6255523e+00   3.1958126e+00   1.7949747e+00   0.0000000e+00   0.0000000e+00   5.0000000e+01   0.0000000e+00
   7.7342159e+00   1.5752887e+01   8.0324781e+00   3.8409410e+01   8.1433602e+00   5.5431002e+00   1.1702801e+01   6.6135090e+00   4.9388140e+01  -4.2816271e+00   3.6886291e+00   2.8024134e+01   3.8439847e+00   3.2034921e+00   3.9753657e+00   7.3650517e+00   2.7316699e+00   2.1593564e+00   3.4365059e+00   1.6378537e+00   0.0000000e+00   0.0000000e+00   5.0000000e+01   0.0000000e+00
   8.1156797e+00   1.5810450e+01   7.3984511e+00   3.8734579e+01   8.9979634e+00   6.1467683e+00   1.1198197e+01   6.2517145e+00   4.8889392e+01  -4.0531579e+00   3.2209978e+00   2.8967442e+01   4.4166027e+00   3.3607425e+00   3.4803485e+00   7.0686489e+00   3.5623182e+00   2.6175512e+00   3.3073453e+00   1.2110031e+00   0.0000000e+00   0.0000000e+00   5.0000000e+01   0.0000000e+00
   8.5739176e+00   1.5766482e+01   6.7529007e+00   3.8930802e+01   9.8621360e+00   6.3472805e+00   1.0640353e+01   5.8919043e+00   4.8688040e+01  -3.8535988e+00   2.7716858e+00   2.9966236e+01   4.9968597e+00   3.6674705e+00   2.9660509e+00   6.8616879e+00   4.3199160e+00   3.0602599e+00   2.8015151e+00   7.1978348e-01   0.0000000e+00   0.0000000e+00   5.0000000e+01   0.0000000e+00
   8.8665359e+00   1.5680797e+01   6.3741329e+00   3.8889700e+01   1.0357592e+01   6.2257624e+00   1.0230450e+01   5.6426680e+00   4.8673249e+01  -3.6468120e+00   2.3893320e+00   3.0365858e+01   5.5658287e+00   3.9473259e+00   2.5785457e+00   6.8476670e+00   4.7539746e+00   3.4256283e+00   2.1871935e+00   3.3004250e-01   0.0000000e+00   0.0000000e+00   5.0000000e+01   0.0000000e+00
   8.6930281e+00   1.5516499e+01   6.3461570e+00   3.8636416e+01   1.0454684e+01   5.9638053e+00   9.9774411e+00   5.5652479e+00   4.8490574e+01  -3.5323547e+00   1.9499124e+00   2.9645747e+01   6.0879516e+00   3.8266466e+00   2.2444624e+00   7.0085744e+00   4.7757258e+00   3.4809469e+00   1.6271970e+00   1.3527638e-01   0.0000000e+00   0.0000000e+00   5.0000000e+01   0.0000000e+00
   8.3535744e+00   1.5441371e+01   6.7721317e+00   3.8245268e+01   1.0471546e+01   5.6715534e+00   1.0350564e+01   5.8956277e+00   4.7974525e+01  -3.6357844e+00   1.7684329e+00   2.7884152e+01   6.4028166e+00   3.3282812e+00   2.1330913e+00   7.4449069e+00   4.6421960e+00   3.3621995e+00   1.4711590e+00   4.3628693e-01   0.0000000e+00   0.0000000e+00   5.0000000e+01   0.0000000e+00
   8.1241282e+00   1.5503481e+01   7.4570218e+00   3.7711502e+01   1.0514855e+01   5.3306940e+00   1.1469292e+01   6.5668939e+00   4.7151276e+01  -3.8945073e+00   2.0450123e+00   2.6252150e+01   6.3188893e+00   2.6986602e+00   2.4058457e+00   8.1604238e+00   4.3828298e+00   3.3223740e+00   1.8509527e+00   1.2862408e+00   0.0000000e+00   0.0000000e+00   5.0000000e+01   0.0000000e+00
   8.1667604e+00   1.5673352e+01   8.0561603e+00   3.7182252e+01   1.0625275e+01   5.1586494e+00   1.3122698e+01   7.3453113e+00   4.6201448e+01  -3.8658542e+00   2.6802838e+00   2.5516185e+01   6.1823193e+00   2.2299145e+00   3.0592031e+00   8.9380587e+00   4.1656929e+00   3.5252369e+00   2.6570257e+00   2.4347154e+00   0.0000000e+00   0.0000000e+00   5.0000000e+01   0.0000000e+00
   8.2481491e+00   1.5834621e+01   8.2127259e+00   3.6884566e+01   1.0786098e+01   5.2947631e+00   1.4597437e+01   7.8677062e+00   4.5499431e+01  -3.4249145e+00   3.2054879e+00   2.5608008e+01   6.4138917e+00   2.0331014e+00   3.8309345e+00   9.4674753e+00   4.1058592e+00   3.8104706e+00   3.5330539e+00   3.3947604e+00   0.0000000e+00   0.0000000e+00   5.0000000e+01   0.0000000e+00
   8.3314911e+00   1.5934041e+01   7.9783273e+00   3.6676602e+01   1.0873448e+01   5.6513817e+00   1.5734123e+01   8.2050985e+00   4.5231703e+01  -2.8825606e+00   3.5253563e+00   2.6082626e+01   7.0701430e+00   2.2169359e+00   4.5483829e+00   9.7414501e+00   4.4747092e+00   4.1076429e+00   4.3129275e+00   3.9457568e+00   0.0000000e+00   0.0000000e+00   5.0000000e+01   0.0000000e+00
   8.4584022e+00   1.5826629e+01   7.4681761e+00   3.6441413e+01   1.0895418e+01   6.0392634e+00   1.6467765e+01   8.4670850e+00   4.5293165e+01  -2.4427004e+00   3.6726367e+00   2.6323379e+01   7.8843063e+00   2.8051167e+00   5.1306777e+00   9.8896307e+00   5.2467909e+00   4.3891951e+00   4.9296363e+00   4.0411432e+00   0.0000000e+00   0.0000000e+00   5.0000000e+01   0.0000000e+00
   8.8481879e+00   1.5631842e+01   6.9663162e+00   3.6477852e+01   1.1177157e+01   6.4600794e+00   1.6901925e+01   8.6220300e+00   4.5455283e+01  -2.0466469e+00   3.7052267e+00   2.6130829e+01   8.8054334e+00   3.6939221e+00   5.5003354e+00   9.8986707e+00   6.3587715e+00   4.6775007e+00   5.3328887e+00   3.7399957e+00   0.0000000e+00   0.0000000e+00   5.0000000e+01   0.0000000e+00
   9.3944139e+00   1.5544352e+01   6.7017219e+00   3.6849271e+01   1.1803707e+01   6.8795559e+00   1.6995700e+01   8.5144782e+00   4.5315056e+01  -1.8577086e+00   3.4105123e+00   2.5769312e+01   9.7938355e+00   4.5105717e+00   5.4479172e+00   9.6504581e+00   7.5674933e+00   4.8232624e+00   5.3494675e+00   3.0312961e+00   0.0000000e+00   0.0000000e+00   5.0000000e+01   0.0000000e+00
   9.9324282e+00   1.5648119e+01   6.7574255e+00   3.7142962e+01   1.2307222e+01   7.1253328e+00   1.7103846e+01   8.2934381e+00   4.4932852e+01  -2.0119248e+00   2.8696399e+00   2.5216513e+01   1.0667851e+01   4.9680334e+00   5.0365960e+00   9.2403967e+00   8.5271034e+00   4.7690174e+00   4.9321662e+00   2.0973773e+00   0.0000000e+00   0.0000000e+00   5.0000000e+01   0.0000000e+00
   1.0180874e+01   1.5791722e+01   6.9924902e+00   3.7140471e+01   1.2152493e+01   6.9360774e+00   1.7213874e+01   8.1060783e+00   4.4511910e+01  -2.4087681e+00   2.1648245e+00   2.4799714e+01   1.1051813e+01   4.8753909e+00   4.3787428e+00   8.8323688e+00   8.7117912e+00   4.4441390e+00   4.0250248e+00   1.1334659e+00   0.0000000e+00   0.0000000e+00   5.0000000e+01   0.0000000e+00
   1.0341008e+01   1.5958761e+01   7.3820623e+00   3.7029008e+01   1.1590163e+01   6.4307576e+00   1.7424790e+01   8.1501265e+00   4.4050126e+01  -2.8747451e+00   1.5428867e+00   2.4600779e+01   1.0780068e+01   4.3442414e+00   3.6212240e+00   8.5576807e+00   8.3979495e+00   3.9580738e+00   2.8359068e+00   4.1035247e-01   0.0000000e+00   0.0000000e+00   5.0000000e+01   0.0000000e+00
   1.0466870e+01   1.5988551e+01   7.7682942e+00   3.6901483e+01   1.1050973e+01   5.8512699e+00   1.7523404e+01   8.3224778e+00   4.3350558e+01  -3.3923818e+00   1.0136096e+00   2.3779546e+01   9.9928712e+00   3.4853638e+00   2.8642409e+00   8.4112649e+00   7.9568455e+00   3.2734233e+00   1.6269229e+00   8.7525767e-03   0.0000000e+00   0.0000000e+00   5.0000000e+01   0.0000000e+00
   1.0707489e+01   1.5955103e+01   8.0769260e+00   3.6806532e+01   1.0773737e+01   5.4465293e+00   1.7728286e+01   8.6082473e+00   4.2618250e+01  -3.7169180e+00   8.1807991e-01   2.2432931e+01   9.2502331e+00   2.6239055e+00   2.3881486e+00   8.4090363e+00   7.7618413e+00   2.6054753e+00   8.9995967e-01  -1.6534755e-02   0.0000000e+00   0.0000000e+00   5.0000000e+01   0.0000000e+00
   1.1257259e+01   1.5974465e+01   8.2469275e+00   3.6887594e+01   1.0911465e+01   5.2945677e+00   1.8223350e+01   8.9781215e+00   4.2199950e+01  -3.3856010e+00   1.1976101e+00   2.1604200e+01   8.9487286e+00   2.1651015e+00   2.5052503e+00   8.5903221e+00   7.9240744e+00   2.3051632e+00   9.6570681e-01   2.6692096e-01   0.0000000e+00   0.0000000e+00   5.0000000e+01   0.0000000e+00
   1.2218486e+01   1.6185521e+01   8.4195551e+00   3.7173035e+01   1.1551956e+01   5.4721994e+00   1.9027907e+01   9.4067777e+00   4.2407089e+01  -2.4360204e+00   2.1306784e+00   2.1595281e+01   9.2156907e+00   2.3961335e+00   3.3157531e+00   8.9446802e+00   8.6740170e+00   2.5896770e+00   1.8273360e+00   7.7970852e-01   0.0000000e+00   0.0000000e+00   5.0000000e+01   0.0000000e+00
   1.3261863e+01   1.6578210e+01   8.5945416e+00   3.7427386e+01   1.2487515e+01   5.8958860e+00   1.9703844e+01   9.6809462e+00   4.3090174e+01  -1.3688064e+00   3.1117290e+00   2.2120436e+01   9.8380919e+00   3.0418177e+00   4.4154797e+00   9.2940673e+00   9.9795725e+00   3.2240256e+00   3.0054529e+00   1.2551978e+00   0.0000000e+00   0.0000000e+00   5.0000000e+01   0.0000000e+00
   1.4024045e+01   1.6996693e+01   8.6971966e+00   3.7331435e+01   1.3282972e+01   6.2472826e+00   2.0100848e+01   9.7151376e+00   4.3603905e+01  -6.2237278e-01   3.8191951e+00   2.2651591e+01   1.0384926e+01   3.6377142e+00   5.3247442e+00   9.4937352e+00   1.1446937e+01   3.8812556e+00   3.9652444e+00   1.4397587e+00   0.0000000e+00   0.0000000e+00   5.0000000e+01   0.0000000e+00
   1.4272488e+01   1.7164701e+01   8.5992335e+00   3.7088010e+01   1.3642226e+01   6.2072300e+00   2.0088747e+01   9.4789021e+00   4.3756068e+01  -2.2541753e-01   4.1347294e+00   2.2876180e+01   1.0639155e+01   4.0182080e+00   5.7962835e+00   9.4856770e+00   1.2494417e+01   4.4018832e+00   4.3467238e+00   1.2423799e+00   0.0000000e+00   0.0000000e+00   5.0000000e+01   0.0000000e+00
   1.4183373e+01   1.7124258e+01   8.4015087e+00   3.7027853e+01   1.3607593e+01   5.8894743e+00   1.9870097e+01   9.1231164e+00   4.3838828e+01  -5.9014083e-02   4.2281444e+00   2.2958339e+01   1.0864399e+01   4.3297504e+00   5.8914919e+00   9.3258560e+00   1.3107578e+01   4.8866961e+00   4.1571296e+00   8.5670467e-01   0.0000000e+00   0.0000000e+00   5.0000000e+01   0.0000000e+00
   1.3650997e+01   1.6935956e+01   8.0895771e+00   3.6981842e+01   1.3188320e+01   5.4200731e+00   1.9288231e+01   8.5675428e+00   4.3555773e+01  -3.5093498e-02   4.0244008e+00   2.2771618e+01   1.1019482e+01   4.3816380e+00   5.5900668e+00   9.0450618e+00   1.3204066e+01   5.0830128e+00   3.4073161e+00   3.2304620e-01   0.0000000e+00   0.0000000e+00   5.0000000e+01   0.0000000e+00
   1.2882321e+01   1.6647154e+01   7.7547056e+00   3.6643360e+01   1.2488014e+01   4.8689908e+00   1.8621634e+01   7.9282055e+00   4.2778740e+01  -2.2181433e-02   3.7372331e+00   2.2142897e+01   1.0896308e+01   4.0131779e+00   5.0434469e+00   8.8216434e+00   1.2832984e+01   4.8768233e+00   2.3487862e+00  -1.5353736e-01   0.0000000e+00   0.0000000e+00   5.0000000e+01   0.0000000e+00
   1.2192578e+01   1.6207883e+01   7.4618730e+00   3.5990205e+01   1.1613006e+01   4.2054053e+00   1.8177330e+01   7.4471803e+00   4.1879683e+01   4.8880531e-02   3.6043337e+00   2.1141375e+01   1.0495200e+01   3.3280525e+00   4.5510910e+00   8.8786132e+00   1.2031320e+01   4.4094458e+00   1.3213346e+00  -2.9353463e-01   0.0000000e+00   0.0000000e+00   5.0000000e+01   0.0000000e+00
   1.1753327e+01   1.5794799e+01   7.3057580e+00   3.5311104e+01   1.0717434e+01   3.5679285e+00   1.8205344e+01   7.2974199e+00   4.1081884e+01   1.6333944e-01   3.6610997e+00   1.9994142e+01   1.0060981e+01   2.5898456e+00   4.3649974e+00   9.2390173e+00   1.1063233e+01   3.9078821e+00   7.0450687e-01   1.9122904e-02   0.0000000e+00   0.0000000e+00   5.0000000e+01   0.0000000e+00
   1.1464414e+01   1.5525374e+01   7.2467589e+00   3.4836737e+01   1.0029943e+01   3.1003370e+00   1.8546544e+01   7.3564264e+00   4.0363115e+01   2.2060697e-01   3.6626718e+00   1.9117629e+01   9.7186374e+00   1.8954602e+00   4.4281780e+00   9.6745464e+00   1.0172743e+01   3.4498084e+00   6.3409642e-01   5.4330345e-01   0.0000000e+00   0.0000000e+00   5.0000000e+01   0.0000000e+00
   1.1381397e+01   1.5494300e+01   7.2763135e+00   3.4556615e+01   9.6426452e+00   2.8690354e+00   1.9209368e+01   7.5703991e+00   3.9826987e+01   2.9493518e-01   3.6689045e+00   1.8512060e+01   9.5238294e+00   1.4117536e+00   4.7027074e+00   9.9686214e+00   9.6116705e+00   3.1820678e+00   1.1973058e+00   1.1012252e+00   0.0000000e+00   0.0000000e+00   5.0000000e+01   0.0000000e+00
   1.1556021e+01   1.5673751e+01   7.3626737e+00   3.4328900e+01   9.4996754e+00   2.9766047e+00   2.0141145e+01   7.8625802e+00   3.9618171e+01   6.4598343e-01   3.8703505e+00   1.8226174e+01   9.5598574e+00   1.3738870e+00   5.3208828e+00   1.0082553e+01   9.4060210e+00   3.2634676e+00   2.4756995e+00   1.6454107e+00   0.0000000e+00   0.0000000e+00   5.0000000e+01   0.0000000e+00
   1.2035836e+01   1.5941356e+01   7.4264053e+00   3.4020734e+01   9.5377738e+00   3.4728358e+00   2.1247179e+01   8.1557141e+00   3.9639010e+01   1.3144379e+00   4.4020553e+00   1.8285600e+01   9.8524394e+00   1.7752832e+00   6.2462513e+00   1.0110511e+01   9.6232190e+00   3.6944083e+00   4.3361139e+00   2.1366760e+00   0.0000000e+00   0.0000000e+00   5.0000000e+01   0.0000000e+00
   1.2524163e+01   1.6085150e+01   7.2276566e+00   3.3695815e+01   9.5254906e+00   3.9681778e+00   2.1927381e+01   8.1950769e+00   3.9751082e+01   2.0369853e+00   4.9636277e+00   1.8591001e+01   1.0119100e+01   2.2005885e+00   6.9749290e+00   9.9873569e+00   9.9418126e+00   4.1045849e+00   5.9501004e+00   2.3069371e+00   0.0000000e+00   0.0000000e+00   5.0000000e+01   0.0000000e+00
   1.2938667e+01   1.6154391e+01   6.7846218e+00   3.3343386e+01   9.3217093e+00   4.0982934e+00   2.1978131e+01   7.9269921e+00   3.9974339e+01   2.8176387e+00   5.3302474e+00   1.8894433e+01   1.0183008e+01   2.3980560e+00   7.0736385e+00   9.6348153e+00   1.0066260e+01   4.3051428e+00   6.4522629e+00   1.9963614e+00   0.0000000e+00   0.0000000e+00   5.0000000e+01   0.0000000e+00
   1.3202866e+01   1.6117607e+01   6.1624505e+00   3.2812755e+01   8.9436238e+00   3.8170609e+00   2.1478493e+01   7.4193125e+00   4.0282606e+01   3.6127818e+00   5.4159918e+00   1.8881080e+01   1.0043924e+01   2.3044667e+00   6.4985048e+00   9.1097321e+00   9.7234926e+00   4.2912587e+00   5.7335491e+00   1.2997607e+00   0.0000000e+00   0.0000000e+00   5.0000000e+01   0.0000000e+00
   1.3232745e+01   1.6005278e+01   5.5476241e+00   3.2143533e+01   8.5513169e+00   3.3944936e+00   2.0840210e+01   6.9082833e+00   4.0635826e+01   4.1542996e+00   5.3953193e+00   1.8306380e+01   9.7562484e+00   1.9587739e+00   5.6399068e+00   8.6450735e+00   9.0231949e+00   4.1608391e+00   4.4086073e+00   6.6932149e-01   0.0000000e+00   0.0000000e+00   5.0000000e+01   0.0000000e+00
   1.2886176e+01   1.5830802e+01   5.0239750e+00   3.1485554e+01   8.1556524e+00   2.9657174e+00   2.0116349e+01   6.4914674e+00   4.0584638e+01   4.2661894e+00   5.1771412e+00   1.7268146e+01   9.1717079e+00   1.2334561e+00   4.7530624e+00   8.4239980e+00   8.0658378e+00   3.7806245e+00   2.9110657e+00   3.6558502e-01   0.0000000e+00   0.0000000e+00   5.0000000e+01   0.0000000e+00
   1.2418965e+01   1.5736812e+01   4.8046038e+00   3.0930961e+01   7.6999889e+00   2.6675034e+00   1.9706864e+01   6.3584388e+00   4.0208320e+01   4.0652776e+00   4.8402108e+00   1.5920243e+01   8.4798052e+00   3.2736724e-01   4.0347745e+00   8.5165153e+00   7.1982208e+00   3.2101669e+00   1.7273186e+00   5.0669151e-01   0.0000000e+00   0.0000000e+00   5.0000000e+01   0.0000000e+00
   1.2118829e+01   1.5710430e+01   4.8126242e+00   3.0264768e+01   7.1720854e+00   2.4686536e+00   1.9791055e+01   6.4942470e+00   3.9707804e+01   3.7647557e+00   4.5391104e+00   1.4717825e+01   7.9349800e+00  -4.3435990e-01   3.6334148e+00   8.8013578e+00   6.5042772e+00   2.6584997e+00   1.1222321e+00   1.0094183e+00   0.0000000e+00   0.0000000e+00   5.0000000e+01   0.0000000e+00
   1.2177725e+01   1.5768437e+01   4.7768373e+00   2.9541877e+01   6.8280757e+00   2.3846772e+00   2.0201601e+01   6.7855227e+00   3.9130971e+01   3.5414289e+00   4.3860305e+00   1.4382461e+01   7.5361516e+00  -8.4215232e-01   3.6020056e+00   9.1692521e+00   6.0812079e+00   2.3137089e+00   1.1680245e+00   1.7171258e+00   0.0000000e+00   0.0000000e+00   5.0000000e+01   0.0000000e+00
   1.2440928e+01   1.5947941e+01   4.5371597e+00   2.9263719e+01   6.9060121e+00   2.5518180e+00   2.0458837e+01   7.0378065e+00   3.8502593e+01   3.4844484e+00   4.1509298e+00   1.4749108e+01   7.1669641e+00  -8.9708305e-01   3.7875829e+00   9.4303245e+00   6.0234297e+00   2.1224150e+00   1.7808687e+00   2.3767712e+00   0.0000000e+00   0.0000000e+00   5.0000000e+01   0.0000000e+00
   1.2966977e+01   1.6453085e+01   4.3425658e+00   2.9544716e+01   7.4341366e+00   3.1908060e+00   2.0761607e+01   7.2856500e+00   3.7978950e+01   3.6654807e+00   3.7996474e+00   1.5098573e+01   6.9851581e+00  -4.8171841e-01   4.1394616e+00   9.4712982e+00   6.5485075e+00   2.2057779e+00   2.9029189e+00   2.9002915e+00   0.0000000e+00   0.0000000e+00   5.0000000e+01   0.0000000e+00
   1.3699192e+01   1.7280205e+01   4.4034262e+00   3.0032106e+01   8.1846981e+00   4.2559633e+00   2.1263628e+01   7.5143041e+00   3.7569193e+01   3.9749361e+00   3.4008835e+00   1.5237167e+01   7.2055570e+00   4.3998061e-01   4.5524841e+00   9.2988830e+00   7.5370278e+00   2.6961383e+00   4.2368688e+00   3.1875082e+00   0.0000000e+00   0.0000000e+00   5.0000000e+01   0.0000000e+00
   1.4393160e+01   1.8228780e+01   4.6901077e+00   3.0447422e+01   8.9633559e+00   5.4453045e+00   2.1847035e+01   7.6977447e+00   3.7270452e+01   4.1299587e+00   3.0222751e+00   1.5219584e+01   7.7780361e+00   1.5642176e+00   4.8214008e+00   8.9402136e+00   8.6996726e+00   3.4337405e+00   5.3354522e+00   3.1558406e+00   0.0000000e+00   0.0000000e+00   5.0000000e+01   0.0000000e+00
   1.4746473e+01   1.9029858e+01   4.9703320e+00   3.0794545e+01   9.7633761e+00   6.4196980e+00   2.2124090e+01   7.6849281e+00   3.6862525e+01   4.1382436e+00   2.5372195e+00   1.5049479e+01   8.2033688e+00   2.3615804e+00   4.7353266e+00   8.3814687e+00   9.6154502e+00   3.9766512e+00   5.7140176e+00   2.7444658e+00   0.0000000e+00   0.0000000e+00   5.0000000e+01   0.0000000e+00
   1.4865728e+01   1.9667320e+01   5.3042473e+00   3.1018546e+01   1.0500138e+01   7.1363287e+00   2.2359131e+01   7.5795687e+00   3.6078236e+01   4.1018460e+00   2.0687748e+00   1.4571812e+01   8.3325633e+00   2.7694268e+00   4.3837168e+00   7.7597142e+00   1.0205739e+01   4.2403250e+00   5.3624374e+00   2.1647131e+00   0.0000000e+00   0.0000000e+00   5.0000000e+01   0.0000000e+00
   1.4790230e+01   2.0104123e+01   5.7208556e+00   3.0867757e+01   1.0879002e+01   7.6534419e+00   2.2823150e+01   7.5871647e+00   3.5017542e+01   4.2326660e+00   1.7553084e+00   1.3770865e+01   8.4648016e+00   2.9945409e+00   4.0540944e+00   7.3928788e+00   1.0468581e+01   4.4066180e+00   4.6172216e+00   1.7460590e+00   0.0000000e+00   0.0000000e+00   5.0000000e+01   0.0000000e+00
   1.4557212e+01   2.0346122e+01   6.2229957e+00   3.0237266e+01   1.0896703e+01   8.0356158e+00   2.3657885e+01   7.9246085e+00   3.4117201e+01   4.6336902e+00   1.7631472e+00   1.3107776e+01   8.6937656e+00   3.0466288e+00   4.0211047e+00   7.5556498e+00   1.0570462e+01   4.6399376e+00   3.9172776e+00   1.8508239e+00   0.0000000e+00   0.0000000e+00   5.0000000e+01   0.0000000e+00
   1.4135698e+01   2.0416759e+01   6.6830516e+00   2.9212123e+01   1.0619293e+01   8.1549476e+00   2.4427248e+01   8.4586558e+00   3.3595921e+01   5.0250342e+00   1.9704689e+00   1.2612462e+01   8.5218868e+00   2.6415149e+00   4.2328299e+00   8.1416659e+00   1.0265203e+01   4.7645571e+00   3.3719931e+00   2.4494317e+00   0.0000000e+00   0.0000000e+00   5.0000000e+01   0.0000000e+00
   1.3664769e+01   2.0539923e+01   7.1079474e+00   2.7968281e+01   1.0013060e+01   8.0754128e+00   2.5045077e+01   9.0812852e+00   3.3195051e+01   5.2217218e+00   2.3717264e+00   1.1533133e+01   7.7873215e+00   1.8713235e+00   4.6663330e+00   8.8893272e+00   9.4584775e+00   4.7230249e+00   3.1705518e+00   3.3670584e+00   0.0000000e+00   0.0000000e+00   5.0000000e+01   0.0000000e+00
   1.3085250e+01   2.0734086e+01   7.3383079e+00   2.6633161e+01   8.9935445e+00   7.9092066e+00   2.5552585e+01   9.6531198e+00   3.2850736e+01   5.3088683e+00   2.8655016e+00   9.8002952e+00   6.8748847e+00   1.1374758e+00   5.3491917e+00   9.5171821e+00   8.2291171e+00   4.5947489e+00   3.4014114e+00   4.3440531e+00   0.0000000e+00   0.0000000e+00   5.0000000e+01   0.0000000e+00
   1.2375748e+01   2.0869667e+01   7.2044427e+00   2.5340230e+01   7.8323682e+00   7.7957832e+00   2.6123004e+01   1.0122337e+01   3.2755132e+01   5.5942611e+00   3.3648848e+00   8.3089660e+00   6.3205872e+00   9.4753694e-01   6.3059323e+00   9.9547184e+00   7.0791474e+00   4.5765489e+00   4.1845060e+00   5.2391518e+00   0.0000000e+00   0.0000000e+00   5.0000000e+01   0.0000000e+00
   1.1619123e+01   2.0731091e+01   6.6497599e+00   2.4505029e+01   7.0348215e+00   7.8030363e+00   2.6603208e+01   1.0338871e+01   3.2918462e+01   6.0864790e+00   3.6943227e+00   7.4142242e+00   6.4282896e+00   1.3949712e+00   7.2888910e+00   1.0218173e+01   6.4562968e+00   4.7429092e+00   5.3540540e+00   5.8522410e+00   0.0000000e+00   0.0000000e+00   5.0000000e+01   0.0000000e+00
   1.1112589e+01   2.0448835e+01   5.9330741e+00   2.4475440e+01   6.9099304e+00   8.0114782e+00   2.7070318e+01   1.0284738e+01   3.3186066e+01   6.5802004e+00   3.8512571e+00   7.0071526e+00   7.1814425e+00   2.3326030e+00   8.0512109e+00   1.0320513e+01   6.6660134e+00   5.1156173e+00   6.4659796e+00   6.0532220e+00   0.0000000e+00   0.0000000e+00   5.0000000e+01   0.0000000e+00
   1.0882472e+01   2.0258393e+01   5.3143429e+00   2.4987016e+01   7.3074054e+00   8.3483718e+00   2.7492916e+01   9.9688757e+00   3.3386190e+01   6.9315380e+00   3.7907490e+00   7.1010748e+00   8.2078447e+00   3.5419833e+00   8.4380162e+00   1.0210362e+01   7.4269779e+00   5.5910077e+00   7.0277254e+00   5.7586940e+00   0.0000000e+00   0.0000000e+00   5.0000000e+01   0.0000000e+00
   1.0852543e+01   2.0398933e+01   5.0653604e+00   2.5562685e+01   7.9964813e+00   8.8412267e+00   2.8027172e+01   9.6177960e+00   3.3438613e+01   7.0815664e+00   3.6072265e+00   7.3075929e+00   9.1314245e+00   4.7651621e+00   8.4624911e+00   9.9096377e+00   8.3706653e+00   6.1197061e+00   6.8940270e+00   5.1688365e+00   0.0000000e+00   0.0000000e+00   5.0000000e+01   0.0000000e+00
   1.0827322e+01   2.0881111e+01   5.3145742e+00   2.6007199e+01   8.7054943e+00   9.4571624e+00   2.8708228e+01   9.4359961e+00   3.3274055e+01   7.0071134e+00   3.3593806e+00   7.2776768e+00   9.6923585e+00   5.6484687e+00   8.2391091e+00   9.6049481e+00   9.0985375e+00   6.5664253e+00   6.3196754e+00   4.6217829e+00   0.0000000e+00   0.0000000e+00   5.0000000e+01   0.0000000e+00
   1.0694386e+01   2.1572164e+01   6.0513537e+00   2.6135557e+01   9.1128250e+00   9.9418647e+00   2.9558261e+01   9.5129003e+00   3.2995232e+01   6.7051578e+00   3.0754659e+00   7.1491658e+00   9.7496636e+00   5.9196013e+00   7.8551969e+00   9.4954782e+00   9.3460328e+00   6.7741689e+00   5.6424939e+00   4.3924655e+00   0.0000000e+00   0.0000000e+00   5.0000000e+01   0.0000000e+00
   1.0524466e+01   2.2241251e+01   6.9772735e+00   2.5721014e+01   9.0437396e+00   1.0002845e+01   3.0498324e+01   9.7273657e+00   3.2509261e+01   6.1544827e+00   2.7384773e+00   6.8531065e+00   9.0803435e+00   5.4494768e+00   7.3767350e+00   9.6204508e+00   8.8580869e+00   6.6605171e+00   5.0485171e+00   4.5215541e+00   0.0000000e+00   0.0000000e+00   5.0000000e+01   0.0000000e+00
   1.0376492e+01   2.2723185e+01   7.7230918e+00   2.4989295e+01   8.7552168e+00   9.7220676e+00   3.1436007e+01   9.9778639e+00   3.1602918e+01   5.5758392e+00   2.5029929e+00   6.0891578e+00   7.8800150e+00   4.5046040e+00   7.0620900e+00   9.9603272e+00   7.9008669e+00   6.2960737e+00   4.7610707e+00   5.0157872e+00   0.0000000e+00   0.0000000e+00   5.0000000e+01   0.0000000e+00
   1.0141207e+01   2.2986186e+01   8.0100516e+00   2.4372238e+01   8.5144221e+00   9.3775820e+00   3.2195048e+01   1.0200741e+01   3.0628477e+01   5.3662587e+00   2.5463606e+00   5.0258782e+00   6.9114347e+00   3.6921111e+00   7.2470442e+00   1.0459031e+01   6.9963093e+00   5.8405321e+00   4.9782041e+00   5.7942849e+00   0.0000000e+00   0.0000000e+00   5.0000000e+01   0.0000000e+00
   1.0016965e+01   2.3294635e+01   7.8925261e+00   2.3916519e+01   8.3511710e+00   9.1975922e+00   3.2959859e+01   1.0458007e+01   3.0245163e+01   5.5990971e+00   3.0853469e+00   4.0494764e+00   6.7357661e+00   3.6430408e+00   8.1140933e+00   1.1045789e+01   6.6023634e+00   5.6120340e+00   5.8623147e+00   6.7495264e+00   0.0000000e+00   0.0000000e+00   5.0000000e+01   0.0000000e+00
   1.0273313e+01   2.3743925e+01   7.4977359e+00   2.3632890e+01   8.3647816e+00   9.2775561e+00   3.3552915e+01   1.0654818e+01   3.0525393e+01   6.1931032e+00   3.9335583e+00   3.6291822e+00   7.2645702e+00   4.3461574e+00   9.3026632e+00   1.1538595e+01   6.7228868e+00   5.8201967e+00   7.2549004e+00   7.5685527e+00   0.0000000e+00   0.0000000e+00   5.0000000e+01   0.0000000e+00
   1.0943084e+01   2.4220170e+01   6.9311030e+00   2.3756651e+01   8.7841647e+00   9.6286652e+00   3.3656259e+01   1.0670185e+01   3.1185781e+01   7.0024656e+00   4.7374345e+00   3.9366793e+00   8.2324331e+00   5.5150544e+00   1.0255705e+01   1.1749441e+01   7.3701924e+00   6.4414456e+00   8.8161824e+00   7.9529176e+00   0.0000000e+00   0.0000000e+00   5.0000000e+01   0.0000000e+00
   1.1603618e+01   2.4459016e+01   6.2152156e+00   2.4150604e+01   9.2229157e+00   9.8618120e+00   3.2880618e+01   1.0422071e+01   3.1891338e+01   7.8192082e+00   5.2238271e+00   4.7596831e+00   9.2665514e+00   6.7355893e+00   1.0550071e+01   1.1612799e+01   8.1543282e+00   7.1128696e+00   1.0002301e+01   7.7923312e+00   0.0000000e+00   0.0000000e+00   5.0000000e+01   0.0000000e+00
   1.1904459e+01   2.4355552e+01   5.5335974e+00   2.4319730e+01   9.0904648e+00   9.6631020e+00   3.1293628e+01   1.0084281e+01   3.2239966e+01   8.4215474e+00   5.3159972e+00   5.4139199e+00   9.9629280e+00   7.5212570e+00   1.0072958e+01   1.1230081e+01   8.5978912e+00   7.4308290e+00   1.0368916e+01   7.2991706e+00   0.0000000e+00   0.0000000e+00   5.0000000e+01   0.0000000e+00
   1.1785993e+01   2.4025011e+01   5.1113521e+00   2.3904346e+01   8.3713814e+00   9.0847319e+00   2.9252842e+01   9.8792299e+00   3.2001241e+01   8.4644422e+00   5.0106295e+00   4.8384846e+00   1.0017842e+01   7.4711535e+00   8.9874262e+00   1.0795271e+01   8.4370439e+00   7.2008968e+00   9.7577699e+00   6.7457956e+00   0.0000000e+00   0.0000000e+00   5.0000000e+01   0.0000000e+00
   1.1399888e+01   2.3766195e+01   5.1123886e+00   2.3115477e+01   7.4840470e+00   8.4208923e+00   2.7449855e+01   9.9622562e+00   3.1547088e+01   8.0299863e+00   4.5797355e+00   3.2229745e+00   9.4800708e+00   6.7320223e+00   7.7749676e+00   1.0576100e+01   7.9001199e+00   6.6287419e+00   8.5412400e+00   6.4226127e+00   0.0000000e+00   0.0000000e+00   5.0000000e+01   0.0000000e+00
   1.0618024e+01   2.3611589e+01   5.3384198e+00   2.2383659e+01   6.6957272e+00   7.9165215e+00   2.6403812e+01   1.0127562e+01   3.1028840e+01   7.5058441e+00   4.1705775e+00   1.7628779e+00   8.5338611e+00   5.7614182e+00   6.8587981e+00   1.0644379e+01   7.1863073e+00   5.8679298e+00   7.2173347e+00   6.3230602e+00   0.0000000e+00   0.0000000e+00   5.0000000e+01   0.0000000e+00
