nt = 720
nc = 24
channels = F7 T3 T5 Fp1 F3 C3 P3 O1 F8 T4 T6 Fp2 F4 C4 P4 O2 Fz Cz Pz Oz TR SOn Occ RAp
ne = 20
type = B
fsmp = 120.0000000000
band = 0.1 0.2 44 58 0
orig.file = s5_bl1-2
orig.nt = 555755
orig.sample_range = 73858 77453
orig.fsmp = 600
orig.subject = 5
orig.run = 14
   1.1684585e+01   3.7463663e+00   2.7290057e+00   4.8121620e+01   1.1633627e+01   6.4635311e+00   9.4735224e+00   3.3703372e+00   9.7905163e+00   2.9105320e+00   2.2946925e+00   3.8387082e+01   1.2510633e+01   1.8412238e+00   2.4390463e+00   2.6535471e+00   1.6407801e+01   3.1361694e+00   5.6623540e+00   1.7862051e+00   0.0000000e+00   0.0000000e+00   0.0000000e+00   0.0000000e+00
   1.7923799e+01   5.8574051e+00   3.0712035e+00   6.7712464e+01   1.6579261e+01   9.1398988e+00   1.2060488e+01   4.2770762e+00   1.5918814e+01   6.3426569e+00   4.3717662e+00   5.6192118e+01   1.9937480e+01   6.2560624e+00   4.7742386e+00   3.1529891e+00   2.2910951e+01   6.1588400e+00   8.8214561e+00   1.8384328e+00   0.0000000e+00   0.0000000e+00   0.0000000e+00   0.0000000e+00
   2.2368295e+01   7.3423999e+00   3.0500525e+00   8.0661095e+01   2.0254941e+01   1.0769849e+01   1.3079789e+01   4.6631913e+00   1.9816830e+01   8.3077519e+00   5.5725765e+00   6.7663319e+01   2.4762549e+01   8.9345275e+00   5.7547526e+00   3.1992977e+00   2.7337565e+01   8.2401491e+00   1.0223056e+01   1.3580575e+00   0.0000000e+00   0.0000000e+00   0.0000000e+00   0.0000000e+00
   2.5672012e+01   8.6413688e+00   2.8216868e+00   8.9052856e+01   2.3213262e+01   1.1805772e+01   1.3045919e+01   4.7051063e+00   2.1852366e+01   9.2023838e+00   6.1751121e+00   7.4788133e+01   2.7916252e+01   1.0562117e+01   5.8453287e+00   2.9493518e+00   3.0417823e+01   9.6018477e+00   1.0632106e+01   5.7389654e-01   0.0000000e+00   0.0000000e+00   0.0000000e+00   0.0000000e+00
   2.8259980e+01   9.9904976e+00   2.5709201e+00   9.4763032e+01   2.5610798e+01   1.2724732e+01   1.2551173e+01   4.5261286e+00   2.2935395e+01   9.5487343e+00   6.3600890e+00   7.9720148e+01   3.0234541e+01   1.1760494e+01   5.6434820e+00   2.5369843e+00   3.2704552e+01   1.0438066e+01   1.0809746e+01  -2.9572992e-01   0.0000000e+00   0.0000000e+00   0.0000000e+00   0.0000000e+00
   3.0503412e+01   1.1488691e+01   2.6463566e+00   9.8824246e+01   2.7494436e+01   1.3920931e+01   1.2589560e+01   4.4980775e+00   2.3825549e+01   9.8030229e+00   6.4764338e+00   8.3720111e+01   3.2265101e+01   1.2930180e+01   5.7895429e+00   2.1922286e+00   3.4715856e+01   1.1172204e+01   1.1441286e+01  -8.2087071e-01   0.0000000e+00   0.0000000e+00   0.0000000e+00   0.0000000e+00
   3.2170965e+01   1.2768368e+01   3.0114546e+00   1.0164359e+02   2.8793194e+01   1.5256884e+01   1.3374228e+01   4.7547571e+00   2.4646509e+01   9.9657567e+00   6.6249707e+00   8.7061994e+01   3.3943730e+01   1.4096058e+01   6.5135728e+00   2.1001642e+00   3.6304961e+01   1.1873651e+01   1.2646656e+01  -7.6555759e-01   0.0000000e+00   0.0000000e+00   0.0000000e+00   0.0000000e+00
   3.3089754e+01   1.3523231e+01   3.5281206e+00   1.0349262e+02   2.9546924e+01   1.6487862e+01   1.4939861e+01   5.3811589e+00   2.5325701e+01   1.0112615e+01   7.0337835e+00   8.9526048e+01   3.5022080e+01   1.5188518e+01   7.7957003e+00   2.4184033e+00   3.7373916e+01   1.2429166e+01   1.4321409e+01  -1.8764066e-02   0.0000000e+00   0.0000000e+00   0.0000000e+00   0.0000000e+00
   3.3347391e+01   1.3699017e+01   4.0109250e+00   1.0463170e+02   2.9903403e+01   1.7423096e+01   1.7079566e+01   6.2700549e+00   2.5753359e+01   1.0471840e+01   7.7427869e+00   9.1001650e+01   3.5404879e+01   1.5988799e+01   9.3978864e+00   3.1104911e+00   3.7901811e+01   1.2750923e+01   1.6158854e+01   1.2649978e+00   0.0000000e+00   0.0000000e+00   0.0000000e+00   0.0000000e+00
   3.3348695e+01   1.3474242e+01   4.3811222e+00   1.0525243e+02   3.0023649e+01   1.8003107e+01   1.9574402e+01   7.3715729e+00   2.6039015e+01   1.1003690e+01   8.7755020e+00   9.1532711e+01   3.5368147e+01   1.6405972e+01   1.1053530e+01   4.0725905e+00   3.8111122e+01   1.3006198e+01   1.7827854e+01   2.8093632e+00   0.0000000e+00   0.0000000e+00   0.0000000e+00   0.0000000e+00
   3.3033707e+01   1.2775518e+01   4.3214780e+00   1.0552908e+02   2.9867029e+01   1.8029601e+01   2.1128396e+01   8.3118593e+00   2.6208470e+01   1.1531986e+01   9.7749579e+00   9.1717854e+01   3.5126951e+01   1.6389193e+01   1.2374863e+01   5.0420796e+00   3.7976923e+01   1.3042794e+01   1.8780435e+01   4.0468998e+00   0.0000000e+00   0.0000000e+00   0.0000000e+00   0.0000000e+00
   3.2584463e+01   1.1833456e+01   3.7971136e+00   1.0570484e+02   2.9575998e+01   1.7575214e+01   2.1245975e+01   8.8305765e+00   2.6387035e+01   1.2161819e+01   1.0611651e+01   9.2198219e+01   3.4856645e+01   1.6187615e+01   1.3212389e+01   5.7079210e+00   3.7798626e+01   1.2828129e+01   1.8829607e+01   4.6525433e+00   0.0000000e+00   0.0000000e+00   0.0000000e+00   0.0000000e+00
   3.2165424e+01   1.1013532e+01   3.0183597e+00   1.0591033e+02   2.9321692e+01   1.6933626e+01   2.0246970e+01   8.8253181e+00   2.6798448e+01   1.2746328e+01   1.1095602e+01   9.2979108e+01   3.4645469e+01   1.6019153e+01   1.3466438e+01   5.8939452e+00   3.7713836e+01   1.2479164e+01   1.8055812e+01   4.5116912e+00   0.0000000e+00   0.0000000e+00   0.0000000e+00   0.0000000e+00
   3.2031622e+01   1.0710289e+01   2.4907798e+00   1.0608859e+02   2.9180347e+01   1.6534147e+01   1.8815692e+01   8.6133172e+00   2.7488685e+01   1.3064657e+01   1.1254174e+01   9.3472265e+01   3.4659120e+01   1.5983367e+01   1.3194433e+01   5.6938094e+00   3.7847877e+01   1.2286932e+01   1.6888466e+01   3.8184267e+00   0.0000000e+00   0.0000000e+00   0.0000000e+00   0.0000000e+00
   3.1838861e+01   1.0858990e+01   2.3704232e+00   1.0598004e+02   2.8984863e+01   1.6505822e+01   1.7149803e+01   8.2876355e+00   2.7887965e+01   1.3175859e+01   1.0891274e+01   9.2928257e+01   3.4743128e+01   1.5854211e+01   1.2454156e+01   5.2251056e+00   3.7813345e+01   1.2141538e+01   1.5595408e+01   2.7307603e+00   0.0000000e+00   0.0000000e+00   0.0000000e+00   0.0000000e+00
   3.1144939e+01   1.1163852e+01   2.5582202e+00   1.0515149e+02   2.8386359e+01   1.6638178e+01   1.5449094e+01   7.8914178e+00   2.7667516e+01   1.3237011e+01   1.0168993e+01   9.1579951e+01   3.4495900e+01   1.5451139e+01   1.1459469e+01   4.6380685e+00   3.7202968e+01   1.1802151e+01   1.4441721e+01   1.4927758e+00   0.0000000e+00   0.0000000e+00   0.0000000e+00   0.0000000e+00
   2.9761479e+01   1.1271053e+01   2.7485793e+00   1.0353674e+02   2.7277657e+01   1.6576459e+01   1.3872691e+01   7.4553662e+00   2.7049736e+01   1.3226600e+01   9.4096203e+00   9.0232957e+01   3.3641507e+01   1.4744174e+01   1.0533967e+01   4.1074642e+00   3.5939732e+01   1.1202399e+01   1.3658917e+01   3.8148961e-01   0.0000000e+00   0.0000000e+00   0.0000000e+00   0.0000000e+00
   2.8027607e+01   1.1140059e+01   2.8788860e+00   1.0152163e+02   2.5872123e+01   1.6228046e+01   1.2877296e+01   7.2088907e+00   2.6275402e+01   1.3057409e+01   8.9800075e+00   8.8928384e+01   3.2361978e+01   1.3873490e+01   9.9569635e+00   3.8469188e+00   3.4512791e+01   1.0621263e+01   1.3458352e+01  -2.0585948e-01   0.0000000e+00   0.0000000e+00   0.0000000e+00   0.0000000e+00
   2.5974768e+01   1.0670417e+01   2.7884324e+00   9.9328474e+01   2.4081794e+01   1.5483279e+01   1.2206877e+01   7.0567392e+00   2.5322556e+01   1.2750954e+01   8.7012113e+00   8.7343584e+01   3.0754561e+01   1.2794146e+01   9.6076245e+00   3.8351416e+00   3.2831934e+01   9.9687239e+00   1.3587266e+01  -2.1973511e-01   0.0000000e+00   0.0000000e+00   0.0000000e+00   0.0000000e+00
   2.4002340e+01   1.0118879e+01   2.6157725e+00   9.7087109e+01   2.2099754e+01   1.4600060e+01   1.1844164e+01   7.0341846e+00   2.4468427e+01   1.2481914e+01   8.5267733e+00   8.5408629e+01   2.9172415e+01   1.1768978e+01   9.4820385e+00   3.9899263e+00   3.0998694e+01   9.2150257e+00   1.3917387e+01   2.4911825e-01   0.0000000e+00   0.0000000e+00   0.0000000e+00   0.0000000e+00
   2.2685083e+01   9.7896459e+00   2.5439623e+00   9.5148931e+01   2.0568204e+01   1.4026919e+01   1.1819689e+01   7.1484575e+00   2.3921894e+01   1.2338397e+01   8.4143041e+00   8.3493765e+01   2.7998280e+01   1.1156567e+01   9.6168863e+00   4.1886526e+00   2.9379470e+01   8.5329620e+00   1.4391898e+01   9.2677445e-01   0.0000000e+00   0.0000000e+00   0.0000000e+00   0.0000000e+00
   2.2455772e+01   9.8017658e+00   2.7474895e+00   9.3893303e+01   2.0020142e+01   1.4037103e+01   1.2327333e+01   7.4207188e+00   2.3727349e+01   1.2398850e+01   8.4712001e+00   8.2018823e+01   2.7302675e+01   1.1107283e+01   1.0076402e+01   4.3444292e+00   2.8477193e+01   8.2476263e+00   1.5132049e+01   1.6532356e+00   0.0000000e+00   0.0000000e+00   0.0000000e+00   0.0000000e+00
   2.2897150e+01   9.8619341e+00   3.1410365e+00   9.3191062e+01   2.0098098e+01   1.4240517e+01   1.3068228e+01   7.6677109e+00   2.3561995e+01   1.2720184e+01   8.5964078e+00   8.0958345e+01   2.6803022e+01   1.1250006e+01   1.0771160e+01   4.4512418e+00   2.8007835e+01   8.2558905e+00   1.5997905e+01   2.3262320e+00   0.0000000e+00   0.0000000e+00   0.0000000e+00   0.0000000e+00
   2.3227216e+01   9.6393068e+00   3.5204074e+00   9.2340414e+01   1.9850709e+01   1.4017697e+01   1.3665601e+01   7.7962916e+00   2.3183801e+01   1.3040486e+01   8.6887967e+00   7.9786274e+01   2.6174967e+01   1.1090587e+01   1.1431451e+01   4.5642680e+00   2.7334948e+01   8.1381450e+00   1.6606107e+01   2.8627318e+00   0.0000000e+00   0.0000000e+00   0.0000000e+00   0.0000000e+00
   2.3079889e+01   9.0461167e+00   3.5434381e+00   9.0964707e+01   1.8999021e+01   1.3202425e+01   1.3601241e+01   7.6150163e+00   2.2681942e+01   1.3020286e+01   8.5548809e+00   7.8433243e+01   2.5309996e+01   1.0517618e+01   1.1635941e+01   4.5346594e+00   2.6135750e+01   7.6190042e+00   1.6492174e+01   2.9488310e+00   0.0000000e+00   0.0000000e+00   0.0000000e+00   0.0000000e+00
   2.3078791e+01   8.5125511e+00   3.1243107e+00   8.9557423e+01   1.8380304e+01   1.2352279e+01   1.2886851e+01   7.1019187e+00   2.2259642e+01   1.3001312e+01   8.2539054e+00   7.7525760e+01   2.4760085e+01   1.0082885e+01   1.1258814e+01   4.1419675e+00   2.5113591e+01   7.0724458e+00   1.5615274e+01   2.4109483e+00   0.0000000e+00   0.0000000e+00   0.0000000e+00   0.0000000e+00
   2.3565247e+01   8.3166007e+00   2.2419968e+00   8.8726074e+01   1.8646494e+01   1.1930416e+01   1.1497864e+01   6.2004830e+00   2.2072805e+01   1.3377056e+01   7.6783054e+00   7.7468262e+01   2.4890261e+01   1.0188185e+01   1.0383675e+01   3.3151188e+00   2.4813964e+01   6.7990535e+00   1.4153401e+01   1.2501434e+00   0.0000000e+00   0.0000000e+00   0.0000000e+00   0.0000000e+00
   2.4456331e+01   8.5323386e+00   1.1396245e+00   8.8477881e+01   1.9577458e+01   1.2039180e+01   9.6486719e+00   5.1023063e+00   2.2435552e+01   1.3951009e+01   6.9612796e+00   7.7924985e+01   2.5412967e+01   1.0787439e+01   9.3005326e+00   2.3113968e+00   2.5204729e+01   6.8307151e+00   1.2613203e+01  -2.0291447e-01   0.0000000e+00   0.0000000e+00   0.0000000e+00   0.0000000e+00
   2.5363358e+01   8.9628744e+00   1.1059771e-02   8.8574932e+01   2.0595062e+01   1.2533667e+01   7.6023138e+00   3.9445042e+00   2.3116288e+01   1.4397168e+01   6.2243735e+00   7.8397037e+01   2.5871373e+01   1.1586932e+01   8.2693949e+00   1.4130530e+00   2.5689252e+01   6.9289061e+00   1.1449965e+01  -1.5851518e+00   0.0000000e+00   0.0000000e+00   0.0000000e+00   0.0000000e+00
   2.6336913e+01   9.5669381e+00  -7.7349908e-01   8.8960405e+01   2.1518149e+01   1.3308402e+01   5.9779212e+00   3.0516827e+00   2.3638946e+01   1.4751140e+01   5.7961115e+00   7.8777146e+01   2.6282837e+01   1.2464265e+01   7.4961018e+00   8.2974134e-01   2.6216734e+01   7.1309397e+00   1.0952284e+01  -2.5280090e+00   0.0000000e+00   0.0000000e+00   0.0000000e+00   0.0000000e+00
   2.7266387e+01   1.0121397e+01  -1.0689909e+00   8.9549396e+01   2.2296545e+01   1.3990322e+01   4.8479932e+00   2.5076595e+00   2.3758604e+01   1.5068000e+01   5.6407252e+00   7.9159919e+01   2.6686906e+01   1.3284978e+01   6.9310555e+00   6.0812959e-01   2.6832208e+01   7.4349240e+00   1.0852408e+01  -3.0470723e+00   0.0000000e+00   0.0000000e+00   0.0000000e+00   0.0000000e+00
   2.7937937e+01   1.0412034e+01  -9.2646962e-01   9.0149707e+01   2.2850821e+01   1.4195019e+01   4.1020745e+00   2.3146185e+00   2.3810220e+01   1.5407911e+01   5.6410808e+00   7.9561849e+01   2.7127805e+01   1.4021625e+01   6.5250517e+00   7.2420947e-01   2.7565091e+01   7.7206183e+00   1.0838260e+01  -3.2437759e+00   0.0000000e+00   0.0000000e+00   0.0000000e+00   0.0000000e+00
   2.8126174e+01   1.0371972e+01  -5.3987931e-01   9.0485589e+01   2.3093593e+01   1.3882641e+01   3.6101824e+00   2.3993578e+00   2.4022066e+01   1.5666951e+01   5.6351163e+00   7.9858757e+01   2.7407826e+01   1.4427533e+01   6.2704994e+00   1.0704483e+00   2.8079636e+01   7.7599749e+00   1.0840381e+01  -3.1295044e+00   0.0000000e+00   0.0000000e+00   0.0000000e+00   0.0000000e+00
   2.8218263e+01   1.0420894e+01   2.2603227e-01   9.0305144e+01   2.3174600e+01   1.3686525e+01   3.9054568e+00   2.9653166e+00   2.4301022e+01   1.5797045e+01   5.9014298e+00   7.9869336e+01   2.7422025e+01   1.4599505e+01   6.5515414e+00   1.7150013e+00   2.8400389e+01   7.8372273e+00   1.1436875e+01  -2.4485672e+00   0.0000000e+00   0.0000000e+00   0.0000000e+00   0.0000000e+00
   2.8474938e+01   1.0855428e+01   1.3981433e+00   8.9693407e+01   2.3141017e+01   1.4144939e+01   5.0380621e+00   3.9612730e+00   2.4386725e+01   1.5900760e+01   6.5194665e+00   7.9829405e+01   2.7233204e+01   1.4944491e+01   7.6213955e+00   2.6718042e+00   2.8432403e+01   8.2864355e+00   1.3016234e+01  -1.2327988e+00   0.0000000e+00   0.0000000e+00   0.0000000e+00   0.0000000e+00
   2.8810774e+01   1.1669689e+01   2.8015960e+00   8.8963656e+01   2.3033825e+01   1.5306220e+01   6.6729471e+00   5.1125081e+00   2.4075998e+01   1.6095176e+01   7.3491049e+00   7.9778665e+01   2.7121163e+01   1.5785199e+01   9.3099896e+00   3.7821173e+00   2.8233120e+01   9.0965167e+00   1.5405881e+01   2.1105436e-01   0.0000000e+00   0.0000000e+00   0.0000000e+00   0.0000000e+00
   2.8972373e+01   1.2507291e+01   3.9883962e+00   8.8346208e+01   2.3050527e+01   1.6679034e+01   8.1512056e+00   6.0014678e+00   2.3380189e+01   1.6475367e+01   8.0706827e+00   7.9482284e+01   2.7368400e+01   1.7061608e+01   1.1093397e+01   4.7865208e+00   2.8041878e+01   9.9441598e+00   1.7874313e+01   1.4297481e+00   0.0000000e+00   0.0000000e+00   0.0000000e+00   0.0000000e+00
   2.9204651e+01   1.3133741e+01   4.7076278e+00   8.8036736e+01   2.3450580e+01   1.7745065e+01   9.3219723e+00   6.5015300e+00   2.2972804e+01   1.7021699e+01   8.6324713e+00   7.9251235e+01   2.8169970e+01   1.8534055e+01   1.2507380e+01   5.4935935e+00   2.8359114e+01   1.0785743e+01   1.9719428e+01   2.1794479e+00   0.0000000e+00   0.0000000e+00   0.0000000e+00   0.0000000e+00
   2.9450076e+01   1.3232457e+01   4.6948500e+00   8.7954071e+01   2.4127292e+01   1.8098108e+01   9.7295403e+00   6.4801448e+00   2.3012862e+01   1.7525520e+01   8.8847601e+00   7.9435887e+01   2.9175156e+01   1.9660913e+01   1.3171275e+01   5.8033608e+00   2.9015740e+01   1.1425649e+01   2.0409065e+01   2.3249271e+00   0.0000000e+00   0.0000000e+00   0.0000000e+00   0.0000000e+00
   2.9472684e+01   1.2761903e+01   4.0662035e+00   8.7753570e+01   2.4691673e+01   1.7672727e+01   9.2509446e+00   6.1128287e+00   2.3231750e+01   1.8085085e+01   8.9745495e+00   7.9650458e+01   2.9986293e+01   2.0197037e+01   1.3149158e+01   5.8834920e+00   2.9749183e+01   1.1685617e+01   2.0051452e+01   2.1264918e+00   0.0000000e+00   0.0000000e+00   0.0000000e+00   0.0000000e+00
   2.9069428e+01   1.2004324e+01   3.2247705e+00   8.7219770e+01   2.4733881e+01   1.6704257e+01   8.0728147e+00   5.6444862e+00   2.3414812e+01   1.8567510e+01   8.9896814e+00   7.9526677e+01   3.0437509e+01   2.0226132e+01   1.2763520e+01   5.9281731e+00   3.0241124e+01   1.1553367e+01   1.9058793e+01   1.8552603e+00   0.0000000e+00   0.0000000e+00   0.0000000e+00   0.0000000e+00
   2.8655213e+01   1.1569822e+01   2.7120787e+00   8.6545953e+01   2.4433765e+01   1.5824881e+01   6.8806351e+00   5.3749687e+00   2.3438605e+01   1.8611301e+01   9.0645342e+00   7.9062174e+01   3.0596231e+01   2.0043434e+01   1.2444564e+01   5.9887725e+00   3.0440516e+01   1.1385831e+01   1.8043562e+01   1.7045953e+00   0.0000000e+00   0.0000000e+00   0.0000000e+00   0.0000000e+00
   2.8646796e+01   1.1804709e+01   2.6664766e+00   8.5994585e+01   2.4336460e+01   1.5507841e+01   5.9769440e+00   5.2334447e+00   2.3029287e+01   1.8117554e+01   9.0862772e+00   7.8456769e+01   3.0526835e+01   1.9785658e+01   1.2323458e+01   5.8802728e+00   3.0372845e+01   1.1405596e+01   1.7284567e+01   1.5730846e+00   0.0000000e+00   0.0000000e+00   0.0000000e+00   0.0000000e+00
   2.9008378e+01   1.2594894e+01   2.9027622e+00   8.5435698e+01   2.4541127e+01   1.5766105e+01   5.4583813e+00   5.0669209e+00   2.1921422e+01   1.7273278e+01   8.9062769e+00   7.7926299e+01   3.0206747e+01   1.9443786e+01   1.2224549e+01   5.4900339e+00   3.0172936e+01   1.1474247e+01   1.6767510e+01   1.3243208e+00   0.0000000e+00   0.0000000e+00   0.0000000e+00   0.0000000e+00
   2.9296527e+01   1.3453622e+01   3.1022297e+00   8.4656417e+01   2.4591829e+01   1.6174799e+01   4.9244970e+00   4.7994150e+00   2.0371205e+01   1.6254890e+01   8.4175950e+00   7.7531518e+01   2.9609689e+01   1.8934783e+01   1.1965135e+01   4.9731659e+00   2.9692924e+01   1.1299567e+01   1.6402590e+01   9.6246643e-01   0.0000000e+00   0.0000000e+00   0.0000000e+00   0.0000000e+00
   2.9456155e+01   1.4088761e+01   3.2380332e+00   8.3710540e+01   2.4322572e+01   1.6440484e+01   4.6704771e+00   4.6973427e+00   1.8985488e+01   1.5199576e+01   7.9890586e+00   7.6778981e+01   2.9002311e+01   1.8401540e+01   1.1798951e+01   4.6550585e+00   2.9119543e+01   1.1045859e+01   1.6526723e+01   8.2813714e-01   0.0000000e+00   0.0000000e+00   0.0000000e+00   0.0000000e+00
   2.9317827e+01   1.4158288e+01   3.2831157e+00   8.2559483e+01   2.3751049e+01   1.6337330e+01   4.6396567e+00   4.8336900e+00   1.7743537e+01   1.4208450e+01   7.7922111e+00   7.4940912e+01   2.8422451e+01   1.7751099e+01   1.1915941e+01   4.6463630e+00   2.8413579e+01   1.0808887e+01   1.7290276e+01   1.0963358e+00   0.0000000e+00   0.0000000e+00   0.0000000e+00   0.0000000e+00
   2.8859642e+01   1.3692539e+01   3.4191916e+00   8.1224053e+01   2.2941556e+01   1.5887968e+01   4.9235682e+00   5.2751614e+00   1.6837371e+01   1.3335626e+01   7.8907724e+00   7.2674763e+01   2.7799657e+01   1.6844803e+01   1.2322558e+01   4.9508459e+00   2.7545929e+01   1.0617240e+01   1.8553235e+01   1.8416400e+00   0.0000000e+00   0.0000000e+00   0.0000000e+00   0.0000000e+00
   2.8209847e+01   1.3048024e+01   3.6997590e+00   7.9974333e+01   2.2017176e+01   1.5306275e+01   5.3651819e+00   5.8694942e+00   1.6392115e+01   1.2508884e+01   8.0990103e+00   7.1151387e+01   2.6952776e+01   1.5844858e+01   1.2889329e+01   5.4356491e+00   2.6424499e+01   1.0396449e+01   1.9924922e+01   2.8886923e+00   0.0000000e+00   0.0000000e+00   0.0000000e+00   0.0000000e+00
   2.7771109e+01   1.2705788e+01   4.1477914e+00   7.9008941e+01   2.1200616e+01   1.4898308e+01   5.9495564e+00   6.4602841e+00   1.6079611e+01   1.1710778e+01   8.3179339e+00   7.0408179e+01   2.5930397e+01   1.5181825e+01   1.3401846e+01   5.8782390e+00   2.5393571e+01   1.0203362e+01   2.1025383e+01   3.9232731e+00   0.0000000e+00   0.0000000e+00   0.0000000e+00   0.0000000e+00
   2.7553251e+01   1.2717531e+01   4.4544164e+00   7.8273360e+01   2.0475424e+01   1.4599896e+01   6.1484624e+00   6.7262495e+00   1.5599200e+01   1.0986359e+01   8.2477065e+00   6.9949430e+01   2.4880769e+01   1.4810765e+01   1.3383865e+01   5.9691993e+00   2.4592126e+01   9.8661088e+00   2.1241962e+01   4.4014056e+00   0.0000000e+00   0.0000000e+00   0.0000000e+00   0.0000000e+00
   2.7367088e+01   1.2898058e+01   4.2700463e+00   7.7627871e+01   1.9730254e+01   1.4179501e+01   5.4710163e+00   6.4665846e+00   1.4993628e+01   1.0420830e+01   7.7697853e+00   6.9374860e+01   2.4038211e+01   1.4473522e+01   1.2498679e+01   5.5404971e+00   2.4050217e+01   9.1097104e+00   2.0210814e+01   3.9916446e+00   0.0000000e+00   0.0000000e+00   0.0000000e+00   0.0000000e+00
   2.7200514e+01   1.3002422e+01   3.5627193e+00   7.7076568e+01   1.9010627e+01   1.3567226e+01   3.9046478e+00   5.7512936e+00   1.4524592e+01   1.0002158e+01   6.9636643e+00   6.8792910e+01   2.3529676e+01   1.4017607e+01   1.0838605e+01   4.7277333e+00   2.3679187e+01   7.9184996e+00   1.8109056e+01   2.8186322e+00   0.0000000e+00   0.0000000e+00   0.0000000e+00   0.0000000e+00
   2.7409830e+01   1.2987976e+01   2.8488776e+00   7.6735950e+01   1.8530048e+01   1.3063794e+01   2.3516086e+00   5.0895766e+00   1.4635307e+01   9.5882475e+00   6.2283175e+00   6.8440893e+01   2.3328819e+01   1.3489954e+01   9.0374855e+00   3.9097738e+00   2.3632347e+01   6.7735626e+00   1.5754532e+01   1.4811130e+00   0.0000000e+00   0.0000000e+00   0.0000000e+00   0.0000000e+00
   2.7873924e+01   1.2730131e+01   2.4717087e+00   7.6549087e+01   1.8211995e+01   1.2768439e+01   1.3336754e+00   4.7420215e+00   1.5243350e+01   9.1476982e+00   5.7799698e+00   6.8428201e+01   2.3238237e+01   1.2923648e+01   7.6660931e+00   3.3664939e+00   2.3742427e+01   5.9839787e+00   1.3793943e+01   4.6780631e-01   0.0000000e+00   0.0000000e+00   0.0000000e+00   0.0000000e+00
   2.8231263e+01   1.2306301e+01   2.4643677e+00   7.6244400e+01   1.7866893e+01   1.2689070e+01   1.1481944e+00   4.7499263e+00   1.6040331e+01   9.0514683e+00   5.8007312e+00   6.8624705e+01   2.3200770e+01   1.2669089e+01   7.1192095e+00   3.3221287e+00   2.3816246e+01   5.6005228e+00   1.2766131e+01   1.5532947e-01   0.0000000e+00   0.0000000e+00   0.0000000e+00   0.0000000e+00
   2.8202581e+01   1.1778598e+01   2.5590937e+00   7.5552057e+01   1.7410223e+01   1.2786744e+01   1.6605531e+00   4.9228535e+00   1.6683673e+01   9.2489245e+00   6.1870563e+00   6.8551410e+01   2.3117110e+01   1.2904845e+01   7.4891611e+00   3.7519772e+00   2.3533788e+01   5.4637431e+00   1.2860365e+01   5.2302408e-01   0.0000000e+00   0.0000000e+00   0.0000000e+00   0.0000000e+00
   2.7934419e+01   1.1257181e+01   2.6423525e+00   7.4345142e+01   1.6781066e+01   1.2868494e+01   2.6663284e+00   5.1842127e+00   1.6605260e+01   9.3461881e+00   6.8103523e+00   6.7669643e+01   2.2880676e+01   1.3409947e+01   8.5698658e+00   4.3961690e+00   2.2804993e+01   5.4771676e+00   1.3806318e+01   1.2745024e+00   0.0000000e+00   0.0000000e+00   0.0000000e+00   0.0000000e+00
   2.7325152e+01   1.0622007e+01   2.6802148e+00   7.2626249e+01   1.5688828e+01   1.2509600e+01   3.5378354e+00   5.4185161e+00   1.5531374e+01   8.9836414e+00   7.2631896e+00   6.5926445e+01   2.2268311e+01   1.3597053e+01   9.7774991e+00   4.9942609e+00   2.1419519e+01   5.3662374e+00   1.4954086e+01   2.0165340e+00   0.0000000e+00   0.0000000e+00   0.0000000e+00   0.0000000e+00
   2.6361165e+01   9.8676827e+00   2.7678334e+00   7.0744645e+01   1.4253097e+01   1.1845845e+01   4.1325581e+00   5.7058863e+00   1.4367386e+01   8.1823818e+00   7.4108774e+00   6.4050671e+01   2.1414156e+01   1.3304326e+01   1.0785464e+01   5.5453039e+00   1.9749077e+01   5.0415369e+00   1.6170619e+01   2.7256619e+00   0.0000000e+00   0.0000000e+00   0.0000000e+00   0.0000000e+00
   2.5370844e+01   9.2926499e+00   2.9192161e+00   6.9324933e+01   1.3180833e+01   1.1551852e+01   4.6621420e+00   6.0701997e+00   1.3930805e+01   7.4558381e+00   7.3629439e+00   6.3058883e+01   2.0837147e+01   1.2975837e+01   1.1604452e+01   6.0164685e+00   1.8579981e+01   4.7366713e+00   1.7511764e+01   3.4478809e+00   0.0000000e+00   0.0000000e+00   0.0000000e+00   0.0000000e+00
   2.4909215e+01   9.2482844e+00   3.2442232e+00   6.8702774e+01   1.3101632e+01   1.2057316e+01   5.5080167e+00   6.5634824e+00   1.4103284e+01   7.3137766e+00   7.3229134e+00   6.3152933e+01   2.1109807e+01   1.3053565e+01   1.2168685e+01   6.2880132e+00   1.8666271e+01   4.8304349e+00   1.8704073e+01   4.0680895e+00   0.0000000e+00   0.0000000e+00   0.0000000e+00   0.0000000e+00
   2.4860407e+01   9.5722450e+00   3.6117495e+00   6.8635621e+01   1.3841747e+01   1.2931755e+01   6.1951639e+00   6.9319122e+00   1.4139997e+01   7.6109334e+00   7.0434247e+00   6.3807977e+01   2.2075834e+01   1.3228168e+01   1.2055816e+01   6.1980514e+00   1.9643431e+01   5.1288743e+00   1.8988674e+01   4.1859905e+00   0.0000000e+00   0.0000000e+00   0.0000000e+00   0.0000000e+00
   2.4689309e+01   9.9755545e+00   3.9341405e+00   6.8588608e+01   1.4640309e+01   1.3365363e+01   6.1725337e+00   6.9564683e+00   1.4050360e+01   7.9327199e+00   6.3532917e+00   6.4540026e+01   2.3060459e+01   1.3023109e+01   1.1104068e+01   5.7439559e+00   2.0698581e+01   5.1167729e+00   1.7972028e+01   3.6897319e+00   0.0000000e+00   0.0000000e+00   0.0000000e+00   0.0000000e+00
   2.4097904e+01   1.0271625e+01   4.2510390e+00   6.8182597e+01   1.4888721e+01   1.2929671e+01   5.3775946e+00   6.7131602e+00   1.4041793e+01   8.0251096e+00   5.4569936e+00   6.4846795e+01   2.3510496e+01   1.2341873e+01   9.7518762e+00   5.1929882e+00   2.1315403e+01   4.5733674e+00   1.6044968e+01   2.8993387e+00   0.0000000e+00   0.0000000e+00   0.0000000e+00   0.0000000e+00
   2.3535144e+01   1.0588920e+01   4.7354593e+00   6.7639934e+01   1.4837229e+01   1.2236920e+01   4.5994971e+00   6.5907493e+00   1.4043811e+01   7.9131247e+00   4.9297137e+00   6.4701995e+01   2.3464187e+01   1.1572166e+01   8.7628694e+00   4.9415434e+00   2.1738779e+01   3.9517876e+00   1.4204029e+01   2.4035525e+00   0.0000000e+00   0.0000000e+00   0.0000000e+00   0.0000000e+00
   2.3343230e+01   1.0840491e+01   5.1775821e+00   6.7283487e+01   1.4943253e+01   1.1899932e+01   4.2247994e+00   6.6284157e+00   1.4096666e+01   7.7274676e+00   4.9634962e+00   6.4485711e+01   2.3051383e+01   1.0959519e+01   8.4507607e+00   5.0671836e+00   2.2042890e+01   3.6303790e+00   1.2979526e+01   2.3873998e+00   0.0000000e+00   0.0000000e+00   0.0000000e+00   0.0000000e+00
   2.3366349e+01   1.0900748e+01   5.2793999e+00   6.7069230e+01   1.5321773e+01   1.2028567e+01   4.1710598e+00   6.6762318e+00   1.4020318e+01   7.5854810e+00   5.3866969e+00   6.3924113e+01   2.2255381e+01   1.0424135e+01   8.6627131e+00   5.4331477e+00   2.2148102e+01   3.4742720e+00   1.2442254e+01   2.6992573e+00   0.0000000e+00   0.0000000e+00   0.0000000e+00   0.0000000e+00
   2.3281899e+01   1.0748694e+01   5.0261850e+00   6.6770201e+01   1.5758995e+01   1.2430224e+01   4.1676919e+00   6.6444492e+00   1.3487216e+01   7.3523013e+00   5.8365901e+00   6.2526267e+01   2.1133369e+01   9.6863639e+00   9.0000635e+00   5.9042552e+00   2.1881956e+01   3.1544342e+00   1.2384054e+01   3.1218020e+00   0.0000000e+00   0.0000000e+00   0.0000000e+00   0.0000000e+00
   2.3159080e+01   1.0552761e+01   4.7669065e+00   6.6243145e+01   1.6069777e+01   1.2866071e+01   4.4841630e+00   6.7345615e+00   1.2670228e+01   6.9005948e+00   6.1883650e+00   6.0840711e+01   1.9990724e+01   8.7601586e+00   9.1921507e+00   6.3712496e+00   2.1442674e+01   2.7502847e+00   1.2627767e+01   3.5879048e+00   0.0000000e+00   0.0000000e+00   0.0000000e+00   0.0000000e+00
   2.3044634e+01   1.0298516e+01   4.5509321e+00   6.5642338e+01   1.6179139e+01   1.2968757e+01   4.9729199e+00   6.8788928e+00   1.1874127e+01   6.3417953e+00   6.2414029e+00   5.9707565e+01   1.9194554e+01   7.9142842e+00   9.1058030e+00   6.5912447e+00   2.0921991e+01   2.3605545e+00   1.2830854e+01   3.8541585e+00   0.0000000e+00   0.0000000e+00   0.0000000e+00   0.0000000e+00
   2.2849752e+01   9.9489861e+00   4.1851129e+00   6.5178810e+01   1.6044917e+01   1.2483481e+01   5.1945257e+00   6.8828271e+00   1.1514275e+01   5.9709546e+00   6.0117328e+00   5.9327465e+01   1.8979730e+01   7.5653942e+00   8.8773892e+00   6.4440946e+00   2.0534452e+01   1.8996381e+00   1.2835849e+01   3.7839088e+00   0.0000000e+00   0.0000000e+00   0.0000000e+00   0.0000000e+00
   2.2479208e+01   9.5719776e+00   3.6246488e+00   6.4757583e+01   1.5635132e+01   1.1591515e+01   4.8193978e+00   6.7090485e+00   1.1582772e+01   6.0190648e+00   5.7471658e+00   5.9495207e+01   1.9081702e+01   7.7793174e+00   8.6950913e+00   6.0522921e+00   2.0372997e+01   1.2428003e+00   1.2706602e+01   3.4418096e+00   0.0000000e+00   0.0000000e+00   0.0000000e+00   0.0000000e+00
   2.2130637e+01   9.3445196e+00   3.2287707e+00   6.4222790e+01   1.5113270e+01   1.0847692e+01   4.2904962e+00   6.5846949e+00   1.1610888e+01   6.4374446e+00   5.8031427e+00   5.9667246e+01   1.9220051e+01   8.3103069e+00   8.7470742e+00   5.6732961e+00   2.0481826e+01   5.6356757e-01   1.2681481e+01   3.0953749e+00   0.0000000e+00   0.0000000e+00   0.0000000e+00   0.0000000e+00
   2.2017302e+01   9.2586080e+00   3.1234768e+00   6.3594657e+01   1.4673980e+01   1.0476422e+01   3.9088135e+00   6.5121954e+00   1.1549066e+01   6.9794658e+00   6.1582675e+00   5.9560929e+01   1.9298189e+01   8.8508420e+00   9.0373240e+00   5.3780369e+00   2.0636857e+01   3.3422250e-02   1.2731698e+01   2.7890384e+00   0.0000000e+00   0.0000000e+00   0.0000000e+00   0.0000000e+00
   2.2196808e+01   9.2899125e+00   3.1194740e+00   6.3101064e+01   1.4624381e+01   1.0504674e+01   3.6867994e+00   6.3320038e+00   1.1679911e+01   7.4789264e+00   6.5821278e+00   5.9264774e+01   1.9545152e+01   9.4265219e+00   9.3791618e+00   5.0597085e+00   2.0955333e+01  -2.6281092e-01   1.2712609e+01   2.3551289e+00   0.0000000e+00   0.0000000e+00   0.0000000e+00   0.0000000e+00
   2.2748537e+01   9.5067734e+00   3.0007379e+00   6.3050208e+01   1.5226820e+01   1.0912933e+01   3.5015279e+00   5.9592457e+00   1.2134076e+01   7.9107454e+00   6.9350682e+00   5.9144644e+01   2.0266431e+01   1.0118465e+01   9.5681815e+00   4.6399491e+00   2.1673987e+01  -1.9766526e-01   1.2494309e+01   1.7145475e+00   0.0000000e+00   0.0000000e+00   0.0000000e+00   0.0000000e+00
   2.3827253e+01   1.0107343e+01   2.8633415e+00   6.3481278e+01   1.6453871e+01   1.1628387e+01   3.5737066e+00   5.6069129e+00   1.2742268e+01   8.3274692e+00   7.2906275e+00   5.9406728e+01   2.1344564e+01   1.0790572e+01   9.6112412e+00   4.1717500e+00   2.2816058e+01   3.7592916e-01   1.2265525e+01   1.1726934e+00   0.0000000e+00   0.0000000e+00   0.0000000e+00   0.0000000e+00
   2.5063427e+01   1.0864816e+01   2.8095206e+00   6.4006673e+01   1.7722425e+01   1.2254032e+01   3.8245080e+00   5.3893356e+00   1.3010003e+01   8.6790719e+00   7.4638962e+00   5.9724551e+01   2.2220972e+01   1.1174690e+01   9.5407120e+00   3.6781635e+00   2.3750932e+01   1.2018160e+00   1.2165124e+01   9.3647645e-01   0.0000000e+00   0.0000000e+00   0.0000000e+00   0.0000000e+00
   2.5847790e+01   1.1449364e+01   2.8981440e+00   6.4138875e+01   1.8391623e+01   1.2499018e+01   4.1539440e+00   5.3930117e+00   1.3065888e+01   8.9825981e+00   7.3816134e+00   5.9660766e+01   2.2616391e+01   1.1444365e+01   9.5225993e+00   3.2516676e+00   2.4018666e+01   1.8947366e+00   1.2287094e+01   1.0301125e+00   0.0000000e+00   0.0000000e+00   0.0000000e+00   0.0000000e+00
   2.5905185e+01   1.1702102e+01   3.1069866e+00   6.3637479e+01   1.8370705e+01   1.2443172e+01   4.5178679e+00   5.5434550e+00   1.3367457e+01   9.3265736e+00   7.1808201e+00   5.9271073e+01   2.2557607e+01   1.1806151e+01   9.6388245e+00   2.9774922e+00   2.3567734e+01   2.3413182e+00   1.2556378e+01   1.2784748e+00   0.0000000e+00   0.0000000e+00   0.0000000e+00   0.0000000e+00
   2.5522679e+01   1.1686812e+01   3.3958699e+00   6.2611434e+01   1.8040785e+01   1.2325203e+01   4.9469263e+00   5.7009148e+00   1.3924145e+01   9.7976620e+00   7.0507492e+00   5.8827370e+01   2.2229259e+01   1.2047879e+01   9.6427845e+00   2.7778385e+00   2.2834395e+01   2.6530743e+00   1.2688777e+01   1.4246184e+00   0.0000000e+00   0.0000000e+00   0.0000000e+00   0.0000000e+00
   2.4815046e+01   1.1313742e+01   3.4886879e+00   6.1389801e+01   1.7527073e+01   1.2029000e+01   4.9917812e+00   5.6438116e+00   1.4188145e+01   1.0243123e+01   6.8376461e+00   5.8066278e+01   2.1712157e+01   1.1641970e+01   9.1078909e+00   2.5158807e+00   2.1974645e+01   2.6544219e+00   1.2195101e+01   1.2359741e+00   0.0000000e+00   0.0000000e+00   0.0000000e+00   0.0000000e+00
   2.3848639e+01   1.0589912e+01   3.2424481e+00   6.0311446e+01   1.6806089e+01   1.1483627e+01   4.6455727e+00   5.4567310e+00   1.3982279e+01   1.0639010e+01   6.6046929e+00   5.6745427e+01   2.1291086e+01   1.0679218e+01   8.1972092e+00   2.3010121e+00   2.1210064e+01   2.2609711e+00   1.1209007e+01   9.1708916e-01   0.0000000e+00   0.0000000e+00   0.0000000e+00   0.0000000e+00
   2.2923905e+01   9.6920749e+00   2.7658739e+00   5.9453950e+01   1.5916490e+01   1.0761792e+01   4.3538443e+00   5.3755889e+00   1.3876232e+01   1.1161659e+01   6.6583306e+00   5.5919166e+01   2.1260082e+01   9.8490558e+00   7.5533567e+00   2.3133479e+00   2.0711654e+01   1.7861924e+00   1.0309154e+01   7.6997855e-01   0.0000000e+00   0.0000000e+00   0.0000000e+00   0.0000000e+00
   2.2356357e+01   8.8618584e+00   2.3053533e+00   5.8707227e+01   1.5035871e+01   9.9480519e+00   4.4714484e+00   5.5483046e+00   1.4386818e+01   1.1688877e+01   7.1695762e+00   5.6118871e+01   2.1550297e+01   9.6436863e+00   7.5720589e+00   2.5693515e+00   2.0570308e+01   1.6115456e+00   9.8323492e+00   8.4358855e-01   0.0000000e+00   0.0000000e+00   0.0000000e+00   0.0000000e+00
   2.1942544e+01   8.1008635e+00   1.8235276e+00   5.7971034e+01   1.4119885e+01   8.8849925e+00   4.4307416e+00   5.6693808e+00   1.5190101e+01   1.1798946e+01   7.7301456e+00   5.6628159e+01   2.1660472e+01   9.7506728e+00   7.9385184e+00   2.8211877e+00   2.0409957e+01   1.5937657e+00   9.4433394e+00   8.1060519e-01   0.0000000e+00   0.0000000e+00   0.0000000e+00   0.0000000e+00
   2.1514637e+01   7.4009302e+00   1.3605246e+00   5.7287048e+01   1.3016411e+01   7.5674341e+00   3.9526281e+00   5.5767978e+00   1.5624481e+01   1.1427001e+01   8.0658297e+00   5.6765916e+01   2.1372767e+01   9.7157902e+00   8.2757542e+00   2.9112696e+00   2.0047649e+01   1.4753035e+00   8.9704059e+00   5.6145750e-01   0.0000000e+00   0.0000000e+00   0.0000000e+00   0.0000000e+00
   2.1089730e+01   6.7428218e+00   1.0597521e+00   5.6676059e+01   1.1772347e+01   6.3129049e+00   3.2727913e+00   5.4191677e+00   1.5094185e+01   1.0813377e+01   8.1806749e+00   5.6072001e+01   2.0880976e+01   9.4333358e+00   8.5058161e+00   2.9032229e+00   1.9511109e+01   1.2537947e+00   8.5707488e+00   2.8052174e-01   0.0000000e+00   0.0000000e+00   0.0000000e+00   0.0000000e+00
   2.0769937e+01   6.2109586e+00   1.1392735e+00   5.5962545e+01   1.0649914e+01   5.6262945e+00   3.0236575e+00   5.5226061e+00   1.4103981e+01   1.0349813e+01   8.2628524e+00   5.4580903e+01   2.0432423e+01   9.1331951e+00   8.7261932e+00   2.9756604e+00   1.9137248e+01   1.2542579e+00   8.5842006e+00   2.5973463e-01   0.0000000e+00   0.0000000e+00   0.0000000e+00   0.0000000e+00
   2.0498273e+01   5.8096554e+00   1.5292413e+00   5.5089251e+01   9.8454342e+00   5.6662663e+00   3.4293724e+00   5.8835430e+00   1.3476165e+01   1.0135499e+01   8.2825850e+00   5.3077062e+01   2.0079591e+01   8.8781027e+00   8.8302422e+00   3.1742320e+00   1.8974464e+01   1.6146950e+00   8.9422726e+00   4.8505838e-01   0.0000000e+00   0.0000000e+00   0.0000000e+00   0.0000000e+00
   2.0195464e+01   5.5735585e+00   2.0602870e+00   5.4435208e+01   9.5307876e+00   6.2934244e+00   4.4242989e+00   6.3742797e+00   1.3364130e+01   1.0056413e+01   8.1862555e+00   5.2195032e+01   1.9941863e+01   8.7090200e+00   8.7216290e+00   3.5025390e+00   1.9123198e+01   2.1813444e+00   9.4255973e+00   8.4063325e-01   0.0000000e+00   0.0000000e+00   0.0000000e+00   0.0000000e+00
   1.9794429e+01   5.4447396e+00   2.5247946e+00   5.4453655e+01   9.6210109e+00   7.1392566e+00   5.5605186e+00   6.8218328e+00   1.3293701e+01   1.0037949e+01   7.9376449e+00   5.1631555e+01   1.9952003e+01   8.6810301e+00   8.4680297e+00   3.9433291e+00   1.9484815e+01   2.6571769e+00   9.8747731e+00   1.1895582e+00   0.0000000e+00   0.0000000e+00   0.0000000e+00   0.0000000e+00
   1.9458700e+01   5.4492914e+00   2.9105748e+00   5.5425450e+01   1.0001979e+01   7.9508558e+00   6.7002421e+00   7.1724174e+00   1.2917558e+01   9.9960156e+00   7.6536106e+00   5.1067087e+01   1.9985814e+01   8.8277085e+00   8.2088078e+00   4.3748043e+00   2.0066400e+01   2.9945214e+00   1.0211821e+01   1.5217799e+00   0.0000000e+00   0.0000000e+00   0.0000000e+00   0.0000000e+00
   1.9281728e+01   5.5604457e+00   3.2392495e+00   5.7527004e+01   1.0492575e+01   8.4675681e+00   7.6301937e+00   7.3276644e+00   1.2563645e+01   9.8539404e+00   7.2683823e+00   5.0720389e+01   1.9832570e+01   8.8337180e+00   7.8140190e+00   4.5598137e+00   2.0595739e+01   3.2121168e+00   1.0110311e+01   1.6743398e+00   0.0000000e+00   0.0000000e+00   0.0000000e+00   0.0000000e+00
   1.9121943e+01   5.8676562e+00   3.5320916e+00   6.0663138e+01   1.0816400e+01   8.5667165e+00   8.0902788e+00   7.2121575e+00   1.2638041e+01   9.5849065e+00   6.6569465e+00   5.0649790e+01   1.9463338e+01   8.4789559e+00   7.1080211e+00   4.3898955e+00   2.0712909e+01   3.2041069e+00   9.3433869e+00   1.4672445e+00   0.0000000e+00   0.0000000e+00   0.0000000e+00   0.0000000e+00
   1.9067798e+01   6.5268034e+00   3.8150200e+00   6.4102996e+01   1.1064689e+01   8.5692558e+00   8.0291761e+00   6.8624789e+00   1.2819262e+01   9.2788616e+00   5.8773237e+00   5.0546984e+01   1.9130089e+01   7.9974316e+00   6.2806575e+00   3.9386162e+00   2.0351403e+01   2.9755732e+00   8.1501503e+00   9.7740971e-01   0.0000000e+00   0.0000000e+00   0.0000000e+00   0.0000000e+00
   1.9482065e+01   7.5980595e+00   4.2619393e+00   6.6770023e+01   1.1601776e+01   8.9325582e+00   7.9034723e+00   6.6057431e+00   1.2618175e+01   9.0737150e+00   5.2639391e+00   5.0084255e+01   1.8964127e+01   7.7183089e+00   5.7850999e+00   3.4761417e+00   1.9902952e+01   2.8079449e+00   7.1347384e+00   6.0661865e-01   0.0000000e+00   0.0000000e+00   0.0000000e+00   0.0000000e+00
   2.0259061e+01   8.7053651e+00   4.7793785e+00   6.8240335e+01   1.2282191e+01   9.4076538e+00   7.7952685e+00   6.5962594e+00   1.2139532e+01   8.8048136e+00   4.9324565e+00   4.9133451e+01   1.8574062e+01   7.4430914e+00   5.6764146e+00   3.2167430e+00   1.9362316e+01   2.8260395e+00   6.5135678e+00   5.6442299e-01   0.0000000e+00   0.0000000e+00   0.0000000e+00   0.0000000e+00
   2.0843870e+01   9.3740425e+00   5.1131714e+00   6.8827436e+01   1.2825254e+01   9.5989000e+00   7.4641877e+00   6.7449474e+00   1.1592957e+01   8.2681599e+00   4.8329822e+00   4.7596639e+01   1.7736240e+01   6.9573103e+00   5.7715573e+00   3.2121817e+00   1.8737271e+01   2.8893333e+00   6.2962734e+00   8.1788260e-01   0.0000000e+00   0.0000000e+00   0.0000000e+00   0.0000000e+00
   2.0993332e+01   9.4798572e+00   5.2269428e+00   6.8814778e+01   1.3179946e+01   9.4609599e+00   6.8384590e+00   6.9217876e+00   1.0790383e+01   7.5598928e+00   4.9185458e+00   4.5436682e+01   1.6724629e+01   6.3727125e+00   5.9230279e+00   3.3993941e+00   1.8177002e+01   2.8759338e+00   6.4284917e+00   1.2444694e+00   0.0000000e+00   0.0000000e+00   0.0000000e+00   0.0000000e+00
   2.0976145e+01   9.3273385e+00   5.3567434e+00   6.8387976e+01   1.3451033e+01   9.2894301e+00   6.4715543e+00   7.1261971e+00   1.0139225e+01   6.8771521e+00   5.1877030e+00   4.3442842e+01   1.5910092e+01   5.8975219e+00   6.0038460e+00   3.6416204e+00   1.7885736e+01   2.9316168e+00   6.8559509e+00   1.7752452e+00   0.0000000e+00   0.0000000e+00   0.0000000e+00   0.0000000e+00
   2.0953755e+01   9.1579978e+00   5.6235708e+00   6.7760858e+01   1.3748712e+01   9.3258924e+00   6.4632362e+00   7.2259159e+00   1.0078569e+01   6.3826345e+00   5.3783006e+00   4.2340738e+01   1.5237498e+01   5.4832158e+00   5.7847707e+00   3.7305524e+00   1.7694895e+01   3.0835548e+00   7.2926060e+00   2.1709853e+00   0.0000000e+00   0.0000000e+00   0.0000000e+00   0.0000000e+00
   2.0993405e+01   9.1364142e+00   6.0088129e+00   6.7192551e+01   1.4322412e+01   9.7238063e+00   6.5329937e+00   7.1416149e+00   1.0485291e+01   6.1574782e+00   5.2895671e+00   4.1879928e+01   1.4665436e+01   5.2257755e+00   5.2838741e+00   3.6438629e+00   1.7638291e+01   3.2014464e+00   7.6189032e+00   2.3047576e+00   0.0000000e+00   0.0000000e+00   0.0000000e+00   0.0000000e+00
   2.1202176e+01   9.2580939e+00   6.3253875e+00   6.6814160e+01   1.5129356e+01   1.0364836e+01   6.4236445e+00   6.8423060e+00   1.0912962e+01   6.1541264e+00   4.9787823e+00   4.1557408e+01   1.4266425e+01   5.2681676e+00   4.7377833e+00   3.5008957e+00   1.7773220e+01   3.1781686e+00   7.7991140e+00   2.1772496e+00   0.0000000e+00   0.0000000e+00   0.0000000e+00   0.0000000e+00
   2.1581275e+01   9.4137608e+00   6.5273356e+00   6.6492431e+01   1.5584367e+01   1.0859083e+01   6.2694734e+00   6.4658539e+00   1.0939575e+01   6.5036966e+00   4.7879328e+00   4.1086106e+01   1.4123655e+01   5.6434572e+00   4.3881193e+00   3.4391586e+00   1.8052374e+01   3.0687743e+00   7.8368563e+00   1.9236281e+00   0.0000000e+00   0.0000000e+00   0.0000000e+00   0.0000000e+00
   2.1900642e+01   9.3464800e+00   6.5999796e+00   6.5959974e+01   1.5177767e+01   1.0731863e+01   6.0912345e+00   6.1676149e+00   1.0694955e+01   6.9986651e+00   4.8439165e+00   4.0630484e+01   1.4207396e+01   6.0795123e+00   4.2903035e+00   3.5294919e+00   1.8047596e+01   2.9117868e+00   7.6807519e+00   1.7244084e+00   0.0000000e+00   0.0000000e+00   0.0000000e+00   0.0000000e+00
   2.1950973e+01   8.9871896e+00   6.6041826e+00   6.5178798e+01   1.4114054e+01   9.9699447e+00   6.0003735e+00   6.0966032e+00   1.0675226e+01   7.2854471e+00   5.0940880e+00   4.0509450e+01   1.4327809e+01   6.3223012e+00   4.4418566e+00   3.8217491e+00   1.7665403e+01   2.7254844e+00   7.5012889e+00   1.8181186e+00   0.0000000e+00   0.0000000e+00   0.0000000e+00   0.0000000e+00
   2.1861364e+01   8.5024673e+00   6.6653217e+00   6.4270173e+01   1.2883825e+01   9.0664580e+00   6.1686457e+00   6.2730372e+00   1.0957374e+01   7.4125686e+00   5.4738814e+00   4.0662816e+01   1.4322104e+01   6.4612078e+00   4.8827850e+00   4.2934467e+00   1.7012889e+01   2.5961329e+00   7.5378553e+00   2.2669709e+00   0.0000000e+00   0.0000000e+00   0.0000000e+00   0.0000000e+00
   2.1783353e+01   8.2344756e+00   6.9011640e+00   6.3203005e+01   1.1813325e+01   8.6603939e+00   6.8070120e+00   6.6684263e+00   1.1279967e+01   7.5696602e+00   5.9142346e+00   4.0637565e+01   1.4238808e+01   6.8105239e+00   5.6605370e+00   4.8655960e+00   1.6241041e+01   2.6545709e+00   8.0003199e+00   2.9879090e+00   0.0000000e+00   0.0000000e+00   0.0000000e+00   0.0000000e+00
   2.1603030e+01   8.3542085e+00   7.2216357e+00   6.1929985e+01   1.0967781e+01   8.8956494e+00   7.7415788e+00   7.1315783e+00   1.0942271e+01   7.7830905e+00   6.2096025e+00   3.9951520e+01   1.4141786e+01   7.3556124e+00   6.5559252e+00   5.3370031e+00   1.5400562e+01   2.8311091e+00   8.7044656e+00   3.6501236e+00   0.0000000e+00   0.0000000e+00   0.0000000e+00   0.0000000e+00
   2.1186216e+01   8.7325484e+00   7.4972373e+00   6.0699504e+01   1.0298706e+01   9.4720166e+00   8.6854874e+00   7.5312262e+00   1.0107357e+01   8.0939368e+00   6.3274553e+00   3.8902942e+01   1.4109217e+01   7.9103220e+00   7.3072974e+00   5.5576933e+00   1.4816877e+01   2.9579938e+00   9.3919424e+00   3.9561568e+00   0.0000000e+00   0.0000000e+00   0.0000000e+00   0.0000000e+00
   2.0414496e+01   9.0070797e+00   7.6457980e+00   5.9654891e+01   9.6064344e+00   9.8638829e+00   9.3775935e+00   7.7614285e+00   9.6914942e+00   8.3527542e+00   6.3447399e+00   3.8218490e+01   1.4085960e+01   8.3564533e+00   7.8347022e+00   5.5763915e+00   1.4492208e+01   2.9361569e+00   9.9618166e+00   3.8852521e+00   0.0000000e+00   0.0000000e+00   0.0000000e+00   0.0000000e+00
   1.9413131e+01   9.0971127e+00   7.7957237e+00   5.8762741e+01   8.9243974e+00   9.9590042e+00   9.9757703e+00   7.8998693e+00   9.8680817e+00   8.5564059e+00   6.4675724e+00   3.7906937e+01   1.4200064e+01   8.8375283e+00   8.2549828e+00   5.5711891e+00   1.4450834e+01   2.8875469e+00   1.0586705e+01   3.8120364e+00   1.0000000e+03   0.0000000e+00   0.0000000e+00   0.0000000e+00
   1.8456498e+01   9.0264370e+00   7.9875053e+00   5.8005220e+01   8.4510097e+00   9.9667065e+00   1.0476603e+01   7.9457973e+00   1.0180313e+01   8.9030169e+00   6.7223419e+00   3.7588584e+01   1.4524285e+01   9.3773987e+00   8.5215149e+00   5.5516523e+00   1.4662603e+01   2.9246658e+00   1.1213755e+01   3.9372434e+00   1.0000000e+03   0.0000000e+00   0.0000000e+00   0.0000000e+00
   1.7498346e+01   8.7683666e+00   8.1164532e+00   5.7468297e+01   8.2980864e+00   9.9630107e+00   1.0630641e+01   7.8154098e+00   1.0349282e+01   9.3227883e+00   6.9272207e+00   3.7395825e+01   1.4799713e+01   9.7724225e+00   8.4767305e+00   5.4255983e+00   1.5065948e+01   2.9111677e+00   1.1550277e+01   4.1842323e+00   1.0000000e+03   0.0000000e+00   0.0000000e+00   0.0000000e+00
   1.6523135e+01   8.3440450e+00   8.0607328e+00   5.7230135e+01   8.3748786e+00   9.7709485e+00   1.0319762e+01   7.5142916e+00   1.0174875e+01   9.6126979e+00   7.0799272e+00   3.7481782e+01   1.4798806e+01   9.8324800e+00   8.1725715e+00   5.2630482e+00   1.5536026e+01   2.7108465e+00   1.1394293e+01   4.4641818e+00   1.0000000e+03   3.0000000e+01   0.0000000e+00   0.0000000e+00
   1.5723108e+01   7.9635443e+00   7.8230543e+00   5.7179471e+01   8.5711127e+00   9.4194456e+00   9.8289872e+00   7.2371350e+00   9.7751426e+00   9.8047265e+00   7.3524384e+00   3.7608292e+01   1.4679414e+01   9.8027599e+00   7.9609841e+00   5.2890599e+00   1.6078776e+01   2.4637069e+00   1.0967170e+01   4.8569794e+00   1.0000000e+03   3.0000000e+01   0.0000000e+00   0.0000000e+00
   1.5340439e+01   7.8240957e+00   7.4907012e+00   5.7096432e+01   8.8212236e+00   9.0699448e+00   9.3589920e+00   7.0931553e+00   9.5045638e+00   9.8917055e+00   7.6733939e+00   3.7675760e+01   1.4608227e+01   9.9854339e+00   7.9571228e+00   5.5032300e+00   1.6524094e+01   2.3505593e+00   1.0454607e+01   5.3063407e+00   0.0000000e+00   3.0000000e+01   0.0000000e+00   0.0000000e+00
   1.5362441e+01   8.0002263e+00   7.2107334e+00   5.6879591e+01   9.1148945e+00   8.8436712e+00   8.8339162e+00   7.0258947e+00   9.7244242e+00   9.7314216e+00   7.7174115e+00   3.7622997e+01   1.4514353e+01   1.0316184e+01   7.8575942e+00   5.6624712e+00   1.6740729e+01   2.2848697e+00   9.9158628e+00   5.6306798e+00   0.0000000e+00   3.0000000e+01   0.0000000e+00   0.0000000e+00
   1.5698839e+01   8.4101103e+00   7.1739438e+00   5.6408112e+01   9.3218714e+00   8.7546251e+00   8.3620842e+00   7.0174326e+00   1.0167559e+01   9.2834723e+00   7.3607451e+00   3.7157437e+01   1.4352218e+01   1.0412036e+01   7.3945554e+00   5.5818607e+00   1.6687498e+01   2.2124909e+00   9.3208119e+00   5.7275947e+00   0.0000000e+00   3.0000000e+01   0.0000000e+00   0.0000000e+00
   1.6201802e+01   8.9685969e+00   7.4925118e+00   5.5633995e+01   9.3691620e+00   8.8593902e+00   8.3045846e+00   7.1296463e+00   1.0029021e+01   8.6824294e+00   6.8186921e+00   3.6442443e+01   1.4296662e+01   1.0087987e+01   6.7099850e+00   5.3515872e+00   1.6524941e+01   2.3345796e+00   8.8782920e+00   5.6879554e+00   0.0000000e+00   3.0000000e+01   0.0000000e+00   0.0000000e+00
   1.6645814e+01   9.4125068e+00   7.9410909e+00   5.4791118e+01   9.4303507e+00   9.0967947e+00   8.6039209e+00   7.3018809e+00   9.2759677e+00   8.0399132e+00   6.2583769e+00   3.6000197e+01   1.4302352e+01   9.4817710e+00   6.0789012e+00   5.1219170e+00   1.6314792e+01   2.7698052e+00   8.7634271e+00   5.5955770e+00   0.0000000e+00   3.0000000e+01   0.0000000e+00   0.0000000e+00
   1.6906400e+01   9.5563839e+00   8.3252922e+00   5.4161279e+01   9.7248295e+00   9.3451909e+00   9.0606679e+00   7.4579365e+00   8.6291181e+00   7.6469900e+00   5.8334343e+00   3.6050263e+01   1.4339369e+01   9.0179820e+00   5.7059335e+00   4.9344808e+00   1.6238568e+01   3.4456708e+00   8.9923100e+00   5.5156400e+00   0.0000000e+00   3.0000000e+01   0.0000000e+00   0.0000000e+00
   1.7014033e+01   9.4409539e+00   8.6102040e+00   5.3736372e+01   1.0046762e+01   9.3554302e+00   9.5386870e+00   7.5173983e+00   8.5628488e+00   7.6205548e+00   5.6622025e+00   3.6512481e+01   1.4443523e+01   8.8953548e+00   5.6778387e+00   4.7931019e+00   1.6180738e+01   4.2054057e+00   9.4359864e+00   5.4642510e+00   0.0000000e+00   3.0000000e+01   0.0000000e+00   0.0000000e+00
   1.6876102e+01   9.1485466e+00   8.7662890e+00   5.3316480e+01   1.0121204e+01   9.1249579e+00   9.9703177e+00   7.4794298e+00   9.1059094e+00   7.8193654e+00   5.7651200e+00   3.6968057e+01   1.4668814e+01   9.0788031e+00   5.9733588e+00   4.7375590e+00   1.6064257e+01   4.8968355e+00   1.0044577e+01   5.5475970e+00   0.0000000e+00   3.0000000e+01   0.0000000e+00   0.0000000e+00
   1.6543610e+01   8.7399811e+00   8.6593459e+00   5.2731124e+01   9.9530876e+00   8.9013662e+00   1.0350485e+01   7.3317805e+00   9.4578547e+00   8.2251470e+00   6.0809739e+00   3.6765766e+01   1.5093333e+01   9.5167652e+00   6.4495030e+00   4.6957560e+00   1.5935694e+01   5.4678474e+00   1.0675171e+01   5.8110336e+00   0.0000000e+00   3.0000000e+01   0.0000000e+00   0.0000000e+00
   1.6144714e+01   8.2462876e+00   8.1865355e+00   5.2009349e+01   9.7660870e+00   8.7536591e+00   1.0534601e+01   6.9664714e+00   9.1908645e+00   8.4273510e+00   6.3335475e+00   3.6026342e+01   1.5525039e+01   9.9046906e+00   6.7240789e+00   4.4641300e+00   1.5779960e+01   5.7836458e+00   1.0951558e+01   6.0274827e+00   0.0000000e+00   3.0000000e+01   0.0000000e+00   0.0000000e+00
   1.5837071e+01   7.6941733e+00   7.4165866e+00   5.1318311e+01   9.6420539e+00   8.5261989e+00   1.0249046e+01   6.3119266e+00   8.7973529e+00   7.9838938e+00   6.1975489e+00   3.5411732e+01   1.5431814e+01   9.7151044e+00   6.4024385e+00   3.9248022e+00   1.5293802e+01   5.7168354e+00   1.0561428e+01   5.8657241e+00   0.0000000e+00   3.0000000e+01   0.0000000e+00   0.0000000e+00
   1.5808246e+01   7.3779593e+00   6.6349910e+00   5.0683654e+01   9.5050188e+00   8.2667853e+00   9.7695864e+00   5.6142860e+00   8.6747218e+00   7.1254511e+00   5.7485160e+00   3.4894300e+01   1.4716956e+01   9.0199822e+00   5.6515067e+00   3.2069559e+00   1.4532430e+01   5.4666334e+00   9.7944196e+00   5.3945169e+00   0.0000000e+00   3.0000000e+01   0.0000000e+00   0.0000000e+00
   1.6148205e+01   7.5038909e+00   6.0279358e+00   4.9959165e+01   9.2294468e+00   8.0341686e+00   9.5390848e+00   5.1632482e+00   8.8571136e+00   6.3600195e+00   5.2908791e+00   3.4443320e+01   1.3899801e+01   8.3272080e+00   4.9299754e+00   2.5848584e+00   1.3691124e+01   5.3988499e+00   9.0625701e+00   4.9012199e+00   0.0000000e+00   3.0000000e+01   0.0000000e+00   0.0000000e+00
   1.6668740e+01   7.9691195e+00   5.6204585e+00   4.9232492e+01   8.9850543e+00   7.9260232e+00   9.7588215e+00   5.0483014e+00   9.2441447e+00   5.9459415e+00   5.0529997e+00   3.4287789e+01   1.3561743e+01   8.1046666e+00   4.5614340e+00   2.3170711e+00   1.3097601e+01   5.6558619e+00   8.6880184e+00   4.6404967e+00   0.0000000e+00   3.0000000e+01   0.0000000e+00   0.0000000e+00
   1.7278061e+01   8.5238945e+00   5.3863906e+00   4.8845386e+01   9.1312015e+00   8.0623344e+00   1.0344995e+01   5.2300350e+00   9.6648739e+00   5.8321092e+00   5.1522643e+00   3.4587632e+01   1.3854120e+01   8.4547177e+00   4.6973332e+00   2.4525675e+00   1.3007179e+01   6.1977661e+00   8.7899324e+00   4.7183417e+00   0.0000000e+00   3.0000000e+01   0.0000000e+00   0.0000000e+00
   1.7696548e+01   8.9883215e+00   5.3098648e+00   4.8765440e+01   9.6704842e+00   8.4420973e+00   1.1058379e+01   5.6375917e+00   1.0061516e+01   5.9049609e+00   5.5397086e+00   3.5273796e+01   1.4300020e+01   9.0511420e+00   5.2799218e+00   2.8466369e+00   1.3371053e+01   6.8445438e+00   9.3204964e+00   5.1481496e+00   0.0000000e+00   3.0000000e+01   0.0000000e+00   0.0000000e+00
   1.7737400e+01   9.2359343e+00   5.3954649e+00   4.8504901e+01   1.0139764e+01   8.8178369e+00   1.1731575e+01   6.2180327e+00   1.0531338e+01   6.0255369e+00   6.1405495e+00   3.5786387e+01   1.4353819e+01   9.3809936e+00   6.0606651e+00   3.2843340e+00   1.3668917e+01   7.3918425e+00   1.0030776e+01   5.8456829e+00   0.0000000e+00   3.0000000e+01   0.0000000e+00   0.0000000e+00
   1.7292270e+01   9.2131702e+00   5.6052161e+00   4.7758865e+01   1.0129470e+01   8.8756052e+00   1.2234893e+01   6.8978923e+00   1.0867241e+01   6.1234298e+00   6.7823594e+00   3.5632602e+01   1.4017310e+01   9.1079457e+00   6.7382387e+00   3.6273073e+00   1.3486219e+01   7.5692461e+00   1.0644611e+01   6.6721120e+00   0.0000000e+00   3.0000000e+01   0.0000000e+00   0.0000000e+00
   1.6468060e+01   8.9212348e+00   5.8975787e+00   4.6755077e+01   9.6636898e+00   8.4684500e+00   1.2492442e+01   7.5372774e+00   1.0587713e+01   6.0616596e+00   7.2735413e+00   3.5100944e+01   1.3531197e+01   8.2549843e+00   7.1591052e+00   3.8567731e+00   1.2823328e+01   7.3236219e+00   1.0982317e+01   7.4530265e+00   0.0000000e+00   3.0000000e+01   0.0000000e+00   0.0000000e+00
   1.5648379e+01   8.5372957e+00   6.2975066e+00   4.6056244e+01   9.2390350e+00   7.9214633e+00   1.2743719e+01   8.0778892e+00   9.9224026e+00   5.8480030e+00   7.6235645e+00   3.4917477e+01   1.3093002e+01   7.3303491e+00   7.4236111e+00   4.0722161e+00   1.2310598e+01   7.0275852e+00   1.1156372e+01   8.1234287e+00   0.0000000e+00   3.0000000e+01   0.0000000e+00   0.0000000e+00
   1.5255816e+01   8.1922590e+00   6.6616704e+00   4.5778139e+01   9.1257535e+00   7.5500179e+00   1.3117459e+01   8.4955429e+00   9.5030298e+00   5.7132478e+00   7.9150459e+00   3.5121525e+01   1.2705162e+01   6.7029569e+00   7.5558553e+00   4.2957976e+00   1.2224051e+01   6.9703797e+00   1.1182497e+01   8.5591879e+00   0.0000000e+00   3.0000000e+01   0.0000000e+00   0.0000000e+00
   1.5013889e+01   7.7273983e+00   6.7326307e+00   4.5331354e+01   9.0636965e+00   7.2544922e+00   1.3188591e+01   8.6505899e+00   9.5735145e+00   5.6401352e+00   7.9452794e+00   3.4792620e+01   1.2197444e+01   6.2522820e+00   7.3418076e+00   4.3805463e+00   1.2173057e+01   6.8072785e+00   1.0846097e+01   8.5965640e+00   0.0000000e+00   3.0000000e+01   0.0000000e+00   0.0000000e+00
   1.4662689e+01   7.0903263e+00   6.5343138e+00   4.4183610e+01   8.6966385e+00   6.7923359e+00   1.2752147e+01   8.5198511e+00   9.8365407e+00   5.4015553e+00   7.6031814e+00   3.3445154e+01   1.1457091e+01   5.7116475e+00   6.6708518e+00   4.2143497e+00   1.1711820e+01   6.2449644e+00   9.9508169e+00   8.2434612e+00   0.0000000e+00   3.0000000e+01   0.0000000e+00   0.0000000e+00
   1.4325550e+01   6.6362103e+00   6.2581223e+00   4.2650689e+01   8.1655458e+00   6.2572123e+00   1.2115410e+01   8.3189132e+00   1.0017920e+01   4.8878038e+00   7.0662168e+00   3.1954867e+01   1.0695257e+01   5.0803060e+00   5.7800927e+00   3.9097671e+00   1.1073334e+01   5.5223567e+00   8.7549926e+00   7.7480503e+00   0.0000000e+00   3.0000000e+01   0.0000000e+00   0.0000000e+00
   1.4291953e+01   6.7386559e+00   5.9677968e+00   4.1339408e+01   7.9933982e+00   5.9334557e+00   1.1572801e+01   8.1834917e+00   9.8692660e+00   4.1324428e+00   6.5210195e+00   3.1082818e+01   1.0247683e+01   4.5577474e+00   4.9710385e+00   3.6469022e+00   1.0727308e+01   5.0390772e+00   7.6689603e+00   7.3035270e+00   0.0000000e+00   3.0000000e+01   0.0000000e+00   0.0000000e+00
   1.4517521e+01   7.3491826e+00   5.5917474e+00   4.0529751e+01   8.4507405e+00   6.0181366e+00   1.1034628e+01   8.0212916e+00   9.3978180e+00   3.3288981e+00   5.9914688e+00   3.0837990e+01   1.0279341e+01   4.4188282e+00   4.4248535e+00   3.5106001e+00   1.0997626e+01   4.8169391e+00   6.9584062e+00   6.9247905e+00   0.0000000e+00   3.0000000e+01   0.0000000e+00   0.0000000e+00
   1.5021949e+01   8.1443507e+00   5.1858919e+00   4.0127450e+01   9.2237156e+00   6.5205163e+00   1.0537327e+01   7.8695049e+00   9.0609170e+00   2.8274786e+00   5.6918567e+00   3.0966449e+01   1.0625939e+01   4.7614896e+00   4.2780725e+00   3.5405837e+00   1.1795612e+01   4.7948627e+00   6.7547161e+00   6.6386191e+00   0.0000000e+00   3.0000000e+01   0.0000000e+00   0.0000000e+00
   1.5726578e+01   9.0021224e+00   4.9922015e+00   3.9809971e+01   9.8752429e+00   7.3234513e+00   1.0301262e+01   7.8448116e+00   9.2041619e+00   2.7394191e+00   5.7906052e+00   3.1268824e+01   1.1045537e+01   5.3423191e+00   4.5202370e+00   3.7296521e+00   1.2814564e+01   4.9911184e+00   7.0675424e+00   6.5528920e+00   0.0000000e+00   3.0000000e+01   0.0000000e+00   0.0000000e+00
   1.6303705e+01   9.7131999e+00   4.8944764e+00   3.9343373e+01   1.0120463e+01   7.9610443e+00   1.0111372e+01   7.8071260e+00   9.5958662e+00   2.8126893e+00   6.0858007e+00   3.1555156e+01   1.1416440e+01   5.7089867e+00   4.9282441e+00   3.9548469e+00   1.3516693e+01   5.2109021e+00   7.5746599e+00   6.6138487e+00   0.0000000e+00   3.0000000e+01   0.0000000e+00   0.0000000e+00
   1.6353340e+01   9.9710753e+00   4.4623479e+00   3.8812693e+01   9.9504913e+00   7.9558377e+00   9.5089771e+00   7.5053148e+00   9.9377284e+00   2.9421230e+00   6.2788705e+00   3.1715582e+01   1.1851855e+01   5.8361786e+00   5.3272023e+00   4.0884385e+00   1.3758831e+01   5.0488290e+00   8.0468632e+00   6.6895437e+00   0.0000000e+00   3.0000000e+01   0.0000000e+00   0.0000000e+00
   1.6007405e+01   9.6966158e+00   3.6462712e+00   3.8328619e+01   9.4226359e+00   7.1318287e+00   8.4503131e+00   6.9153269e+00   9.9282794e+00   3.2322916e+00   6.2983931e+00   3.1594996e+01   1.2293708e+01   5.8644775e+00   5.5737791e+00   4.0693611e+00   1.3645514e+01   4.3682151e+00   8.3930248e+00   6.6766435e+00   0.0000000e+00   3.0000000e+01   0.0000000e+00   0.0000000e+00
   1.5460673e+01   9.1031816e+00   2.7661992e+00   3.7849334e+01   8.6616136e+00   5.8704698e+00   7.2378187e+00   6.2574570e+00   9.6830341e+00   3.4044475e+00   6.0574385e+00   3.1106755e+01   1.2539966e+01   5.6794991e+00   5.4598237e+00   3.9390358e+00   1.3398395e+01   3.3642224e+00   8.5625746e+00   6.5617573e+00   0.0000000e+00   3.0000000e+01   0.0000000e+00   0.0000000e+00
   1.4903525e+01   8.4663720e+00   2.0900216e+00   3.7307758e+01   7.9302858e+00   4.7581035e+00   6.1597149e+00   5.7553873e+00   9.4575644e+00   3.1923146e+00   5.5185324e+00   3.0622483e+01   1.2530067e+01   5.0733662e+00   4.8111877e+00   3.7650387e+00   1.3159984e+01   2.3565566e+00   8.3522062e+00   6.3122109e+00   0.0000000e+00   3.0000000e+01   0.0000000e+00   0.0000000e+00
   1.4268612e+01   7.8955887e+00   1.6075667e+00   3.6773956e+01   7.5809472e+00   4.1026291e+00   5.1382028e+00   5.3236737e+00   9.2149327e+00   2.8633018e+00   4.7206343e+00   3.0458639e+01   1.2329660e+01   4.1612917e+00   3.6297170e+00   3.4927872e+00   1.3048667e+01   1.3929327e+00   7.5843820e+00   5.7897304e+00   0.0000000e+00   3.0000000e+01   0.0000000e+00   0.0000000e+00
   1.3776337e+01   7.5111829e+00   1.2644553e+00   3.6351935e+01   7.8038572e+00   3.9684113e+00   4.2020526e+00   4.8829694e+00   9.0107801e+00   2.8210060e+00   3.9196450e+00   3.0461674e+01   1.2239279e+01   3.3824024e+00   2.2772227e+00   3.0700994e+00   1.3177444e+01   5.7946319e-01   6.4470260e+00   5.0039684e+00   0.0000000e+00   3.0000000e+01   0.0000000e+00   0.0000000e+00
   1.3701659e+01   7.4558509e+00   1.1049838e+00   3.6114679e+01   8.5374392e+00   4.3856566e+00   3.5935959e+00   4.5464184e+00   8.9995300e+00   3.3268351e+00   3.3876325e+00   3.0257912e+01   1.2627738e+01   3.2681361e+00   1.3200448e+00   2.6381535e+00   1.3676074e+01   1.3598561e-01   5.5310772e+00   4.2638902e+00   0.0000000e+00   3.0000000e+01   0.0000000e+00   0.0000000e+00
   1.4141765e+01   7.7618407e+00   1.1362816e+00   3.6104742e+01   9.5176893e+00   5.2453684e+00   3.3729907e+00   4.4434173e+00   9.3359311e+00   4.1053645e+00   3.2048973e+00   3.0181883e+01   1.3483985e+01   3.9467880e+00   1.0711585e+00   2.4100605e+00   1.4423266e+01   2.0307767e-01   5.3235048e+00   3.8384893e+00   0.0000000e+00   3.0000000e+01   0.0000000e+00   0.0000000e+00
   1.4780265e+01   8.2197068e+00   1.2058511e+00   3.6195482e+01   1.0392775e+01   6.2460425e+00   3.2337366e+00   4.5337345e+00   9.9931699e+00   4.8142836e+00   3.2153527e+00   3.0632744e+01   1.4406052e+01   5.0332537e+00   1.4131670e+00   2.4005031e+00   1.5218401e+01   6.1363112e-01   5.8654464e+00   3.7115168e+00   0.0000000e+00   3.0000000e+01   0.0000000e+00   0.0000000e+00
   1.5284642e+01   8.4183110e+00   1.1888387e+00   3.6152962e+01   1.0808535e+01   6.9923810e+00   2.7729087e+00   4.6285602e+00   1.0604745e+01   5.2043683e+00   3.2580871e+00   3.0895350e+01   1.4988359e+01   5.9576177e+00   1.9733562e+00   2.4864260e+00   1.5748525e+01   1.0500850e+00   6.7429394e+00   3.6789047e+00   0.0000000e+00   3.0000000e+01   0.0000000e+00   0.0000000e+00
   1.5362989e+01   8.2147209e+00   1.0980388e+00   3.5805902e+01   1.0598206e+01   7.2474770e+00   1.9455832e+00   4.6356862e+00   1.0766794e+01   5.0109492e+00   3.2930692e+00   3.0525615e+01   1.5023761e+01   6.3748486e+00   2.4417818e+00   2.6540714e+00   1.5813360e+01   1.3341916e+00   7.6007019e+00   3.7014753e+00   0.0000000e+00   3.0000000e+01   0.0000000e+00   0.0000000e+00
   1.5002694e+01   7.7905104e+00   9.8996357e-01   3.5035857e+01   9.8472006e+00   7.0067686e+00   1.0588190e+00   4.6213264e+00   1.0574630e+01   4.4656984e+00   3.3556003e+00   2.9931867e+01   1.4513586e+01   6.3194645e+00   2.7376307e+00   2.9336291e+00   1.5241769e+01   1.5261825e+00   8.2826310e+00   3.8576763e+00   0.0000000e+00   3.0000000e+01   0.0000000e+00   0.0000000e+00
   1.4225841e+01   7.3570827e+00   8.9314655e-01   3.3952932e+01   8.9282828e+00   6.5371330e+00   2.9648522e-01   4.6393874e+00   1.0223307e+01   4.0566566e+00   3.3712869e+00   2.9400049e+01   1.3877013e+01   6.0482576e+00   2.9120086e+00   3.3230728e+00   1.4256622e+01   1.6203357e+00   8.7718547e+00   4.1899915e+00   0.0000000e+00   3.0000000e+01   0.0000000e+00   0.0000000e+00
   1.3401024e+01   7.0846608e+00   9.4340073e-01   3.2800494e+01   8.1920407e+00   6.0992858e+00  -5.4795616e-02   4.7996604e+00   9.7772010e+00   3.8303080e+00   3.4197706e+00   2.8941242e+01   1.3420821e+01   5.7232260e+00   3.0169571e+00   3.8073849e+00   1.3374956e+01   1.6852447e+00   9.0838749e+00   4.6505713e+00   0.0000000e+00   3.0000000e+01   0.0000000e+00   0.0000000e+00
   1.2862540e+01   7.1221579e+00   1.3396265e+00   3.1745657e+01   7.6826868e+00   5.9588036e+00   2.4669920e-01   5.1567777e+00   9.3663695e+00   3.6801070e+00   3.6261528e+00   2.8506864e+01   1.2966738e+01   5.3860690e+00   3.0664430e+00   4.2957969e+00   1.2850354e+01   1.8145325e+00   9.3491812e+00   5.1278671e+00   0.0000000e+00   3.0000000e+01   0.0000000e+00   0.0000000e+00
   1.2710556e+01   7.4673772e+00   2.0389909e+00   3.0860980e+01   7.1929147e+00   6.2200611e+00   1.0049495e+00   5.5435776e+00   9.0058825e+00   3.4487046e+00   4.0102525e+00   2.7844320e+01   1.2437100e+01   5.0912081e+00   3.1345990e+00   4.6528048e+00   1.2454579e+01   2.0280081e+00   9.6887434e+00   5.4626410e+00   0.0000000e+00   3.0000000e+01   0.0000000e+00   0.0000000e+00
   1.2739928e+01   7.9283420e+00   2.7028644e+00   3.0267390e+01   6.8341733e+00   6.7987118e+00   1.7058675e+00   5.7305688e+00   8.8464028e+00   3.0036011e+00   4.5216491e+00   2.6983758e+01   1.2217678e+01   5.0977080e+00   3.4169784e+00   4.8929283e+00   1.2168406e+01   2.2820536e+00   1.0206150e+01   5.6115141e+00   0.0000000e+00   3.0000000e+01   0.0000000e+00   0.0000000e+00
   1.2932305e+01   8.3149440e+00   3.0230808e+00   3.0122157e+01   7.0333882e+00   7.5150431e+00   2.0630703e+00   5.6652449e+00   9.1085195e+00   2.4759342e+00   5.1238285e+00   2.6588919e+01   1.2636416e+01   5.5607028e+00   4.0272869e+00   5.1085947e+00   1.2207053e+01   2.6765082e+00   1.0811142e+01   5.6076997e+00   0.0000000e+00   3.0000000e+01   0.0000000e+00   0.0000000e+00
   1.3278437e+01   8.5293014e+00   2.8990455e+00   3.0371381e+01   7.8988837e+00   8.1924778e+00   2.1562010e+00   5.4165158e+00   9.7069596e+00   1.9311358e+00   5.6237342e+00   2.7025717e+01   1.3513481e+01   6.3583400e+00   4.8322178e+00   5.2912545e+00   1.2712034e+01   3.2865906e+00   1.1374269e+01   5.4704159e+00   0.0000000e+00   3.0000000e+01   0.0000000e+00   0.0000000e+00
   1.3676328e+01   8.4889195e+00   2.4517690e+00   3.0653654e+01   8.9886566e+00   8.6534175e+00   2.0112995e+00   5.0775398e+00   1.0275430e+01   1.4500138e+00   5.9231481e+00   2.7751731e+01   1.4397450e+01   7.2150413e+00   5.6341096e+00   5.3972858e+00   1.3410516e+01   4.0616175e+00   1.1857777e+01   5.2544183e+00   0.0000000e+00   3.0000000e+01   0.0000000e+00   0.0000000e+00
   1.3673778e+01   8.1737355e+00   1.9095351e+00   3.0663835e+01   9.7763766e+00   8.8497257e+00   1.4905265e+00   4.7534476e+00   1.0728035e+01   1.2471718e+00   6.0150941e+00   2.8164227e+01   1.5075703e+01   7.9622273e+00   6.3329013e+00   5.4745449e+00   1.3980730e+01   4.7524906e+00   1.2387038e+01   5.1342051e+00   0.0000000e+00   3.0000000e+01   0.0000000e+00   0.0000000e+00
   1.3190183e+01   7.7162855e+00   1.5016391e+00   3.0357048e+01   9.8898266e+00   8.7938955e+00   8.8600940e-01   4.6214980e+00   1.0924959e+01   1.4721857e+00   6.0693169e+00   2.8092416e+01   1.5578638e+01   8.5283701e+00   6.9361343e+00   5.6326009e+00   1.4179257e+01   5.2445399e+00   1.3024677e+01   5.2685002e+00   0.0000000e+00   3.0000000e+01   0.0000000e+00   0.0000000e+00
   1.2493777e+01   7.2738190e+00   1.4162301e+00   2.9873989e+01   9.3310694e+00   8.6333035e+00   6.3819845e-01   4.7367794e+00   1.0829471e+01   1.9766817e+00   6.2433018e+00   2.7625831e+01   1.6020506e+01   8.9315832e+00   7.4958170e+00   5.9411652e+00   1.4066199e+01   5.6351030e+00   1.3726948e+01   5.6854779e+00   0.0000000e+00   3.0000000e+01   0.0000000e+00   0.0000000e+00
   1.1872088e+01   6.9124911e+00   1.6641553e+00   2.9328545e+01   8.3608575e+00   8.4223303e+00   7.9073914e-01   4.9724162e+00   1.0560273e+01   2.3953399e+00   6.5213984e+00   2.6968075e+01   1.6299762e+01   9.1134296e+00   7.9949482e+00   6.3405205e+00   1.3590794e+01   6.0010432e+00   1.4311182e+01   6.2427512e+00   0.0000000e+00   3.0000000e+01   0.0000000e+00   0.0000000e+00
   1.1199446e+01   6.6915702e+00   2.0329045e+00   2.8791055e+01   7.4218727e+00   8.1863172e+00   9.1432016e-01   5.0758819e+00   1.0330311e+01   2.3471190e+00   6.6468091e+00   2.6329898e+01   1.6137699e+01   8.9941299e+00   8.3465509e+00   6.6951578e+00   1.2790583e+01   6.1571093e+00   1.4616275e+01   6.7403616e+00   0.0000000e+00   3.0000000e+01   0.0000000e+00   0.0000000e+00
   1.0748955e+01   6.7806034e+00   2.5323572e+00   2.8180635e+01   6.8963875e+00   8.1332405e+00   1.0692293e+00   5.0670544e+00   1.0332557e+01   1.8962125e+00   6.6233281e+00   2.5438964e+01   1.5487310e+01   8.6337975e+00   8.5598901e+00   6.9067768e+00   1.2009537e+01   6.1526620e+00   1.4656447e+01   7.0355064e+00   0.0000000e+00   3.0000000e+01   0.0000000e+00   0.0000000e+00
   1.0673065e+01   7.1873990e+00   3.1956750e+00   2.7332079e+01   6.7269017e+00   8.3991095e+00   1.4604031e+00   5.0671649e+00   1.0314987e+01   1.5650949e+00   6.5371164e+00   2.4014756e+01   1.4520810e+01   8.0823612e+00   8.5955621e+00   6.9674792e+00   1.1425543e+01   6.1610759e+00   1.4486169e+01   7.0305183e+00   0.0000000e+00   3.0000000e+01   0.0000000e+00   0.0000000e+00
   1.0885808e+01   7.6927210e+00   3.8939870e+00   2.6317063e+01   6.5590525e+00   8.7897288e+00   2.0492363e+00   5.0263685e+00   9.9816375e+00   1.5016842e+00   6.4377226e+00   2.2365529e+01   1.3506948e+01   7.2955344e+00   8.3012179e+00   6.8843105e+00   1.0810342e+01   6.2862846e+00   1.4006832e+01   6.6192237e+00   0.0000000e+00   3.0000000e+01   0.0000000e+00   0.0000000e+00
   1.1169864e+01   8.0980474e+00   4.4528807e+00   2.5553327e+01   6.4021358e+00   9.1512234e+00   2.4628496e+00   4.7401824e+00   9.5650163e+00   1.5314142e+00   6.1894270e+00   2.0947408e+01   1.2577081e+01   6.3534034e+00   7.6426229e+00   6.6121096e+00   1.0032347e+01   6.3630862e+00   1.3279655e+01   5.7554249e+00   0.0000000e+00   3.0000000e+01   0.0000000e+00   0.0000000e+00
   1.1747025e+01   8.4574860e+00   4.8349408e+00   2.5273055e+01   6.6463573e+00   9.6261507e+00   2.6475539e+00   4.2282822e+00   9.4627728e+00   1.6556230e+00   5.9150030e+00   1.9971528e+01   1.1790412e+01   5.6341710e+00   6.9436860e+00   6.1956635e+00   9.3584064e+00   6.4368140e+00   1.2640692e+01   4.6124925e+00   0.0000000e+00   3.0000000e+01   0.0000000e+00   0.0000000e+00
   1.2596049e+01   8.7656973e+00   4.8997950e+00   2.5289550e+01   7.4668713e+00   1.0309226e+01   2.5972179e+00   3.5738924e+00   9.7195758e+00   2.0232634e+00   5.7709457e+00   1.9416881e+01   1.1388988e+01   5.5230008e+00   6.5851687e+00   5.7028579e+00   9.1333971e+00   6.6742421e+00   1.2381256e+01   3.4730722e+00   0.0000000e+00   3.0000000e+01   0.0000000e+00   0.0000000e+00
   1.3360856e+01   8.7189508e+00   4.4958479e+00   2.5234723e+01   8.4570783e+00   1.0785636e+01   2.2113941e+00   2.8665845e+00   1.0122757e+01   2.5520884e+00   5.8211169e+00   1.9012784e+01   1.1625823e+01   6.0575372e+00   6.7422927e+00   5.2257856e+00   9.3130934e+00   7.0763357e+00   1.2539446e+01   2.5856709e+00   0.0000000e+00   3.0000000e+01   0.0000000e+00   0.0000000e+00
   1.3513571e+01   8.1178079e+00   3.8741600e+00   2.4849925e+01   9.0523301e+00   1.0669193e+01   1.6521824e+00   2.2660879e+00   1.0731399e+01   3.1844971e+00   5.9933167e+00   1.8617520e+01   1.2276465e+01   7.0634078e+00   7.3895477e+00   4.9493393e+00   9.7213221e+00   7.4503905e+00   1.3090700e+01   2.1725711e+00   0.0000000e+00   3.0000000e+01   0.0000000e+00   0.0000000e+00
   1.3118117e+01   7.2721775e+00   3.6291781e+00   2.3912380e+01   8.9236512e+00   1.0086139e+01   1.5532511e+00   2.0811127e+00   1.1418665e+01   3.7617832e+00   6.2804066e+00   1.8093671e+01   1.2720118e+01   8.2163854e+00   8.3700391e+00   5.0405429e+00   1.0017300e+01   7.7455286e+00   1.3898990e+01   2.3789609e+00   0.0000000e+00   3.0000000e+01   0.0000000e+00   0.0000000e+00
   1.2350860e+01   6.5744562e+00   3.9541499e+00   2.2316918e+01   8.0564115e+00   9.3420162e+00   2.1879676e+00   2.3874614e+00   1.1654331e+01   4.0275543e+00   6.5325208e+00   1.7245648e+01   1.2553343e+01   9.0317889e+00   9.2870631e+00   5.3687557e+00   9.8392360e+00   7.8945970e+00   1.4533644e+01   2.9590359e+00   0.0000000e+00   3.0000000e+01   0.0000000e+00   0.0000000e+00
   1.1290220e+01   6.0793849e+00   4.5653490e+00   2.0265816e+01   6.5949691e+00   8.5151826e+00   3.0539084e+00   2.9194961e+00   1.1051645e+01   3.8252573e+00   6.5430961e+00   1.5856287e+01   1.1685885e+01   9.0105925e+00   9.5533395e+00   5.5431451e+00   8.9115330e+00   7.7124364e+00   1.4358846e+01   3.3048366e+00   0.0000000e+00   3.0000000e+01   0.0000000e+00   0.0000000e+00
   9.8865741e+00   5.7033098e+00   5.1615341e+00   1.8159647e+01   4.9014937e+00   7.6659768e+00   3.4908971e+00   3.3703070e+00   9.8511181e+00   3.0656864e+00   6.1170268e+00   1.3901569e+01   1.0378398e+01   8.0157272e+00   8.7956301e+00   5.3705276e+00   7.3663196e+00   6.9798404e+00   1.3134812e+01   3.0084815e+00   0.0000000e+00   3.0000000e+01   0.0000000e+00   0.0000000e+00
   8.6192785e+00   5.5270299e+00   5.7791001e+00   1.6326743e+01   3.4639169e+00   6.9406486e+00   3.6350393e+00   3.7567932e+00   8.7771061e+00   1.8839890e+00   5.4222054e+00   1.1873979e+01   9.0777529e+00   6.4373152e+00   7.3044344e+00   4.9915161e+00   5.6424328e+00   5.9455832e+00   1.1210295e+01   2.1984249e+00   0.0000000e+00   3.0000000e+01   0.0000000e+00   0.0000000e+00
   7.9216120e+00   5.5780700e+00   6.4109472e+00   1.4993098e+01   2.7320600e+00   6.5416436e+00   3.8514199e+00   4.1323325e+00   8.0849750e+00   7.7176081e-01   4.7533572e+00   1.0404803e+01   8.0984465e+00   4.9952328e+00   5.7710499e+00   4.5891406e+00   4.2756512e+00   5.0553690e+00   9.2483625e+00   1.2422824e+00   0.0000000e+00   3.0000000e+01   0.0000000e+00   0.0000000e+00
   7.9812725e+00   5.7835281e+00   6.8868073e+00   1.4164047e+01   2.7645362e+00   6.5097586e+00   4.2704245e+00   4.4640242e+00   7.4325380e+00   3.6339415e-02   4.3639506e+00   9.4333971e+00   7.4610298e+00   4.0912079e+00   4.7171881e+00   4.2516375e+00   3.4676160e+00   4.6172705e+00   7.7663895e+00   4.0781017e-01   0.0000000e+00   3.0000000e+01   0.0000000e+00   0.0000000e+00
   8.1541326e+00   5.9058775e+00   6.9901361e+00   1.3580058e+01   3.0468019e+00   6.6290062e+00   4.5476556e+00   4.5793328e+00   6.5781146e+00  -4.3866455e-01   4.0425911e+00   8.4007154e+00   6.9076584e+00   3.5865807e+00   4.1954427e+00   3.9679321e+00   2.8935603e+00   4.4354079e+00   6.8882672e+00  -2.0367390e-01   0.0000000e+00   3.0000000e+01   0.0000000e+00   0.0000000e+00
   8.1082274e+00   5.8581305e+00   6.7691966e+00   1.3095921e+01   3.1390888e+00   6.7080889e+00   4.6930083e+00   4.5703795e+00   5.8882832e+00  -8.6519425e-01   3.7584112e+00   7.2317637e+00   6.2997916e+00   3.3137164e+00   4.1503423e+00   3.8005738e+00   2.2452976e+00   4.4170846e+00   6.5485249e+00  -4.3465213e-01   0.0000000e+00   3.0000000e+01   0.0000000e+00   0.0000000e+00
   7.9952302e+00   5.7453412e+00   6.4351165e+00   1.2873293e+01   3.2699428e+00   6.8346931e+00   4.9016112e+00   4.6497103e+00   5.6981223e+00  -1.1257847e+00   3.6008413e+00   6.4837986e+00   5.8167162e+00   3.3841847e+00   4.5683677e+00   3.8381320e+00   1.6816520e+00   4.6574215e+00   6.7873125e+00  -1.0474299e-01   0.0000000e+00   3.0000000e+01   0.0000000e+00   0.0000000e+00
   8.2230092e+00   5.7443092e+00   6.2716110e+00   1.3085044e+01   3.9815819e+00   7.2935719e+00   5.3972599e+00   5.0091929e+00   6.0001604e+00  -1.1150642e+00   3.6894279e+00   6.4753363e+00   5.8888948e+00   4.0800086e+00   5.4779016e+00   4.1393184e+00   1.7214160e+00   5.3298983e+00   7.7208421e+00   8.3578039e-01   0.0000000e+00   3.0000000e+01   0.0000000e+00   0.0000000e+00
   8.6325296e+00   5.8957041e+00   6.4088020e+00   1.3589997e+01   5.1994817e+00   8.1244461e+00   6.1189218e+00   5.6399842e+00   6.5325317e+00  -1.1696361e+00   3.9099075e+00   6.9367781e+00   6.4652754e+00   5.2461810e+00   6.6791711e+00   4.6869579e+00   2.4535876e+00   6.2226869e+00   9.1399729e+00   2.1898611e+00   0.0000000e+00   3.0000000e+01   0.0000000e+00   0.0000000e+00
   8.8649728e+00   6.0731209e+00   6.8078073e+00   1.3893066e+01   6.1140102e+00   8.8506494e+00   7.0402191e+00   6.3635849e+00   6.8877861e+00  -1.4150538e+00   4.1252092e+00   7.3207344e+00   6.9938111e+00   6.2777444e+00   7.7459480e+00   5.2938057e+00   3.1991359e+00   6.9469025e+00   1.0400941e+01   3.5795946e+00   0.0000000e+00   3.0000000e+01   0.0000000e+00   0.0000000e+00
   8.6567105e+00   5.9818540e+00   7.3196895e+00   1.3650568e+01   6.1151197e+00   8.9348700e+00   8.0244850e+00   6.9754065e+00   6.8032793e+00  -1.8308283e+00   4.2084213e+00   7.1900155e+00   7.1229793e+00   6.6442386e+00   8.2903586e+00   5.7089030e+00   3.4137026e+00   7.2044443e+00   1.0903490e+01   4.6291131e+00   0.0000000e+00   3.0000000e+01   0.0000000e+00   0.0000000e+00
   8.1913705e+00   5.5424490e+00   7.9002520e+00   1.2877523e+01   5.3053354e+00   8.2447548e+00   8.8707500e+00   7.4179921e+00   6.3087550e+00  -2.3382841e+00   4.1306380e+00   6.5243420e+00   6.8049315e+00   6.0770725e+00   8.1452620e+00   5.8047179e+00   2.9587651e+00   6.9826310e+00   1.0404984e+01   5.1626014e+00   0.0000000e+00   3.0000000e+01   0.0000000e+00   0.0000000e+00
   7.5544151e+00   5.0313550e+00   8.3628254e+00   1.1842868e+01   4.3092880e+00   7.1655562e+00   9.3236420e+00   7.5578975e+00   5.7767983e+00  -2.9485061e+00   3.8011536e+00   5.8616585e+00   6.2334450e+00   4.7456155e+00   7.3484775e+00   5.5669525e+00   2.1296428e+00   6.3508030e+00   9.0784285e+00   5.1906633e+00   0.0000000e+00   3.0000000e+01   0.0000000e+00   0.0000000e+00
   7.1125282e+00   4.7693744e+00   8.5098381e+00   1.0853417e+01   3.6094889e+00   6.2251729e+00   9.4866513e+00   7.4218307e+00   5.7249091e+00  -3.5079800e+00   3.4292381e+00   5.6737238e+00   5.8590248e+00   3.2998785e+00   6.2967412e+00   5.1133995e+00   1.4709116e+00   5.6549629e+00   7.4213469e+00   4.8758463e+00   0.0000000e+00   3.0000000e+01   0.0000000e+00   0.0000000e+00
   6.8919156e+00   4.7768454e+00   8.2524990e+00   1.0144239e+01   3.2140056e+00   5.7009057e+00   9.4214202e+00   7.0866465e+00   6.1800235e+00  -3.7233517e+00   3.1763861e+00   6.0611300e+00   6.0148291e+00   2.4774928e+00   5.5809889e+00   4.6671426e+00   1.3381382e+00   5.2278867e+00   6.1353216e+00   4.4143193e+00   0.0000000e+00   3.0000000e+01   5.0000000e+01   0.0000000e+00
   6.8152912e+00   4.8880748e+00   7.7623628e+00   9.6727388e+00   2.8973209e+00   5.6162220e+00   9.3107033e+00   6.7425918e+00   6.7068450e+00  -3.5191159e+00   3.1769191e+00   6.6227685e+00   6.5914240e+00   2.5645063e+00   5.5819117e+00   4.4410636e+00   1.5737481e+00   5.2665400e+00   5.7395564e+00   4.0334715e+00   0.0000000e+00   3.0000000e+01   5.0000000e+01   0.0000000e+00
   6.7594302e+00   4.9657407e+00   7.3262224e+00   9.2920444e+00   2.7197496e+00   5.9713327e+00   9.2538174e+00   6.4933073e+00   7.0697064e+00  -3.0394635e+00   3.3825839e+00   6.8985772e+00   7.2905302e+00   3.3767372e+00   6.2143742e+00   4.4379207e+00   1.9352185e+00   5.6865887e+00   6.3162901e+00   3.8882847e+00   0.0000000e+00   3.0000000e+01   5.0000000e+01   0.0000000e+00
   6.9221136e+00   4.9949546e+00   7.1472518e+00   9.0347680e+00   2.9406019e+00   6.7009422e+00   9.4065127e+00   6.3800829e+00   7.4749829e+00  -2.2910790e+00   3.7522493e+00   6.9521118e+00   8.0433063e+00   4.5852582e+00   7.1609803e+00   4.5249981e+00   2.4485369e+00   6.4665024e+00   7.5252112e+00   3.9801097e+00   0.0000000e+00   3.0000000e+01   5.0000000e+01   0.0000000e+00
   7.0826644e+00   4.8683724e+00   7.1943617e+00   8.8885072e+00   3.4744177e+00   7.4972757e+00   9.6116180e+00   6.3131923e+00   8.0455602e+00  -1.4444939e+00   3.9696451e+00   7.0400022e+00   8.7978902e+00   5.8227013e+00   7.9956292e+00   4.5390131e+00   3.0588555e+00   7.3926573e+00   8.7745605e+00   4.1559128e+00   0.0000000e+00   3.0000000e+01   5.0000000e+01   0.0000000e+00
   6.9728227e+00   4.4733318e+00   7.4270603e+00   8.5198730e+00   3.7766257e+00   7.7894415e+00   9.7415017e+00   6.2550364e+00   8.5125249e+00  -7.2332051e-01   3.8667640e+00   6.9372849e+00   9.2468062e+00   6.5633377e+00   8.3230429e+00   4.4590470e+00   3.3102834e+00   8.1589368e+00   9.4526550e+00   4.2861257e+00   0.0000000e+00   3.0000000e+01   5.0000000e+01   0.0000000e+00
   6.2941689e+00   3.7222950e+00   7.6502504e+00   7.6995910e+00   3.3860615e+00   7.1701150e+00   9.4716051e+00   6.1275561e+00   8.5591415e+00  -3.5866213e-01   3.3878644e+00   6.3874658e+00   8.9247188e+00   6.2716902e+00   7.9199742e+00   4.4473502e+00   2.6531593e+00   8.3114373e+00   9.1925758e+00   4.3340286e+00   0.0000000e+00   3.0000000e+01   5.0000000e+01   0.0000000e+00
   5.2382227e+00   2.7539177e+00   7.7437331e+00   6.5662228e+00   2.2793140e+00   5.7361082e+00   8.8607529e+00   6.0287841e+00   8.1341950e+00  -4.4442022e-01   2.8399439e+00   5.4436161e+00   7.8249822e+00   5.0411587e+00   7.0905546e+00   4.6439778e+00   1.0422892e+00   7.7356044e+00   8.1595612e+00   4.4149274e+00   0.0000000e+00   3.0000000e+01   5.0000000e+01   0.0000000e+00
   3.9778558e+00   1.7588869e+00   7.6710131e+00   5.3380579e+00   7.5460221e-01   3.9144659e+00   8.1134661e+00   5.9718836e+00   7.3908583e+00  -8.8972140e-01   2.4670998e+00   4.3299341e+00   6.3009819e+00   3.4340484e+00   6.2380610e+00   4.9287181e+00  -1.0205223e+00   6.6464601e+00   6.7734579e+00   4.5349342e+00   0.0000000e+00   3.0000000e+01   5.0000000e+01   0.0000000e+00
   2.9365078e+00   9.8696423e-01   7.5710307e+00   4.1570794e+00  -7.2605449e-01   2.1941746e+00   7.6234572e+00   5.9954720e+00   6.6719650e+00  -1.4593622e+00   2.5028354e+00   3.1866880e+00   4.8259890e+00   1.9747523e+00   5.6149051e+00   5.1700373e+00  -2.9532070e+00   5.5738104e+00   5.4657015e+00   4.6454286e+00   0.0000000e+00   3.0000000e+01   5.0000000e+01   0.0000000e+00
   2.1961438e+00   5.7545349e-01   7.5196783e+00   3.1411617e+00  -1.7241382e+00   9.8672862e-01   7.3915618e+00   6.0559730e+00   6.0981169e+00  -1.9529179e+00   2.7557826e+00   2.0914538e+00   3.7776875e+00   9.6052602e-01   5.2778710e+00   5.3236251e+00  -4.3712042e+00   4.7600241e+00   4.4931334e+00   4.6836703e+00   0.0000000e+00   3.0000000e+01   5.0000000e+01   0.0000000e+00
   1.8536728e+00   5.7882555e-01   7.6582982e+00   2.3368734e+00  -2.1418421e+00   4.5882555e-01   7.3943920e+00   6.1317649e+00   5.5632268e+00  -2.4531349e+00   2.8737548e+00   1.1684794e+00   3.1434539e+00   4.3821798e-01   5.1064226e+00   5.3632799e+00  -5.1785190e+00   4.2216610e+00   3.8791110e+00   4.6329662e+00   0.0000000e+00   3.0000000e+01   5.0000000e+01   0.0000000e+00
   1.8380515e+00   8.5112448e-01   7.9526544e+00   1.8076245e+00  -2.2368670e+00   3.9680229e-01   7.5856412e+00   6.1638483e+00   5.2454942e+00  -2.7849803e+00   2.7076140e+00   5.0375564e-01   2.8532187e+00   3.5375967e-01   4.9886421e+00   5.3074744e+00  -5.4597396e+00   3.8636112e+00   3.6046732e+00   4.5545215e+00   0.0000000e+00   3.0000000e+01   5.0000000e+01   0.0000000e+00
   2.0884269e+00   1.0760678e+00   8.1471374e+00   1.6832687e+00  -2.2220556e+00   4.5296679e-01   7.8716268e+00   6.1192950e+00   5.3330022e+00  -2.7208299e+00   2.4634270e+00   3.1020795e-01   2.9739991e+00   6.3602236e-01   4.9123384e+00   5.1603421e+00  -5.3103067e+00   3.6352892e+00   3.5874995e+00   4.4473130e+00   0.0000000e+00   3.0000000e+01   5.0000000e+01   0.0000000e+00
   2.2921193e+00   1.0976504e+00   7.9952275e+00   2.0954742e+00  -1.9540690e+00   5.7945856e-01   7.9016190e+00   5.8600089e+00   5.5575617e+00  -2.2843797e+00   2.1164635e+00   7.3552219e-01   3.4327630e+00   1.2041261e+00   4.8019871e+00   4.8251885e+00  -4.7075828e+00   3.3453219e+00   3.7591716e+00   4.1880354e+00   0.0000000e+00   3.0000000e+01   5.0000000e+01   0.0000000e+00
   2.4858781e+00   1.1959390e+00   7.6445558e+00   2.9033994e+00  -1.2128609e+00   9.7004228e-01   7.7433082e+00   5.4435597e+00   5.7020092e+00  -1.7369559e+00   1.6922954e+00   1.3137565e+00   4.1104845e+00   1.9193724e+00   4.6288821e+00   4.3354987e+00  -3.6739963e+00   2.9905700e+00   4.0675826e+00   3.7928697e+00   0.0000000e+00   3.0000000e+01   5.0000000e+01   0.0000000e+00
   2.6657690e+00   1.5504605e+00   7.4019499e+00   3.7266188e+00  -1.2837553e-01   1.7194575e+00   7.6545119e+00   5.0346061e+00   5.7317520e+00  -1.4749020e+00   1.2398298e+00   1.7020928e+00   4.6983319e+00   2.4456476e+00   4.3815421e+00   3.8733197e+00  -2.5351568e+00   2.6321362e+00   4.3906353e+00   3.3836805e+00   0.0000000e+00   3.0000000e+01   5.0000000e+01   0.0000000e+00
   2.9962495e+00   2.0980688e+00   7.5614047e+00   4.2283540e+00   7.6206834e-01   2.5229536e+00   8.0309662e+00   4.8757627e+00   5.6635180e+00  -1.7445244e+00   9.9890527e-01   1.7410906e+00   4.8795926e+00   2.4885946e+00   4.1434961e+00   3.5786791e+00  -1.8238261e+00   2.3926630e+00   4.5518383e+00   3.0561554e+00   0.0000000e+00   3.0000000e+01   5.0000000e+01   0.0000000e+00
   3.2136464e+00   2.5319275e+00   7.9889747e+00   4.3719758e+00   1.0468591e+00   2.8156868e+00   8.5726799e+00   4.8795032e+00   5.5713369e+00  -2.5297150e+00   8.7877432e-01   1.3750494e+00   4.5788417e+00   1.9114407e+00   3.8301612e+00   3.3725255e+00  -1.8680047e+00   2.0744947e+00   4.2762650e+00   2.7070806e+00   0.0000000e+00   3.0000000e+01   5.0000000e+01   0.0000000e+00
   3.3349569e+00   2.6949914e+00   8.3426215e+00   4.3785640e+00   8.7605141e-01   2.3722828e+00   8.9611808e+00   4.8708649e+00   5.5958472e+00  -3.4910859e+00   8.4291977e-01   8.9807811e-01   3.9262452e+00   8.3176076e-01   3.2681677e+00   3.1036467e+00  -2.4163729e+00   1.6058627e+00   3.4018092e+00   2.1885663e+00   0.0000000e+00   3.0000000e+01   5.0000000e+01   0.0000000e+00
   3.6001383e+00   2.7330505e+00   8.3551207e+00   4.5808793e+00   7.6501409e-01   1.6233458e+00   9.0718572e+00   4.7139432e+00   5.8387149e+00  -4.0870591e+00   8.5819882e-01   6.3309063e-01   3.2267083e+00  -3.1008849e-01   2.4809266e+00   2.7433697e+00  -2.8750831e+00   1.1797110e+00   2.1408433e+00   1.4872616e+00   0.0000000e+00   3.0000000e+01   5.0000000e+01   0.0000000e+00
   4.3669975e+00   2.9044372e+00   8.0040676e+00   5.1608620e+00   1.1073816e+00   1.2482832e+00   9.0986829e+00   4.4667654e+00   6.2303996e+00  -3.9666594e+00   1.0316147e+00   6.3707479e-01   3.0119830e+00  -9.1825797e-01   1.8442280e+00   2.4609637e+00  -2.7530764e+00   1.1960158e+00   1.0482133e+00   8.4219320e-01   0.0000000e+00   3.0000000e+01   5.0000000e+01   0.0000000e+00
   5.4449720e+00   3.2529928e+00   7.3081693e+00   6.1363668e+00   2.0115882e+00   1.5808866e+00   9.0426829e+00   4.1448251e+00   7.0408335e+00  -3.3686835e+00   1.3253636e+00   1.1416586e+00   3.6507527e+00  -5.7197439e-01   1.6868356e+00   2.3525084e+00  -1.8221330e+00   1.7349902e+00   6.3043797e-01   4.4964754e-01   0.0000000e+00   3.0000000e+01   5.0000000e+01   0.0000000e+00
   6.6666172e+00   3.7149465e+00   6.3996456e+00   7.2855102e+00   3.3976857e+00   2.5278514e+00   9.0130911e+00   3.7664693e+00   8.6048740e+00  -2.6130095e+00   1.6747296e+00   2.3848762e+00   4.9374709e+00   6.4327051e-01   2.0574601e+00   2.3217289e+00  -1.7308084e-01   2.6640783e+00   9.4614691e-01   2.8374700e-01   0.0000000e+00   3.0000000e+01   5.0000000e+01   0.0000000e+00
   7.7544538e+00   4.1456249e+00   5.4027886e+00   8.3675747e+00   5.0633161e+00   3.6999477e+00   9.0059886e+00   3.2695008e+00   1.0338912e+01  -1.9490672e+00   1.8509010e+00   4.0475991e+00   6.4040573e+00   2.1756372e+00   2.6731951e+00   2.2257472e+00   1.8238364e+00   3.6629046e+00   1.5968490e+00   1.3965923e-01   0.0000000e+00   3.0000000e+01   5.0000000e+01   0.0000000e+00
   8.6939252e+00   4.4595761e+00   4.5717829e+00   9.3036699e+00   6.7010733e+00   4.6548292e+00   9.1083338e+00   2.7919121e+00   1.1487930e+01  -1.3733713e+00   1.9226094e+00   5.5737981e+00   7.9811978e+00   3.6915820e+00   3.3132192e+00   2.0546838e+00   3.8323427e+00   4.6249720e+00   2.2419918e+00  -7.6402725e-02   0.0000000e+00   3.0000000e+01   5.0000000e+01   0.0000000e+00
   9.2042040e+00   4.4772949e+00   3.9887684e+00   1.0132293e+01   8.1151570e+00   5.2607672e+00   9.1587156e+00   2.3692397e+00   1.1844309e+01  -6.6967421e-01   1.8681261e+00   6.7825292e+00   9.5167405e+00   5.1447197e+00   3.8796047e+00   1.8389752e+00   5.6326983e+00   5.3837400e+00   2.8277394e+00  -3.6494399e-01   0.0000000e+00   3.0000000e+01   5.0000000e+01   0.0000000e+00
   9.4300544e+00   4.3005295e+00   3.7492495e+00   1.0753567e+01   9.2615348e+00   5.7469230e+00   9.3567245e+00   2.0619766e+00   1.1721164e+01  -1.0913262e-02   1.7864845e+00   7.4845682e+00   1.0648141e+01   6.3656477e+00   4.2886071e+00   1.6224482e+00   7.0820885e+00   5.9339976e+00   3.3229079e+00  -6.4968874e-01   0.0000000e+00   3.0000000e+01   5.0000000e+01   0.0000000e+00
   9.4686781e+00   4.2225075e+00   3.9314775e+00   1.0968896e+01   1.0090027e+01   6.3201089e+00   9.8124077e+00   1.9148750e+00   1.1587795e+01   2.8356339e-01   1.6760038e+00   7.5320918e+00   1.1184065e+01   7.0708915e+00   4.4798209e+00   1.4859118e+00   7.9839042e+00   6.2861648e+00   3.5553037e+00  -8.5774344e-01   0.0000000e+00   3.0000000e+01   5.0000000e+01   0.0000000e+00
   9.4258679e+00   4.3048467e+00   4.5433776e+00   1.0581615e+01   1.0407704e+01   6.7663382e+00   1.0568918e+01   2.0672429e+00   1.1461088e+01   1.0670275e-01   1.6808087e+00   6.8740461e+00   1.0973439e+01   7.0993376e+00   4.6056373e+00   1.5794208e+00   8.0758409e+00   6.4760371e+00   3.4271008e+00  -8.7200959e-01   0.0000000e+00   3.0000000e+01   5.0000000e+01   0.0000000e+00
   8.9653145e+00   4.2831009e+00   5.2305874e+00   9.5062567e+00   9.9903707e+00   6.6914369e+00   1.1198971e+01   2.4650975e+00   1.1114939e+01  -4.1091035e-01   1.8480114e+00   5.6295922e+00   9.9766145e+00   6.5957193e+00   4.8475561e+00   1.9720638e+00   7.2935474e+00   6.3474518e+00   3.0470047e+00  -6.3273358e-01   0.0000000e+00   3.0000000e+01   5.0000000e+01   0.0000000e+00
   8.2435089e+00   4.0389137e+00   5.6855424e+00   8.0814691e+00   9.0960743e+00   6.1782161e+00   1.1646446e+01   3.0469444e+00   1.0565747e+01  -7.0557847e-01   2.4484033e+00   4.1962526e+00   8.7272011e+00   6.0920558e+00   5.3683711e+00   2.5701172e+00   6.1733679e+00   6.0865716e+00   2.6852224e+00  -1.8467920e-01   0.0000000e+00   3.0000000e+01   5.0000000e+01   0.0000000e+00
   7.6220556e+00   3.6813769e+00   5.7561915e+00   6.9252092e+00   8.3411750e+00   5.8245122e+00   1.1889205e+01   3.6133450e+00   1.0009593e+01  -5.4201151e-01   3.4609178e+00   2.9971190e+00   7.8433086e+00   6.0266650e+00   6.0795589e+00   3.1902126e+00   5.4547560e+00   6.0311374e+00   2.5219135e+00   2.5121169e-01   0.0000000e+00   3.0000000e+01   5.0000000e+01   0.0000000e+00
   7.4260704e+00   3.5140349e+00   5.5654661e+00   6.3537411e+00   8.0076892e+00   6.0006887e+00   1.1940842e+01   3.9975346e+00   9.4276816e+00  -1.5098117e-01   4.5914791e+00   2.1950511e+00   7.4425830e+00   6.3953428e+00   6.7285179e+00   3.7479585e+00   5.3555132e+00   6.3613708e+00   2.7042728e+00   5.4870499e-01   0.0000000e+00   3.0000000e+01   5.0000000e+01   0.0000000e+00
   7.3088554e+00   3.6357783e+00   5.2722174e+00   6.1307129e+00   7.9333476e+00   6.5818546e+00   1.1724360e+01   4.0581179e+00   8.8850122e+00   3.1808745e-01   5.4008263e+00   1.7813224e+00   7.3410756e+00   7.0001472e+00   7.1823875e+00   4.1357573e+00   5.6188396e+00   6.8182164e+00   3.3576902e+00   7.1900499e-01   0.0000000e+00   3.0000000e+01   5.0000000e+01   0.0000000e+00
   7.3084544e+00   4.0392552e+00   5.1438350e+00   5.9914360e+00   8.0861930e+00   7.4913696e+00   1.1700306e+01   4.0087166e+00   8.7253795e+00   8.1488022e-01   5.9931971e+00   1.7858068e+00   7.6172148e+00   7.8985266e+00   7.6893586e+00   4.3151818e+00   6.2059431e+00   7.4056932e+00   4.5692236e+00   9.2211043e-01   0.0000000e+00   3.0000000e+01   5.0000000e+01   0.0000000e+00
   7.5398588e+00   4.5466837e+00   5.2822622e+00   6.1068605e+00   8.7262136e+00   8.7250585e+00   1.1991757e+01   4.0557905e+00   8.8997548e+00   1.3192256e+00   6.4222145e+00   2.1932801e+00   8.2829375e+00   9.0513839e+00   8.3884867e+00   4.3642279e+00   7.2136898e+00   8.2011447e+00   6.1867028e+00   1.2513647e+00   0.0000000e+00   3.0000000e+01   5.0000000e+01   0.0000000e+00
   8.0393967e+00   4.9479193e+00   5.6189422e+00   6.4234352e+00   9.6624812e+00   9.9882879e+00   1.2473800e+01   4.3045049e+00   9.0172431e+00   1.7194281e+00   6.7042679e+00   2.5767206e+00   8.9281095e+00   1.0048151e+01   9.1038196e+00   4.3964851e+00   8.3764260e+00   9.1542618e+00   7.7371864e+00   1.6629583e+00   0.0000000e+00   3.0000000e+01   5.0000000e+01   0.0000000e+00
   8.3104470e+00   5.0417413e+00   6.0138748e+00   6.5506081e+00   1.0227432e+01   1.0847592e+01   1.2749336e+01   4.6346846e+00   8.7789446e+00   1.8656555e+00   6.6974038e+00   2.5688345e+00   9.0538595e+00   1.0428514e+01   9.4971393e+00   4.4439113e+00   9.0308466e+00   9.9107797e+00   8.6300204e+00   2.0267327e+00   0.0000000e+00   3.0000000e+01   5.0000000e+01   0.0000000e+00
   8.2328641e+00   4.9190448e+00   6.5418525e+00   6.2422553e+00   1.0117057e+01   1.1144318e+01   1.2837747e+01   5.0733970e+00   8.2362017e+00   1.7859710e+00   6.5241988e+00   2.0198601e+00   8.6376178e+00   1.0063341e+01   9.4995550e+00   4.5373345e+00   8.7715099e+00   1.0374498e+01   8.5910794e+00   2.3656954e+00   0.0000000e+00   0.0000000e+00   5.0000000e+01   0.0000000e+00
   7.9079381e+00   4.6715963e+00   7.0630790e+00   5.6410027e+00   9.6966416e+00   1.0940650e+01   1.2755082e+01   5.5707073e+00   7.5814693e+00   1.5530759e+00   6.3634070e+00   1.1563184e+00   7.9707588e+00   9.1911446e+00   9.2220086e+00   4.6528619e+00   7.8125429e+00   1.0635759e+01   7.7215619e+00   2.6807408e+00   0.0000000e+00   0.0000000e+00   5.0000000e+01   0.0000000e+00
   7.7612750e+00   4.2829279e+00   7.3126271e+00   5.0531243e+00   9.4210108e+00   1.0325979e+01   1.2570948e+01   6.0401140e+00   7.2855182e+00   1.3068679e+00   6.4524361e+00   4.3192981e-01   7.3183349e+00   8.2241007e+00   8.8184094e+00   4.7711162e+00   6.7765190e+00   1.0932301e+01   6.4538491e+00   2.9314228e+00   0.0000000e+00   0.0000000e+00   5.0000000e+01   0.0000000e+00
   7.6520026e+00   3.6948689e+00   7.0112525e+00   4.5950037e+00   9.1548229e+00   9.3476045e+00   1.2062036e+01   6.2263764e+00   7.4027993e+00   1.1951725e+00   6.6006328e+00  -5.0490997e-02   6.6023782e+00   7.3424333e+00   8.3635398e+00   4.8981998e+00   5.9204232e+00   1.1119416e+01   5.2583925e+00   2.9878239e+00   0.0000000e+00   0.0000000e+00   5.0000000e+01   0.0000000e+00
   7.5648453e+00   3.1119459e+00   6.3157280e+00   4.1399396e+00   8.5228927e+00   8.2350129e+00   1.1467969e+01   6.1239890e+00   7.6230083e+00   1.2163941e+00   6.7376842e+00  -5.8263670e-01   5.8030633e+00   6.7039072e+00   8.0431579e+00   5.0423925e+00   5.0904463e+00   1.1109035e+01   4.5100435e+00   2.8711399e+00   0.0000000e+00   0.0000000e+00   5.0000000e+01   0.0000000e+00
   7.4345194e+00   2.7305160e+00   5.4513010e+00   3.5278429e+00   7.5558798e+00   7.3290895e+00   1.0933749e+01   5.7903294e+00   7.9345561e+00   1.3725895e+00   6.7876879e+00  -1.2173880e+00   5.1055866e+00   6.4100069e+00   7.9008523e+00   5.1310307e+00   4.0974046e+00   1.0978588e+01   4.2338968e+00   2.6332111e+00   0.0000000e+00   0.0000000e+00   5.0000000e+01   0.0000000e+00
   7.2874779e+00   2.5667706e+00   4.5310027e+00   2.8587681e+00   6.5845443e+00   6.6447050e+00   1.0412065e+01   5.2996502e+00   8.3507078e+00   1.5598960e+00   6.7264109e+00  -1.7556444e+00   4.5783652e+00   6.2625094e+00   7.7025975e+00   5.0824783e+00   2.9799376e+00   1.0877709e+01   4.0286561e+00   2.2163761e+00   0.0000000e+00   0.0000000e+00   5.0000000e+01   0.0000000e+00
   6.7018857e+00   2.3380107e+00   3.4909928e+00   2.3541109e+00   5.8092254e+00   5.9650574e+00   9.5322268e+00   4.6047689e+00   8.5256158e+00   1.4688049e+00   6.2745087e+00  -2.0937089e+00   3.9895445e+00   5.8220817e+00   7.1467862e+00   4.8331098e+00   1.8888153e+00   1.0546193e+01   3.6210912e+00   1.5755350e+00   0.0000000e+00   0.0000000e+00   5.0000000e+01   0.0000000e+00
   5.7217811e+00   1.9998277e+00   2.5036577e+00   2.0262245e+00   5.2188497e+00   5.3421558e+00   8.6195597e+00   3.9623199e+00   8.3768779e+00   1.2195437e+00   5.6609118e+00  -2.2937484e+00   3.4090851e+00   5.0995109e+00   6.4792217e+00   4.5930624e+00   1.0702064e+00   1.0011342e+01   3.3039079e+00   1.0281010e+00   0.0000000e+00   0.0000000e+00   5.0000000e+01   0.0000000e+00
   4.4684669e+00   1.6396869e+00   1.7258457e+00   1.7007642e+00   4.5380494e+00   4.8713638e+00   7.9622787e+00   3.5868853e+00   8.1656410e+00   9.2237467e-01   5.2130270e+00  -2.4722251e+00   2.9779812e+00   4.3928315e+00   6.1011636e+00   4.5796452e+00   3.7094956e-01   9.4648217e+00   3.3261200e+00   8.0374623e-01   0.0000000e+00   0.0000000e+00   5.0000000e+01   0.0000000e+00
   3.2263407e+00   1.3319011e+00   1.2170648e+00   1.1886318e+00   3.4754191e+00   4.4181798e+00   7.5847109e+00   3.4289549e+00   7.9564203e+00   4.8827143e-01   5.0535442e+00  -2.8302829e+00   2.5451257e+00   3.7297311e+00   5.9590233e+00   4.6972235e+00  -6.4557997e-01   8.9870044e+00   3.3765140e+00   7.6458253e-01   0.0000000e+00   0.0000000e+00   5.0000000e+01   0.0000000e+00
   1.9935093e+00   1.0644778e+00   8.2672155e-01   5.4436184e-01   2.1493062e+00   3.7564566e+00   6.9505589e+00   3.0567425e+00   7.5664223e+00  -1.8445903e-02   4.8911412e+00  -3.3352353e+00   1.8540057e+00   2.8253644e+00   5.4908636e+00   4.6566774e+00  -2.0524600e+00   8.2774011e+00   2.6871746e+00   4.6694983e-01   0.0000000e+00   0.0000000e+00   5.0000000e+01   0.0000000e+00
   1.0959202e+00   9.5348718e-01   5.1365124e-01   5.9399886e-02   1.0642659e+00   2.9306290e+00   5.8854490e+00   2.3794866e+00   6.9097301e+00  -5.5139181e-01   4.6709881e+00  -3.7993299e+00   9.8223920e-01   1.5811120e+00   4.4319441e+00   4.3665979e+00  -3.3324651e+00   7.3350320e+00   9.9118139e-01  -3.0426852e-01   0.0000000e+00   0.0000000e+00   5.0000000e+01   0.0000000e+00
   5.4095075e-01   9.8861820e-01   2.6484691e-01  -5.2240520e-03   6.3342625e-01   2.1409867e+00   4.4997915e+00   1.5957518e+00   6.1775798e+00  -1.0426355e+00   4.3430921e+00  -3.9376774e+00   3.3060585e-01   2.8384621e-01   3.0709611e+00   4.0209568e+00  -3.9494646e+00   6.3595451e+00  -1.1462409e+00  -1.3046966e+00   0.0000000e+00   0.0000000e+00   5.0000000e+01   0.0000000e+00
   4.5986253e-01   1.0474168e+00   2.3776679e-01   2.2500625e-01   7.4892501e-01   1.4475785e+00   3.5479510e+00   1.1005502e+00   5.7784203e+00  -1.5249911e+00   4.1252596e+00  -3.6675107e+00   2.6084531e-01  -5.8616757e-01   2.0650302e+00   3.9259730e+00  -3.8438736e+00   5.6674253e+00  -2.7985237e+00  -1.9618815e+00   0.0000000e+00   0.0000000e+00   5.0000000e+01   0.0000000e+00
   4.9666223e-01   9.0248035e-01   3.2241710e-01   2.8218506e-01   8.5386772e-01   7.7243062e-01   3.1314830e+00   9.0787299e-01   5.8129520e+00  -2.0620639e+00   4.0166552e+00  -3.3840884e+00   4.9038191e-01  -8.4648376e-01   1.8246414e+00   4.1404401e+00  -3.6052173e+00   5.1632311e+00  -3.4232962e+00  -2.0114078e+00   0.0000000e+00   0.0000000e+00   5.0000000e+01   0.0000000e+00
   5.7696172e-01   7.0589711e-01   4.5508120e-01  -1.3668169e-01   6.4194405e-01   1.9969665e-01   3.0691297e+00   9.7176030e-01   6.0454034e+00  -2.2829729e+00   4.1183096e+00  -3.4491341e+00   6.4347997e-01  -5.7835838e-01   2.3944464e+00   4.5245525e+00  -3.6634643e+00   4.8334972e+00  -2.9910499e+00  -1.5489066e+00   0.0000000e+00   0.0000000e+00   5.0000000e+01   0.0000000e+00
   7.1311746e-01   6.7316221e-01   5.4934955e-01  -6.5975308e-01   3.4551850e-01  -9.7522886e-02   3.0188086e+00   1.1141396e+00   6.4067039e+00  -1.9040536e+00   4.2469967e+00  -3.6046768e+00   6.9726085e-01  -8.9622210e-02   3.3221553e+00   4.8534144e+00  -3.9422024e+00   4.6842866e+00  -1.9962745e+00  -9.6931552e-01   0.0000000e+00   0.0000000e+00   5.0000000e+01   0.0000000e+00
   1.1491772e+00   9.5056087e-01   4.6764715e-01  -6.0966275e-01   4.0607806e-01   1.1506478e-02   2.8518682e+00   1.1195646e+00   7.1212601e+00  -1.0407204e+00   4.2818956e+00  -3.3681704e+00   9.7825953e-01   3.6295477e-01   4.0506805e+00   4.9058807e+00  -3.9295346e+00   4.7720064e+00  -1.0693566e+00  -6.9648085e-01   0.0000000e+00   0.0000000e+00   5.0000000e+01   0.0000000e+00
   1.7075417e+00   1.4791426e+00   5.8126374e-02   2.2267269e-01   9.7863682e-01   6.6998312e-01   2.3120305e+00   7.2257370e-01   8.1677253e+00   1.0150524e-01   4.0350504e+00  -2.4437223e+00   1.8238012e+00   8.5057417e-01   4.3573718e+00   4.5289378e+00  -3.1987222e+00   4.9500397e+00  -4.6442699e-01  -9.5375249e-01   0.0000000e+00   0.0000000e+00   5.0000000e+01   0.0000000e+00
   2.3944281e+00   2.1794210e+00  -3.0980599e-01   1.2420554e+00   1.7381632e+00   1.8524600e+00   1.7764064e+00   1.7435629e-01   9.2567196e+00   1.1254709e+00   3.6478351e+00  -1.3283719e+00   3.1536727e+00   1.5386554e+00   4.4717292e+00   3.9231878e+00  -1.9041492e+00   5.2527244e+00  -1.6748592e-02  -1.5102702e+00   0.0000000e+00   0.0000000e+00   5.0000000e+01   0.0000000e+00
   2.9100197e+00   2.7969170e+00  -3.9849045e-01   1.8268930e+00   2.2985659e+00   3.1201599e+00   1.3532705e+00  -2.5375231e-01   1.0068024e+01   1.5550454e+00   3.0799220e+00  -7.2372138e-01   4.3399459e+00   2.1447837e+00   4.4261420e+00   3.3501951e+00  -7.5856659e-01   5.5490688e+00   1.9429764e-01  -2.0912323e+00   0.0000000e+00   0.0000000e+00   5.0000000e+01   0.0000000e+00
   3.2881931e+00   3.1938244e+00  -2.7290648e-01   1.9799383e+00   2.7179264e+00   4.0480045e+00   1.1541780e+00  -4.7672982e-01   1.0382942e+01   1.4522038e+00   2.4803265e+00  -6.2970969e-01   4.8285212e+00   2.1922416e+00   4.1213618e+00   2.8874936e+00  -1.3918191e-01   5.7597929e+00  -5.1829320e-02  -2.5440580e+00   0.0000000e+00   0.0000000e+00   5.0000000e+01   0.0000000e+00
   3.4460011e+00   3.3298413e+00  -1.5967888e-01   1.8587471e+00   3.1650450e+00   4.5260369e+00   1.0117162e+00  -6.3035837e-01   1.0086303e+01   1.2466040e+00   1.9503060e+00  -7.1402999e-01   4.4433283e+00   1.5552309e+00   3.5694577e+00   2.5296460e+00  -7.4814011e-02   5.7373637e+00  -7.4191002e-01  -2.8087408e+00   0.0000000e+00   0.0000000e+00   5.0000000e+01   0.0000000e+00
   3.4615150e+00   3.2925886e+00  -2.4601649e-02   1.4081632e+00   3.4213370e+00   4.6850534e+00   1.0383277e+00  -5.5976945e-01   9.3395312e+00   1.0296022e+00   1.6982053e+00  -1.0624632e+00   3.4194326e+00   5.5588186e-01   2.9623179e+00   2.4108757e+00  -5.0644946e-01   5.5374915e+00  -1.5654760e+00  -2.7561598e+00   0.0000000e+00   0.0000000e+00   5.0000000e+01   0.0000000e+00
   3.1673756e+00   3.1709627e+00   1.9318913e-01   5.0210396e-01   3.1173704e+00   4.6261422e+00   1.2422574e+00  -1.6980997e-01   8.3389963e+00   5.9665024e-01   1.6647276e+00  -1.8215949e+00   2.1639053e+00  -4.0377559e-01   2.5154112e+00   2.6069435e+00  -1.3548247e+00   5.2142055e+00  -2.1690099e+00  -2.3577632e+00   0.0000000e+00   0.0000000e+00   5.0000000e+01   0.0000000e+00
   2.7438633e+00   3.1004800e+00   5.6639661e-01  -8.2895252e-01   2.2757410e+00   4.4852537e+00   1.7114746e+00   4.9249045e-01   7.1884622e+00   1.5126780e-02   1.8400247e+00  -2.8870814e+00   1.2178885e+00  -8.8831505e-01   2.4835175e+00   3.0119565e+00  -2.3380291e+00   4.9596745e+00  -2.2399430e+00  -1.6685197e+00   0.0000000e+00   0.0000000e+00   5.0000000e+01   0.0000000e+00
   2.1323729e+00   2.9738141e+00   9.2393170e-01  -2.3012293e+00   1.2521142e+00   4.4112641e+00   2.1225030e+00   1.0523074e+00   6.0356515e+00  -5.2246565e-01   2.0210841e+00  -4.1376708e+00   7.9543250e-01  -7.0866595e-01   2.9027642e+00   3.3844265e+00  -3.2667660e+00   4.7427823e+00  -1.6528743e+00  -9.2834150e-01   0.0000000e+00   0.0000000e+00   5.0000000e+01   0.0000000e+00
   1.6660276e+00   2.8072271e+00   1.1721982e+00  -3.6765071e+00   4.8740239e-01   4.4717287e+00   2.5712414e+00   1.3558400e+00   5.2665551e+00  -9.0709760e-01   2.2989257e+00  -5.2736223e+00   8.7771617e-01   9.4853032e-02   3.6940118e+00   3.5577330e+00  -3.9021157e+00   4.7295567e+00  -4.9257165e-01  -3.1264312e-01   0.0000000e+00   0.0000000e+00   5.0000000e+01   0.0000000e+00
   1.5844574e+00   2.6883855e+00   1.2278366e+00  -4.6043935e+00   4.7645469e-01   4.7379972e+00   2.9770955e+00   1.3290683e+00   5.1094297e+00  -1.0168444e+00   2.5893712e+00  -5.6597295e+00   1.4169470e+00   1.3457664e+00   4.5727531e+00   3.4216725e+00  -3.8906014e+00   5.0402538e+00   8.2001165e-01  -7.0444268e-02   0.0000000e+00   0.0000000e+00   5.0000000e+01   0.0000000e+00
   2.1516518e+00   2.7368295e+00   1.1944094e+00  -4.7940589e+00   1.3291163e+00   5.2774142e+00   3.3473616e+00   1.0891717e+00   5.5781250e+00  -8.3709516e-01   2.8516618e+00  -5.1121938e+00   2.3355379e+00   2.7889432e+00   5.2330642e+00   3.0431059e+00  -3.0289813e+00   5.7639322e+00   1.8280766e+00  -2.8694857e-01   0.0000000e+00   0.0000000e+00   5.0000000e+01   0.0000000e+00
   2.9009643e+00   2.8577374e+00   1.0040768e+00  -4.4425954e+00   2.4354307e+00   5.9113800e+00   3.3127767e+00   6.2988755e-01   6.3808719e+00  -6.1074201e-01   2.8435172e+00  -3.9767491e+00   3.3874047e+00   4.0765011e+00   5.4115700e+00   2.5216738e+00  -1.7532000e+00   6.5770671e+00   2.2773390e+00  -8.5654942e-01   0.0000000e+00   0.0000000e+00   5.0000000e+01   0.0000000e+00
   3.7367494e+00   3.0289505e+00   8.1528421e-01  -3.9484727e+00   3.2430137e+00   6.5337576e+00   3.1772396e+00   1.8898837e-01   7.3097842e+00  -3.1288192e-01   2.7928343e+00  -2.7247748e+00   4.5758799e+00   5.1577142e+00   5.2749421e+00   1.9720990e+00  -4.2672366e-01   7.4228881e+00   2.4099005e+00  -1.4045428e+00   0.0000000e+00   0.0000000e+00   5.0000000e+01   0.0000000e+00
   4.4935983e+00   3.1108035e+00   7.1976919e-01  -3.4319391e+00   3.7617735e+00   7.1451909e+00   3.2232954e+00  -1.0456882e-01   8.0970764e+00   2.0086361e-01   2.7730137e+00  -1.6858700e+00   5.8609866e+00   6.0452948e+00   5.1084570e+00   1.4917790e+00   8.2340682e-01   8.3256753e+00   2.4432762e+00  -1.6979702e+00   0.0000000e+00   0.0000000e+00   5.0000000e+01   0.0000000e+00
   5.3275425e+00   3.0732067e+00   7.8099988e-01  -2.8875011e+00   4.3936474e+00   7.7621628e+00   3.7611665e+00  -9.6208040e-02   8.4295808e+00   8.9547738e-01   2.8848022e+00  -1.0637651e+00   6.9305365e+00   6.7126149e+00   5.1372314e+00   1.2702533e+00   1.9636307e+00   9.4043229e+00   2.5027446e+00  -1.6279940e+00   0.0000000e+00   0.0000000e+00   5.0000000e+01   0.0000000e+00
   6.1786628e+00   2.9542481e+00   8.6053395e-01  -2.2978838e+00   5.3947740e+00   8.3160603e+00   4.6124952e+00   9.6626574e-02   8.5245760e+00   1.4356883e+00   3.0028184e+00  -7.0651980e-01   7.4880994e+00   7.0752005e+00   5.2688043e+00   1.3465435e+00   2.8880832e+00   1.0555739e+01   2.6013288e+00  -1.2679226e+00   0.0000000e+00   0.0000000e+00   5.0000000e+01   0.0000000e+00
   6.8581841e+00   2.8413050e+00   7.9911759e-01  -1.7221149e+00   6.4841830e+00   8.7067698e+00   5.4816212e+00   2.8220929e-01   8.7038989e+00   1.6354321e+00   3.0636726e+00  -4.3704203e-01   7.6623456e+00   7.1515079e+00   5.3441356e+00   1.5734807e+00   3.5363820e+00   1.1636990e+01   2.6559215e+00  -8.1289431e-01   0.0000000e+00   0.0000000e+00   5.0000000e+01   0.0000000e+00
   7.0606540e+00   2.7469516e+00   5.2141294e-01  -1.2975804e+00   7.2139372e+00   8.8890240e+00   6.0030075e+00   3.1380329e-01   8.6610794e+00   1.6157465e+00   3.0248357e+00  -4.1361378e-01   7.7024987e+00   7.1202162e+00   5.3640313e+00   1.7756706e+00   3.9312705e+00   1.2458393e+01   2.6770455e+00  -4.8393526e-01   0.0000000e+00   0.0000000e+00   5.0000000e+01   0.0000000e+00
   7.0718615e+00   2.7067520e+00   2.3209238e-01  -1.1066385e+00   7.4383615e+00   8.9356490e+00   6.2985844e+00   3.2401262e-01   8.2248023e+00   1.5881142e+00   3.1384541e+00  -9.0460131e-01   7.7248480e+00   7.2796698e+00   5.5049370e+00   1.8800490e+00   4.2316527e+00   1.3078727e+01   2.8596304e+00  -2.7820822e-01   0.0000000e+00   0.0000000e+00   5.0000000e+01   0.0000000e+00
   6.9765261e+00   2.7111454e+00  -2.6680257e-02  -1.0711675e+00   7.3213568e+00   8.9214344e+00   6.2892950e+00   3.2805586e-01   7.7433717e+00   1.7036880e+00   3.3539628e+00  -1.5167529e+00   7.6749907e+00   7.7015759e+00   5.8393661e+00   1.8983844e+00   4.4930142e+00   1.3494497e+01   3.3012680e+00  -1.4022192e-01   0.0000000e+00   0.0000000e+00   5.0000000e+01   0.0000000e+00
   7.1507261e+00   2.9432143e+00  -1.3792078e-01  -1.1201434e+00   7.2429238e+00   9.0139853e+00   6.2923159e+00   4.0660645e-01   7.7788064e+00   2.0210151e+00   3.6783968e+00  -1.7339204e+00   7.6645036e+00   8.2941532e+00   6.3315827e+00   1.8948104e+00   4.8886033e+00   1.3931236e+01   3.9591708e+00  -6.8096643e-03   0.0000000e+00   0.0000000e+00   5.0000000e+01   0.0000000e+00
   7.5773872e+00   3.4109625e+00  -9.3146610e-02  -1.1300790e+00   7.4764343e+00   9.4008323e+00   6.3357881e+00   4.7953742e-01   8.2822095e+00   2.2645235e+00   3.8866975e+00  -1.6059204e+00   7.7426140e+00   8.8465475e+00   6.7379187e+00   1.8130199e+00   5.4620499e+00   1.4472055e+01   4.5790806e+00   1.9642743e-02   0.0000000e+00   0.0000000e+00   5.0000000e+01   0.0000000e+00
   8.1566714e+00   4.0365653e+00   1.0904706e-01  -1.0670649e+00   8.0182408e+00   1.0135438e+01   6.4780668e+00   5.6637022e-01   8.6510309e+00   2.0737307e+00   3.8886925e+00  -1.6136298e+00   7.7544114e+00   9.0699022e+00   6.8290399e+00   1.6168665e+00   6.0925610e+00   1.5133628e+01   4.9570924e+00  -1.3967326e-01   0.0000000e+00   0.0000000e+00   5.0000000e+01   0.0000000e+00
   8.6185226e+00   4.6060861e+00   2.8189339e-01  -9.6216672e-01   8.7373782e+00   1.1002415e+01   6.5421394e+00   5.3963915e-01   8.3580516e+00   1.4638387e+00   3.5567093e+00  -2.0888546e+00   7.5292671e+00   8.8047374e+00   6.4397966e+00   1.2843510e+00   6.5322417e+00   1.5695668e+01   4.9807906e+00  -5.4383457e-01   0.0000000e+00   0.0000000e+00   5.0000000e+01   0.0000000e+00
   9.2163283e+00   5.0154851e+00   4.0827503e-01  -7.4767233e-01   9.5149588e+00   1.1698484e+01   6.7085933e+00   4.2712649e-01   7.8846213e+00   7.3810070e-01   3.1527428e+00  -2.7014919e+00   7.1549571e+00   8.3316687e+00   5.8191735e+00   8.8633940e-01   6.7574188e+00   1.6253380e+01   4.7972998e+00  -1.0829408e+00   0.0000000e+00   0.0000000e+00   5.0000000e+01   0.0000000e+00
   9.8481541e+00   5.1087524e+00   4.7075342e-01  -5.4987683e-01   1.0034538e+01   1.1994675e+01   6.9043997e+00   2.3990963e-01   7.8947118e+00   2.1713325e-01   2.8576496e+00  -3.1133157e+00   6.5838721e+00   7.9329875e+00   5.2919659e+00   5.5973922e-01   6.6857080e+00   1.6880980e+01   4.5583688e+00  -1.5898106e+00   0.0000000e+00   0.0000000e+00   5.0000000e+01   0.0000000e+00
   1.0364094e+01   4.8173411e+00   4.8896058e-01  -6.9286005e-01   9.8675477e+00   1.1787230e+01   7.1252981e+00   6.4945096e-02   8.1661630e+00   5.9081364e-02   2.8181209e+00  -3.7355089e+00   5.6781537e+00   7.5754073e+00   5.0357189e+00   4.3638508e-01   6.1143439e+00   1.7552614e+01   4.3125068e+00  -1.8675866e+00   0.0000000e+00   0.0000000e+00   5.0000000e+01   0.0000000e+00
   1.0346992e+01   4.1986854e+00   3.8044915e-01  -1.1749076e+00   9.0588771e+00   1.1144741e+01   6.9895329e+00  -1.9359482e-01   8.2087559e+00  -1.1826101e-01   2.7287477e+00  -4.7226984e+00   4.3832834e+00   6.9923786e+00   4.9987064e+00   4.7031501e-01   4.9191448e+00   1.7915218e+01   4.0903256e+00  -1.9227823e+00   0.0000000e+00   0.0000000e+00   5.0000000e+01   0.0000000e+00
   1.0128865e+01   3.7190694e+00   3.3864040e-01  -1.7851479e+00   8.2472760e+00   1.0428226e+01   6.7977905e+00  -3.4039719e-01   7.7911655e+00  -5.1748930e-01   2.6292719e+00  -5.9121186e+00   2.9393528e+00   6.2881450e+00   5.2348908e+00   5.8573633e-01   3.4899589e+00   1.8005271e+01   4.0638807e+00  -1.7217643e+00   0.0000000e+00   0.0000000e+00   5.0000000e+01   0.0000000e+00
   9.9757805e+00   3.5082773e+00   4.1171415e-01  -2.4326885e+00   7.8113669e+00   9.8693417e+00   6.7558550e+00  -3.1120580e-01   6.9157078e+00  -6.9128080e-01   2.5590593e+00  -7.0792698e+00   1.6710335e+00   5.7929786e+00   5.6558422e+00   6.9731770e-01   2.2419183e+00   1.8005402e+01   4.1962170e+00  -1.3452268e+00   0.0000000e+00   0.0000000e+00   5.0000000e+01   0.0000000e+00
   1.0170540e+01   3.4567712e+00   5.4810162e-01  -2.9434153e+00   7.7006272e+00   9.5563049e+00   6.9304304e+00  -7.4438476e-02   6.2652404e+00  -2.9515760e-01   2.6642768e+00  -7.8015142e+00   9.6246040e-01   5.8435054e+00   6.1632706e+00   8.0618854e-01   1.5165433e+00   1.8188735e+01   4.4947323e+00  -8.7857997e-01   0.0000000e+00   0.0000000e+00   5.0000000e+01   0.0000000e+00
   1.0422306e+01   3.3978345e+00   5.7495629e-01  -3.1278748e+00   7.7822868e+00   9.4855257e+00   6.8871544e+00   1.1440662e-01   6.1819025e+00   2.9029811e-01   2.7097567e+00  -7.9740755e+00   9.0611587e-01   6.4390590e+00   6.5787148e+00   8.3740629e-01   1.3458263e+00   1.8384241e+01   4.8448603e+00  -5.6706172e-01   0.0000000e+00   0.0000000e+00   5.0000000e+01   0.0000000e+00
   1.0698588e+01   3.4551141e+00   6.6023311e-01  -3.0016838e+00   8.0628136e+00   9.7036186e+00   6.7883259e+00   1.9418261e-01   6.4431978e+00   6.4545322e-01   2.6443075e+00  -7.8170099e+00   1.3318455e+00   7.2816944e+00   6.7497893e+00   7.2074453e-01   1.6781826e+00   1.8502791e+01   5.0890846e+00  -5.3448294e-01   0.0000000e+00   0.0000000e+00   5.0000000e+01   0.0000000e+00
   1.0842865e+01   3.6656593e+00   9.4142744e-01  -2.7536887e+00   8.5060260e+00   1.0107504e+01   6.8466196e+00   1.7559708e-01   6.6505481e+00   6.4665532e-01   2.3645507e+00  -7.5629078e+00   1.8623351e+00   7.8506166e+00   6.4535893e+00   4.2566783e-01   2.2764951e+00   1.8495634e+01   4.9862385e+00  -8.1808646e-01   0.0000000e+00   0.0000000e+00   5.0000000e+01   0.0000000e+00
   1.0820436e+01   3.7449006e+00   1.4074552e+00  -2.7342985e+00   8.9239851e+00   1.0286778e+01   7.1591526e+00   1.5569322e-01   6.1728023e+00   1.7993526e-01   1.9580983e+00  -7.6282181e+00   2.0977474e+00   7.6631089e+00   5.6285562e+00   3.7814868e-02   2.7187068e+00   1.8325347e+01   4.3918024e+00  -1.2735660e+00   0.0000000e+00   0.0000000e+00   5.0000000e+01   0.0000000e+00
   1.0276785e+01   3.3029073e+00   1.7897872e+00  -3.2400792e+00   9.0116002e+00   9.8850324e+00   7.2738138e+00   7.9212255e-02   4.6865437e+00  -6.3118314e-01   1.3912325e+00  -8.2283667e+00   1.6615353e+00   6.5916832e+00   4.5579986e+00  -2.8763864e-01   2.4068537e+00   1.7702399e+01   3.5156201e+00  -1.6735930e+00   0.0000000e+00   0.0000000e+00   5.0000000e+01   0.0000000e+00
   9.4426058e+00   2.4535202e+00   2.0508908e+00  -4.3211742e+00   8.4578274e+00   8.9352358e+00   7.3215178e+00   1.0337769e-01   2.8925716e+00  -1.4123880e+00   9.4935068e-01  -9.4308096e+00   4.6046800e-01   5.0796550e+00   3.8511717e+00  -3.2914935e-01   1.1723325e+00   1.6691999e+01   2.8186041e+00  -1.7404178e+00   0.0000000e+00   0.0000000e+00   5.0000000e+01   0.0000000e+00
   8.3151511e+00   1.3143363e+00   2.0330371e+00  -5.8965388e+00   7.0682640e+00   7.5611235e+00   7.2237250e+00   1.9679936e-01   1.4787996e+00  -2.1074377e+00   6.8956885e-01  -1.1114937e+01  -1.3781413e+00   3.5471533e+00   3.6926943e+00  -7.1037456e-02  -8.0302201e-01   1.5396212e+01   2.3997678e+00  -1.4892084e+00   0.0000000e+00   0.0000000e+00   5.0000000e+01   0.0000000e+00
   7.0469904e+00   1.3179566e-02   1.6447724e+00  -7.7933791e+00   4.9377572e+00   5.8502145e+00   6.9594375e+00   3.1100034e-01   6.0517030e-01  -2.7381122e+00   7.8590344e-01  -1.2978336e+01  -3.4814990e+00   2.1972651e+00   3.8861337e+00   3.3382563e-01  -3.0770083e+00   1.4055524e+01   2.1354985e+00  -1.1143273e+00   0.0000000e+00   0.0000000e+00   5.0000000e+01   0.0000000e+00
   5.5400201e+00  -1.3413497e+00   8.3127716e-01  -9.5857205e+00   2.6023905e+00   3.9946105e+00   6.2041477e+00   2.0824862e-01   4.4557808e-02  -3.2103020e+00   1.0398077e+00  -1.4673063e+01  -5.4250103e+00   1.1390085e+00   4.1269122e+00   6.6923764e-01  -5.2914078e+00   1.2653619e+01   1.8651692e+00  -9.0907880e-01   0.0000000e+00   0.0000000e+00   5.0000000e+01   0.0000000e+00
   4.1491272e+00  -2.4951257e+00  -1.0056406e-01  -1.0887821e+01   8.2678862e-01   2.4447486e+00   5.2237032e+00  -5.0564870e-02  -4.2850193e-01  -3.3098571e+00   1.3765375e+00  -1.6002608e+01  -6.7307594e+00   5.5090333e-01   4.3698891e+00   8.5244176e-01  -7.0156289e+00   1.1333662e+01   1.5910617e+00  -9.1750024e-01   0.0000000e+00   0.0000000e+00   5.0000000e+01   0.0000000e+00
   3.0292355e+00  -3.2426532e+00  -8.5453153e-01  -1.1695348e+01  -8.1524966e-02   1.4308018e+00   4.2146469e+00  -3.7819500e-01  -8.8152082e-01  -3.0924956e+00   1.6371898e+00  -1.6796151e+01  -7.3591741e+00   3.8894659e-01   4.6149070e+00   9.0368669e-01  -8.1764840e+00   1.0216403e+01   1.2514938e+00  -1.0827572e+00   0.0000000e+00   0.0000000e+00   5.0000000e+01   0.0000000e+00
   2.3596802e+00  -3.3974664e+00  -1.1429074e+00  -1.2169224e+01  -2.4968020e-01   9.7583864e-01   3.5350858e+00  -5.4137717e-01  -1.1126534e+00  -2.8853614e+00   1.8535383e+00  -1.7151255e+01  -7.5493018e+00   5.2883008e-01   4.8534169e+00   9.7844283e-01  -8.8559537e+00   9.5108520e+00   9.7400602e-01  -1.1903845e+00   0.0000000e+00   0.0000000e+00   5.0000000e+01   0.0000000e+00
   1.9917064e+00  -3.1074898e+00  -9.5638521e-01  -1.2267098e+01   2.0307005e-01   1.0885098e+00   3.1442236e+00  -5.0831989e-01  -1.0862432e+00  -2.8888238e+00   1.8585805e+00  -1.7149288e+01  -7.5075539e+00   8.6509383e-01   4.8550085e+00   1.0795164e+00  -9.0723839e+00   9.1441958e+00   8.6139698e-01  -1.1809263e+00   0.0000000e+00   0.0000000e+00   5.0000000e+01   0.0000000e+00
   2.2540281e+00  -2.4209853e+00  -2.2532844e-01  -1.1876206e+01   1.4088871e+00   1.9049322e+00   3.3341792e+00  -2.1113624e-01  -1.0045904e+00  -2.9746621e+00   1.7844457e+00  -1.6779920e+01  -7.1054340e+00   1.4574021e+00   4.5187490e+00   1.1088259e+00  -8.5311963e+00   9.2286259e+00   9.8414985e-01  -1.0869632e+00   0.0000000e+00   0.0000000e+00   5.0000000e+01   0.0000000e+00
   3.0515687e+00  -1.5346544e+00   7.7064943e-01  -1.0999245e+01   3.2488010e+00   3.2501129e+00   3.9918542e+00   2.0788645e-01  -8.0931996e-01  -3.1302609e+00   1.6381574e+00  -1.5875770e+01  -6.1588574e+00   2.1926320e+00   3.8589328e+00   1.0398700e+00  -7.0846928e+00   9.7819384e+00   1.2378241e+00  -1.0580569e+00   0.0000000e+00   0.0000000e+00   5.0000000e+01   0.0000000e+00
   4.1666317e+00  -7.0840193e-01   1.6971141e+00  -9.9368911e+00   5.0825747e+00   4.5930878e+00   4.9423454e+00   7.1053086e-01  -3.1663771e-01  -3.3982124e+00   1.6019095e+00  -1.4463401e+01  -4.8069562e+00   2.7974790e+00   3.1517483e+00   9.9869311e-01  -5.0325850e+00   1.0744730e+01   1.5413253e+00  -1.0805026e+00   0.0000000e+00   0.0000000e+00   5.0000000e+01   0.0000000e+00
   4.9252498e+00  -3.3590826e-01   2.2703149e+00  -9.1958437e+00   6.1807071e+00   5.4054432e+00   5.6277768e+00   1.0869439e+00  -2.8195116e-03  -3.7328547e+00   1.6343290e+00  -1.3241679e+01  -3.7643011e+00   3.0319599e+00   2.7027107e+00   1.0782146e+00  -3.3761650e+00   1.1668808e+01   1.8811481e+00  -1.0659443e+00   0.0000000e+00   0.0000000e+00   5.0000000e+01   0.0000000e+00
   5.2166691e+00  -4.7248647e-01   2.4934453e+00  -9.0796698e+00   6.2675823e+00   5.5181377e+00   6.0579347e+00   1.2894168e+00  -8.4939323e-02  -3.9862964e+00   1.8735736e+00  -1.3004503e+01  -3.5393261e+00   2.9262790e+00   2.6282807e+00   1.3074885e+00  -2.7845500e+00   1.2373607e+01   2.2478573e+00  -9.4544168e-01   0.0000000e+00   0.0000000e+00   5.0000000e+01   0.0000000e+00
   5.0805701e+00  -8.6980417e-01   2.3334290e+00  -9.3825078e+00   5.6375342e+00   5.1050072e+00   6.1581590e+00   1.2172959e+00  -4.0025522e-01  -3.9469937e+00   2.1956029e+00  -1.3615881e+01  -3.9760834e+00   2.6505717e+00   2.6961351e+00   1.5293089e+00  -3.0810750e+00   1.2876325e+01   2.4746555e+00  -8.9613583e-01   0.0000000e+00   0.0000000e+00   5.0000000e+01   0.0000000e+00
   4.9683094e+00  -1.0514953e+00   1.9864693e+00  -9.5822040e+00   5.0470299e+00   4.5860225e+00   6.0479194e+00   9.5761424e-01  -4.6995551e-01  -3.4335271e+00   2.6222016e+00  -1.4093335e+01  -4.3464276e+00   2.6058779e+00   2.7896637e+00   1.5936019e+00  -3.3786093e+00   1.3490003e+01   2.5597240e+00  -1.0030897e+00   0.0000000e+00   0.0000000e+00   5.0000000e+01   0.0000000e+00
   4.9727198e+00  -9.0970585e-01   1.5747251e+00  -9.2191604e+00   5.2037960e+00   4.3511309e+00   5.5250954e+00   4.9686690e-01   3.9502951e-02  -2.6550732e+00   2.9014024e+00  -1.3515800e+01  -4.1329159e+00   3.0577934e+00   2.8519400e+00   1.4099396e+00  -3.0448377e+00   1.4219751e+01   2.5695793e+00  -1.2936944e+00   0.0000000e+00   0.0000000e+00   5.0000000e+01   0.0000000e+00
   5.2416373e+00  -4.8535601e-01   1.2744692e+00  -8.3227070e+00   6.1101271e+00   4.5074119e+00   4.8685143e+00  -1.4488375e-02   6.9887965e-01  -2.0140312e+00   2.9030343e+00  -1.2138512e+01  -3.4108848e+00   3.8138570e+00   2.8651790e+00   1.0104792e+00  -2.1256715e+00   1.4934269e+01   2.5522197e+00  -1.6774759e+00   0.0000000e+00   0.0000000e+00   5.0000000e+01   0.0000000e+00
   5.4753445e+00   5.7933623e-02   1.2192484e+00  -7.4261748e+00   6.9615292e+00   4.7419803e+00   4.2395324e+00  -5.1660449e-01   7.8036059e-01  -1.6394573e+00   2.4523435e+00  -1.1068560e+01  -2.7847042e+00   4.3231271e+00   2.7134738e+00   4.9282644e-01  -1.3475364e+00   1.5328957e+01   2.4197938e+00  -2.0760932e+00   0.0000000e+00   0.0000000e+00   5.0000000e+01   0.0000000e+00
