nt = 720
nc = 24
channels = F7 T3 T5 Fp1 F3 C3 P3 O1 F8 T4 T6 Fp2 F4 C4 P4 O2 Fz Cz Pz Oz TR SOn Occ RAp
ne = 20
type = N
fsmp = 120.0000000000
band = 0.1 0.2 44 58 0
orig.file = s6_bl1
orig.nt = 283420
orig.sample_range = 231100 234695
orig.fsmp = 600
orig.subject = 6
orig.run = 42
  -8.5018322e-01  -3.4140568e+00   3.6522663e+00   2.7318210e+00  -5.2243029e+00  -9.6215044e+00  -4.9946668e+00  -4.0165120e+00  -3.9604695e+00   1.2916678e+00   2.3367971e+00   1.4579627e+01  -7.7739844e+00  -9.1117761e+00  -5.0107030e+00  -1.5856751e+00  -1.4196048e-01  -4.2437795e+00  -1.6090948e+00   1.2677648e+01   0.0000000e+00   0.0000000e+00   0.0000000e+00   0.0000000e+00
  -4.2993249e-01  -3.9518693e+00   2.5646409e+00   7.0004985e+00  -6.2577330e+00  -1.0465662e+01  -5.4366539e+00  -4.3312837e+00  -2.1441243e+00   1.5054367e+00   3.9124046e+00   1.7365401e+01  -1.0466181e+01  -1.2631415e+01  -4.3442474e+00  -1.4851873e+00   7.4986009e-01  -2.9283756e+00  -2.9743531e+00   7.1483102e+00   0.0000000e+00   0.0000000e+00   0.0000000e+00   0.0000000e+00
  -4.1554463e-01  -4.3133792e+00   1.6337011e+00   9.4205357e+00  -7.3068319e+00  -1.1525245e+01  -6.1730628e+00  -5.3357194e+00  -1.1820958e+00   8.8582796e-01   4.0248984e+00   1.9018094e+01  -1.2246148e+01  -1.5641934e+01  -4.9175081e+00  -2.0512776e+00   1.1820626e+00  -2.4526998e+00  -4.5559766e+00   2.8537232e+00   0.0000000e+00   0.0000000e+00   0.0000000e+00   0.0000000e+00
  -6.1040236e-01  -4.5354091e+00   1.3044532e+00   1.0433229e+01  -8.1499058e+00  -1.2649824e+01  -6.9026070e+00  -6.1483351e+00  -1.3135853e+00  -6.6133783e-01   2.9138739e+00   1.9516938e+01  -1.3771270e+01  -1.8495142e+01  -6.2200986e+00  -2.8315045e+00   1.1904258e+00  -2.8435380e+00  -6.1342208e+00  -1.5869595e-01   0.0000000e+00   0.0000000e+00   0.0000000e+00   0.0000000e+00
  -9.6780568e-01  -4.5682625e+00   1.7290307e+00   1.0911747e+01  -8.7625042e+00  -1.3627229e+01  -7.2404673e+00  -5.9783636e+00  -1.9139216e+00  -2.2563772e+00   1.7031525e+00   1.9270337e+01  -1.5034282e+01  -2.0856330e+01  -7.3477340e+00  -3.0854759e+00   1.0101736e+00  -3.2791341e+00  -7.2390476e+00  -1.7163703e+00   0.0000000e+00   0.0000000e+00   0.0000000e+00   0.0000000e+00
  -1.7186753e+00  -4.7778416e+00   2.3280803e+00   1.0815410e+01  -9.7097148e+00  -1.4662720e+01  -7.2409578e+00  -5.1606053e+00  -2.4411678e+00  -3.0373416e+00   1.0706488e+00   1.8341838e+01  -1.6062753e+01  -2.2292280e+01  -7.8572544e+00  -2.8693058e+00   4.4043731e-01  -3.3932998e+00  -7.7365717e+00  -2.2400201e+00   0.0000000e+00   0.0000000e+00   0.0000000e+00   0.0000000e+00
  -2.7521082e+00  -5.2984009e+00   2.6769072e+00   1.0190905e+01  -1.1136584e+01  -1.5809624e+01  -7.1065836e+00  -4.3216524e+00  -2.5069672e+00  -2.9827222e+00   1.0012655e+00   1.6958321e+01  -1.6922312e+01  -2.2739588e+01  -7.7874597e+00  -2.6065743e+00  -4.9353677e-01  -3.2242979e+00  -7.8187974e+00  -2.4805872e+00   0.0000000e+00   0.0000000e+00   0.0000000e+00   0.0000000e+00
  -3.5408169e+00  -5.7482792e+00   2.8300820e+00   9.6895135e+00  -1.2521387e+01  -1.6810955e+01  -7.0048383e+00  -3.7213692e+00  -2.1942988e+00  -2.7951938e+00   1.0267700e+00   1.5741371e+01  -1.7732464e+01  -2.2742154e+01  -7.4477960e+00  -2.5146191e+00  -1.4421056e+00  -3.0091864e+00  -7.8699697e+00  -2.8346430e+00   0.0000000e+00   0.0000000e+00   0.0000000e+00   0.0000000e+00
  -3.6818665e+00  -5.6690951e+00   2.8802883e+00   9.7366754e+00  -1.3418433e+01  -1.7370456e+01  -6.9836011e+00  -3.3011861e+00  -1.7054113e+00  -2.7184936e+00   7.6645295e-01   1.5299536e+01  -1.8589134e+01  -2.2917615e+01  -7.2505030e+00  -2.5224489e+00  -2.1261540e+00  -2.7638898e+00  -8.1269978e+00  -3.2152685e+00   0.0000000e+00   0.0000000e+00   0.0000000e+00   0.0000000e+00
  -3.2483426e+00  -5.0505271e+00   2.8328040e+00   9.9861606e+00  -1.4015853e+01  -1.7345785e+01  -6.9134202e+00  -2.9256382e+00  -1.3604965e+00  -2.9171019e+00   1.7227894e-01   1.5404368e+01  -1.9687611e+01  -2.3430629e+01  -7.2478297e+00  -2.4842683e+00  -2.6697283e+00  -2.3817765e+00  -8.4239954e+00  -3.3594179e+00   0.0000000e+00   0.0000000e+00   0.0000000e+00   0.0000000e+00
  -2.6880077e+00  -4.2676520e+00   2.8964536e+00   1.0109036e+01  -1.4512378e+01  -1.6728756e+01  -6.6627465e+00  -2.5338911e+00  -1.4310698e+00  -3.5430179e+00  -4.1847311e-01   1.5382145e+01  -2.0927967e+01  -2.3864352e+01  -7.0014600e+00  -2.2000379e+00  -3.0879493e+00  -1.7987031e+00  -8.3796957e+00  -3.1267803e+00   0.0000000e+00   0.0000000e+00   0.0000000e+00   0.0000000e+00
  -2.0262642e+00  -3.5492094e+00   3.2413448e+00   1.0349525e+01  -1.4621645e+01  -1.5754847e+01  -6.2236256e+00  -2.2367093e+00  -1.8321330e+00  -4.4739202e+00  -7.0567610e-01   1.5224691e+01  -2.1972803e+01  -2.3862851e+01  -6.2870593e+00  -1.7540453e+00  -3.0796196e+00  -1.2254293e+00  -7.9275267e+00  -2.6901664e+00   0.0000000e+00   0.0000000e+00   0.0000000e+00   0.0000000e+00
  -1.3331740e+00  -2.9836324e+00   3.6074605e+00   1.1021452e+01  -1.4168691e+01  -1.4838673e+01  -5.9057749e+00  -2.2762006e+00  -2.1610270e+00  -5.4685150e+00  -6.7711069e-01   1.5397957e+01  -2.2641492e+01  -2.3566022e+01  -5.5407102e+00  -1.4454597e+00  -2.5891928e+00  -8.2797564e-01  -7.4896626e+00  -2.4565187e+00   0.0000000e+00   0.0000000e+00   0.0000000e+00   0.0000000e+00
  -9.7203326e-01  -2.7142315e+00   3.5930100e+00   1.1709864e+01  -1.3519527e+01  -1.4349532e+01  -5.9141531e+00  -2.7786149e+00  -2.4928969e+00  -6.3742139e+00  -6.7328469e-01   1.5695055e+01  -2.3117938e+01  -2.3425813e+01  -5.3908198e+00  -1.5588832e+00  -2.0951124e+00  -7.2329235e-01  -7.5095158e+00  -2.7286896e+00   0.0000000e+00   0.0000000e+00   0.0000000e+00   0.0000000e+00
  -1.0342432e+00  -2.7506955e+00   3.1902345e+00   1.2014841e+01  -1.3095237e+01  -1.4327878e+01  -6.1871375e+00  -3.4002129e+00  -3.1390854e+00  -7.3103584e+00  -1.1042354e+00   1.5534225e+01  -2.3664338e+01  -2.3895847e+01  -6.1991459e+00  -2.1007532e+00  -2.0140449e+00  -9.3757991e-01  -8.1977308e+00  -3.2648659e+00   0.0000000e+00   0.0000000e+00   0.0000000e+00   0.0000000e+00
  -1.3334426e+00  -3.1681657e+00   2.5045529e+00   1.1957443e+01  -1.2945694e+01  -1.4696721e+01  -6.9447797e+00  -4.0609208e+00  -3.9034981e+00  -8.2385797e+00  -2.1570422e+00   1.4938201e+01  -2.4146342e+01  -2.4846598e+01  -7.7341132e+00  -2.9435246e+00  -2.1447759e+00  -1.6156875e+00  -9.5392040e+00  -3.8349601e+00   0.0000000e+00   0.0000000e+00   0.0000000e+00   0.0000000e+00
  -1.5242918e+00  -3.6316164e+00   1.7220438e+00   1.2140373e+01  -1.2490337e+01  -1.5118123e+01  -7.9690181e+00  -4.5582575e+00  -3.9304952e+00  -8.5265316e+00  -3.3538888e+00   1.4913930e+01  -2.3778303e+01  -2.5336875e+01  -9.1350621e+00  -3.5455980e+00  -1.5752519e+00  -2.2528408e+00  -1.0913618e+01  -4.1223859e+00   0.0000000e+00   0.0000000e+00   0.0000000e+00   0.0000000e+00
  -1.5024789e+00  -3.6251651e+00   9.7258711e-01   1.2740297e+01  -1.1604914e+01  -1.5246150e+01  -8.5742086e+00  -4.4787194e+00  -3.0023153e+00  -8.2200644e+00  -4.2401854e+00   1.5722935e+01  -2.2395416e+01  -2.4853347e+01  -9.8471756e+00  -3.6196194e+00  -1.8145558e-01  -2.3493648e+00  -1.1642659e+01  -3.9169381e+00   0.0000000e+00   0.0000000e+00   0.0000000e+00   0.0000000e+00
  -1.2521694e+00  -3.1149627e+00   3.7363724e-01   1.3321004e+01  -1.0853850e+01  -1.4861884e+01  -8.4324553e+00  -3.8605374e+00  -1.6755456e+00  -7.8377168e+00  -4.5895566e+00   1.6586922e+01  -2.0701003e+01  -2.3609982e+01  -9.8735896e+00  -3.3139600e+00   1.2876394e+00  -1.8306221e+00  -1.1482719e+01  -3.4006311e+00   0.0000000e+00   0.0000000e+00   0.0000000e+00   0.0000000e+00
  -7.2763165e-01  -2.5187005e+00  -5.7382789e-02   1.3402076e+01  -1.0541732e+01  -1.3894703e+01  -7.5349506e+00  -3.0732134e+00  -5.8396852e-01  -7.7073660e+00  -4.4320586e+00   1.6885791e+01  -1.9466221e+01  -2.2019488e+01  -9.4280902e+00  -2.8971749e+00   2.2773615e+00  -1.0619387e+00  -1.0548444e+01  -2.8493916e+00   0.0000000e+00   0.0000000e+00   0.0000000e+00   0.0000000e+00
  -2.1625599e-01  -2.1519819e+00  -4.0913988e-01   1.3155838e+01  -1.0312488e+01  -1.2661747e+01  -6.1646392e+00  -2.1737523e+00   1.3558888e-01  -7.5934918e+00  -3.7969464e+00   1.6756552e+01  -1.8800069e+01  -2.0297701e+01  -8.7436350e+00  -2.3747171e+00   2.8394005e+00  -2.2442270e-01  -9.2462173e+00  -2.1153518e+00   0.0000000e+00   0.0000000e+00   0.0000000e+00   0.0000000e+00
  -2.4283386e-01  -2.3739406e+00  -8.6306696e-01   1.2897157e+01  -1.0030361e+01  -1.2051004e+01  -5.0864217e+00  -1.3507150e+00   7.2148192e-01  -7.2128275e+00  -2.7483770e+00   1.6689423e+01  -1.8437138e+01  -1.8671541e+01  -7.9517081e+00  -1.7183169e+00   3.1033597e+00   7.0019679e-01  -8.1807074e+00  -1.1860313e+00   0.0000000e+00   0.0000000e+00   0.0000000e+00   0.0000000e+00
  -1.0894712e+00  -3.2969572e+00  -1.4814232e+00   1.2671013e+01  -1.0064509e+01  -1.2431133e+01  -4.6598820e+00  -7.9532824e-01   1.3990120e+00  -6.5072942e+00  -1.5348966e+00   1.6857949e+01  -1.8406247e+01  -1.7298968e+01  -7.1465356e+00  -1.0246131e+00   2.9211461e+00   1.6901917e+00  -7.5830366e+00  -2.7089655e-01   0.0000000e+00   0.0000000e+00   0.0000000e+00   0.0000000e+00
  -2.2835011e+00  -4.5645138e+00  -2.1201339e+00   1.2206604e+01  -1.0543355e+01  -1.3221684e+01  -4.7395488e+00  -6.8142448e-01   1.8486298e+00  -5.8489316e+00  -4.8957819e-01   1.6885388e+01  -1.8981359e+01  -1.6225037e+01  -6.2823170e+00  -5.2856565e-01   2.1462642e+00   2.3818610e+00  -7.2087861e+00   4.4351523e-01   0.0000000e+00   0.0000000e+00   0.0000000e+00   0.0000000e+00
  -3.0227912e+00  -5.5326910e+00  -2.4123752e+00   1.1665761e+01  -1.0966376e+01  -1.3701193e+01  -4.9022658e+00  -9.1534058e-01   1.8616393e+00  -5.4847311e+00   4.8971157e-01   1.6574554e+01  -1.9855822e+01  -1.5495264e+01  -5.2233071e+00  -1.4581409e-01   1.1653518e+00   2.8094486e+00  -6.7446956e+00   1.0844541e+00   0.0000000e+00   0.0000000e+00   0.0000000e+00   0.0000000e+00
  -3.1032788e+00  -5.9227354e+00  -2.1926486e+00   1.1201208e+01  -1.1028142e+01  -1.3586622e+01  -4.9038099e+00  -1.3344684e+00   1.5370135e+00  -5.4279466e+00   1.3949921e+00   1.5984552e+01  -2.0610749e+01  -1.5346659e+01  -4.2709998e+00   1.2566037e-01   4.3389103e-01   3.0329789e+00  -6.2629126e+00   1.6777671e+00   0.0000000e+00   0.0000000e+00   0.0000000e+00   0.0000000e+00
  -2.8220859e+00  -5.9433229e+00  -1.7410231e+00   1.0775743e+01  -1.0808818e+01  -1.3120007e+01  -4.9291083e+00  -1.8575098e+00   1.1473955e+00  -5.6248147e+00   1.8994194e+00   1.5526941e+01  -2.1068496e+01  -1.5869718e+01  -4.0447046e+00   8.9843050e-02   1.6948891e-01   2.8447497e+00  -6.1750818e+00   1.9833559e+00   0.0000000e+00   0.0000000e+00   0.0000000e+00   0.0000000e+00
  -2.2530584e+00  -5.8298934e+00  -1.4643025e+00   1.0411583e+01  -1.0495427e+01  -1.2760901e+01  -5.1669246e+00  -2.4077126e+00   8.7658571e-01  -6.0960236e+00   1.7925372e+00   1.5415889e+01  -2.1189017e+01  -1.6917185e+01  -4.7409451e+00  -3.5327300e-01   2.9596203e-01   2.0828754e+00  -6.6921020e+00   1.8745459e+00   0.0000000e+00   0.0000000e+00   0.0000000e+00   0.0000000e+00
  -1.1516821e+00  -5.3312665e+00  -1.1202061e+00   1.0596194e+01  -9.6326645e+00  -1.2201906e+01  -5.1631065e+00  -2.5421305e+00   1.1381240e+00  -6.4187027e+00   1.6693514e+00   1.6048510e+01  -2.0451682e+01  -1.7597682e+01  -5.6449939e+00  -5.7772732e-01   1.1399230e+00   1.5973579e+00  -7.1477386e+00   1.8669585e+00   0.0000000e+00   0.0000000e+00   0.0000000e+00   0.0000000e+00
   5.7757712e-01  -4.4625720e+00  -5.5485591e-01   1.1531592e+01  -7.8771418e+00  -1.1079383e+01  -4.6793514e+00  -2.2877297e+00   2.0018378e+00  -6.0039947e+00   2.0074165e+00   1.7421567e+01  -1.8603562e+01  -1.7208704e+01  -5.8530747e+00  -1.5699582e-01   2.9151439e+00   2.1042942e+00  -6.8871537e+00   2.2470628e+00   0.0000000e+00   0.0000000e+00   0.0000000e+00   0.0000000e+00
   2.4844023e+00  -3.5247915e+00   5.9753313e-02   1.2967696e+01  -5.5150470e+00  -9.4140372e+00  -3.9067570e+00  -2.0666204e+00   3.2186030e+00  -4.7576031e+00   2.6469096e+00   1.8977530e+01  -1.6037822e+01  -1.5913735e+01  -5.1096214e+00   7.6719335e-01   5.3052093e+00   3.4607447e+00  -5.8326275e+00   2.8652962e+00   0.0000000e+00   0.0000000e+00   0.0000000e+00   0.0000000e+00
   3.9363574e+00  -2.7539900e+00   5.9608164e-01   1.4305550e+01  -3.3002988e+00  -7.6330907e+00  -3.0893572e+00  -2.0549917e+00   4.3565065e+00  -3.3448342e+00   3.1246349e+00   2.0177340e+01  -1.3558673e+01  -1.4515026e+01  -4.0484338e+00   1.7105890e+00   7.4928659e+00   4.9217115e+00  -4.4843545e+00   3.5036165e+00   0.0000000e+00   0.0000000e+00   0.0000000e+00   0.0000000e+00
   4.4982922e+00  -2.2354274e+00   1.0148353e+00   1.4967568e+01  -1.8992413e+00  -6.4045749e+00  -2.5686657e+00  -2.1144949e+00   5.0268869e+00  -2.4154662e+00   3.2559133e+00   2.0736235e+01  -1.1956918e+01  -1.3773427e+01  -3.5168899e+00   2.3567816e+00   8.6639310e+00   5.9845732e+00  -3.5622486e+00   3.9992061e+00   0.0000000e+00   0.0000000e+00   0.0000000e+00   0.0000000e+00
   4.4357653e+00  -1.8333387e+00   1.2810598e+00   1.4854295e+01  -1.2261261e+00  -5.9453462e+00  -2.5258432e+00  -2.1874923e+00   5.0476732e+00  -2.1767527e+00   3.0936516e+00   2.0686181e+01  -1.1498543e+01  -1.3715251e+01  -3.5520624e+00   2.6468135e+00   8.7965375e+00   6.4892834e+00  -3.2331881e+00   4.2868306e+00   0.0000000e+00   0.0000000e+00   0.0000000e+00   0.0000000e+00
   4.4428431e+00  -1.3505919e+00   1.4024926e+00   1.4328734e+01  -8.4939351e-01  -5.8905770e+00  -2.6564835e+00  -2.1728159e+00   4.6116733e+00  -2.3481473e+00   2.8742987e+00   2.0252702e+01  -1.1812735e+01  -1.3819780e+01  -3.5614469e+00   2.6970954e+00   8.4562261e+00   6.5818478e+00  -3.1187195e+00   4.5323147e+00   0.0000000e+00   0.0000000e+00   0.0000000e+00   0.0000000e+00
   4.8392982e+00  -7.7894948e-01   1.4091810e+00   1.3772917e+01  -5.3558891e-01  -5.7857371e+00  -2.6753629e+00  -2.1654673e+00   4.1262079e+00  -2.4423926e+00   2.7348166e+00   1.9793303e+01  -1.2218331e+01  -1.3656727e+01  -3.1007612e+00   2.5551816e+00   8.1492964e+00   6.4560144e+00  -2.8576932e+00   4.7461130e+00   0.0000000e+00   0.0000000e+00   0.0000000e+00   0.0000000e+00
   5.5766712e+00  -5.5409512e-02   1.4666466e+00   1.3791937e+01  -3.2536122e-02  -5.4613469e+00  -2.5160262e+00  -2.2371674e+00   4.0789798e+00  -2.1584765e+00   2.6818107e+00   1.9752595e+01  -1.2064044e+01  -1.3137153e+01  -2.3513113e+00   2.3722171e+00   8.2189004e+00   6.4667692e+00  -2.3958096e+00   4.8835011e+00   0.0000000e+00   0.0000000e+00   0.0000000e+00   0.0000000e+00
   6.5859573e+00   7.4730935e-01   1.6751420e+00   1.4444269e+01   6.3201862e-01  -5.2462335e+00  -2.3462215e+00  -2.3651265e+00   4.4323706e+00  -1.7858741e+00   2.5655113e+00   2.0130173e+01  -1.1460170e+01  -1.2582623e+01  -1.8842004e+00   2.2541483e+00   8.4913628e+00   6.5992750e+00  -2.0886931e+00   4.9027797e+00   0.0000000e+00   0.0000000e+00   0.0000000e+00   0.0000000e+00
   7.5841209e+00   1.2277212e+00   1.8821907e+00   1.5081914e+01   1.1703077e+00  -5.5113033e+00  -2.5149607e+00  -2.4954843e+00   4.8819170e+00  -1.6887892e+00   2.2976512e+00   2.0751659e+01  -1.0859495e+01  -1.2404366e+01  -2.0491387e+00   2.1110845e+00   8.6486586e+00   6.4683297e+00  -2.4587627e+00   4.7588220e+00   0.0000000e+00   0.0000000e+00   0.0000000e+00   0.0000000e+00
   8.1185323e+00   9.5914727e-01   1.8949174e+00   1.5038214e+01   1.1885006e+00  -6.3645065e+00  -3.3419180e+00  -2.7288789e+00   5.1555053e+00  -1.8733099e+00   1.7615937e+00   2.1132220e+01  -1.0665558e+01  -1.2941357e+01  -2.9305716e+00   1.6482222e+00   8.4002134e+00   5.5426095e+00  -3.8170424e+00   4.2724885e+00   0.0000000e+00   0.0000000e+00   0.0000000e+00   0.0000000e+00
   8.1861264e+00   3.0728855e-01   1.9224520e+00   1.4622010e+01   5.9410550e-01  -7.4120626e+00  -4.5243215e+00  -2.9023289e+00   5.2881138e+00  -2.0976387e+00   1.1053246e+00   2.1046777e+01  -1.0819033e+01  -1.3958137e+01  -4.2058442e+00   1.0077527e+00   7.7478908e+00   3.9946924e+00  -5.7454675e+00   3.6151368e+00   0.0000000e+00   0.0000000e+00   0.0000000e+00   0.0000000e+00
   8.0112591e+00  -1.4815410e-01   2.1396695e+00   1.4292709e+01  -3.4684481e-01  -8.2748772e+00  -5.5047332e+00  -2.8239325e+00   5.2155269e+00  -2.4312054e+00   4.5423681e-01   2.0662826e+01  -1.1214957e+01  -1.5081793e+01  -5.4499704e+00   4.6601637e-01   6.8975576e+00   2.4051589e+00  -7.5422867e+00   3.1126684e+00   0.0000000e+00   0.0000000e+00   0.0000000e+00   0.0000000e+00
   7.7978449e+00  -2.5522605e-01   2.4521171e+00   1.4013959e+01  -1.1459686e+00  -8.8131634e+00  -5.9896693e+00  -2.5438932e+00   4.6314707e+00  -3.0926784e+00  -2.8175347e-01   2.0035528e+01  -1.1932417e+01  -1.6301907e+01  -6.5373409e+00   2.3150816e-02   6.1143640e+00   1.0419389e+00  -8.8264959e+00   2.8112638e+00   0.0000000e+00   0.0000000e+00   0.0000000e+00   0.0000000e+00
   7.8095243e+00  -9.0712081e-02   2.7037745e+00   1.3601729e+01  -1.5590847e+00  -9.0485928e+00  -6.0297630e+00  -2.3364250e+00   3.3583342e+00  -4.1975182e+00  -1.2250629e+00   1.9211523e+01  -1.2892814e+01  -1.7710680e+01  -7.4454413e+00  -5.5953230e-01   5.4653469e+00  -3.4039584e-01  -9.6260672e+00   2.5361874e+00   0.0000000e+00   0.0000000e+00   0.0000000e+00   0.0000000e+00
   7.9989284e+00   3.6321720e-01   3.0476022e+00   1.3307246e+01  -1.6730941e+00  -8.9498370e+00  -5.6133978e+00  -2.0867685e+00   1.9995082e+00  -5.2350403e+00  -2.0525888e+00   1.8540657e+01  -1.3499808e+01  -1.8930354e+01  -8.0091724e+00  -1.1774140e+00   5.0058172e+00  -1.6141020e+00  -9.9599230e+00   2.4130887e+00   0.0000000e+00   0.0000000e+00   0.0000000e+00   0.0000000e+00
   7.9333495e+00   1.0524342e+00   3.6538863e+00   1.3156705e+01  -1.6562198e+00  -8.4171721e+00  -4.7905343e+00  -1.5670379e+00   1.1919108e+00  -5.6515972e+00  -2.3705023e+00   1.8085852e+01  -1.3286256e+01  -1.9571377e+01  -8.1053028e+00  -1.5853946e+00   4.8766004e+00  -2.4903313e+00  -9.7445583e+00   2.5272522e+00   0.0000000e+00   0.0000000e+00   0.0000000e+00   0.0000000e+00
   7.8301055e+00   2.0051880e+00   4.4809016e+00   1.3252707e+01  -1.2570096e+00  -7.3037239e+00  -3.7502668e+00  -8.1743836e-01   1.1450346e+00  -5.3726936e+00  -2.0935503e+00   1.7963853e+01  -1.2160968e+01  -1.9441479e+01  -7.6998585e+00  -1.7163665e+00   5.3987199e+00  -2.7272994e+00  -8.9932868e+00   2.7124324e+00   0.0000000e+00   0.0000000e+00   0.0000000e+00   0.0000000e+00
   8.3145418e+00   3.0482903e+00   5.2259162e+00   1.3737990e+01  -3.7836563e-01  -5.8403523e+00  -2.9328496e+00  -3.1776257e-01   1.5049985e+00  -4.9140352e+00  -1.5291159e+00   1.8175594e+01  -1.0591975e+01  -1.8522453e+01  -6.9005578e+00  -1.8684372e+00   6.4884808e+00  -2.5512463e+00  -7.9175071e+00   2.6755044e+00   0.0000000e+00   0.0000000e+00   0.0000000e+00   0.0000000e+00
   9.2392614e+00   3.9204845e+00   5.7201292e+00   1.4486704e+01   7.1740339e-01  -4.3849691e+00  -2.5616459e+00  -2.2304549e-01   1.9080721e+00  -4.3738617e+00  -7.3301927e-01   1.8450025e+01  -9.0790496e+00  -1.6874971e+01  -5.7378026e+00  -2.0114011e+00   7.6914516e+00  -2.2299981e+00  -6.6264959e+00   2.4601869e+00   0.0000000e+00   0.0000000e+00   0.0000000e+00   0.0000000e+00
   1.0139204e+01   4.3604944e+00   5.8164912e+00   1.5122296e+01   1.5116123e+00  -3.3274465e+00  -2.7089236e+00  -3.8576075e-01   2.0817537e+00  -3.7154322e+00   1.6608216e-01   1.8525231e+01  -7.8685015e+00  -1.5008349e+01  -4.4731762e+00  -1.9837285e+00   8.5073625e+00  -1.9670384e+00  -5.4213896e+00   2.1022694e+00   0.0000000e+00   0.0000000e+00   0.0000000e+00   0.0000000e+00
   1.0518352e+01   4.0825030e+00   5.2927925e+00   1.5356938e+01   1.5513331e+00  -3.0647250e+00  -3.5601901e+00  -7.4219309e-01   1.9057029e+00  -3.2076253e+00   8.4947152e-01   1.8236708e+01  -7.1483421e+00  -1.3610590e+01  -3.6961648e+00  -1.9037605e+00   8.6202065e+00  -2.0372225e+00  -4.8663565e+00   1.4569035e+00   0.0000000e+00   0.0000000e+00   0.0000000e+00   0.0000000e+00
   1.0020304e+01   3.0410858e+00   4.2868321e+00   1.4881581e+01   7.3765750e-01  -3.8758549e+00  -5.1833448e+00  -1.2955019e+00   1.2848708e+00  -3.0942929e+00   1.1792155e+00   1.7291261e+01  -7.2625794e+00  -1.3221713e+01  -3.6888049e+00  -1.9064807e+00   7.8898671e+00  -2.7365028e+00  -5.2616770e+00   5.3906074e-01   0.0000000e+00   0.0000000e+00   0.0000000e+00   0.0000000e+00
   8.5294414e+00   1.5497060e+00   3.2589458e+00   1.3658502e+01  -8.4961128e-01  -5.6321369e+00  -7.2160837e+00  -1.7804051e+00  -1.8928084e-02  -3.1994896e+00   1.4402624e+00   1.5798185e+01  -8.4132112e+00  -1.4106766e+01  -4.2217277e+00  -1.7800752e+00   6.3169990e+00  -3.8965450e+00  -6.3335544e+00  -2.8207267e-01   0.0000000e+00   0.0000000e+00   0.0000000e+00   0.0000000e+00
   6.2515871e+00  -1.7836438e-01   2.5030500e+00   1.1770892e+01  -3.2268112e+00  -7.9016151e+00  -9.1809881e+00  -1.9872740e+00  -1.9103651e+00  -3.3739623e+00   1.8879111e+00   1.4115523e+01  -1.0519190e+01  -1.6124654e+01  -4.9083253e+00  -1.4078725e+00   3.8369110e+00  -5.2073726e+00  -7.5310514e+00  -7.5134812e-01   0.0000000e+00   0.0000000e+00   0.0000000e+00   0.0000000e+00
   3.7151726e+00  -1.8891451e+00   2.0595704e+00   9.4699751e+00  -5.9474857e+00  -1.0091139e+01  -1.0703175e+01  -1.9133054e+00  -3.6786587e+00  -3.5453650e+00   2.3325447e+00   1.2476005e+01  -1.2996930e+01  -1.8551480e+01  -5.6651184e+00  -9.8333915e-01   7.7806637e-01  -6.5129019e+00  -8.4996242e+00  -9.2956632e-01   0.0000000e+00   0.0000000e+00   0.0000000e+00   0.0000000e+00
   1.5818454e+00  -3.2919281e+00   1.6706492e+00   7.4163974e+00  -8.1154834e+00  -1.1698411e+01  -1.1792248e+01  -1.8306536e+00  -4.7790629e+00  -3.6884851e+00   2.2825308e+00   1.1131258e+01  -1.5037930e+01  -2.0765057e+01  -6.7822641e+00  -8.7897787e-01  -1.9183969e+00  -7.7813790e+00  -9.2973527e+00  -1.1970405e+00   0.0000000e+00   0.0000000e+00   0.0000000e+00   0.0000000e+00
   1.6324284e-01  -4.2683004e+00   1.2247585e+00   6.1008608e+00  -9.3585269e+00  -1.2530535e+01  -1.2539929e+01  -1.8938023e+00  -5.1067405e+00  -3.9317748e+00   1.6587573e+00   1.0256409e+01  -1.6164199e+01  -2.2604950e+01  -8.2907474e+00  -1.1785008e+00  -3.4429496e+00  -8.7812826e+00  -9.9193908e+00  -1.7822517e+00   0.0000000e+00   0.0000000e+00   0.0000000e+00   0.0000000e+00
  -6.2148209e-01  -4.8626124e+00   7.9303707e-01   5.4535792e+00  -9.8973579e+00  -1.2759776e+01  -1.2913590e+01  -2.0390881e+00  -5.1661771e+00  -4.3335770e+00   7.6781258e-01   9.7617041e+00  -1.6594705e+01  -2.4114424e+01  -9.7363943e+00  -1.7943930e+00  -3.9606288e+00  -9.4731897e+00  -1.0202707e+01  -2.6631645e+00   0.0000000e+00   0.0000000e+00   0.0000000e+00   0.0000000e+00
  -6.0120948e-01  -5.1130622e+00   6.2811491e-01   5.5122230e+00  -9.9104084e+00  -1.2571304e+01  -1.2918573e+01  -2.0567499e+00  -5.2333948e+00  -4.7714355e+00  -3.7263971e-02   9.7848930e+00  -1.6638903e+01  -2.5234582e+01  -1.0724013e+01  -2.6194701e+00  -3.9430101e+00  -9.9000879e+00  -1.0141397e+01  -3.6194799e+00   0.0000000e+00   0.0000000e+00   0.0000000e+00   0.0000000e+00
   6.9259956e-02  -5.1548647e+00   7.2422395e-01   6.0528730e+00  -9.4577494e+00  -1.2008814e+01  -1.2783231e+01  -1.9754684e+00  -5.4021940e+00  -5.0263919e+00  -7.8228420e-01   1.0207647e+01  -1.6520073e+01  -2.6030206e+01  -1.1284221e+01  -3.6497051e+00  -3.6664356e+00  -1.0205647e+01  -9.9688595e+00  -4.5062941e+00   0.0000000e+00   0.0000000e+00   0.0000000e+00   0.0000000e+00
   9.2058628e-01  -4.8902601e+00   1.0993486e+00   6.8739823e+00  -8.5676723e+00  -1.0878617e+01  -1.2394016e+01  -1.7223588e+00  -5.6539603e+00  -4.8681279e+00  -1.4261581e+00   1.0736644e+01  -1.6262690e+01  -2.6426927e+01  -1.1519608e+01  -4.4820373e+00  -3.0760798e+00  -1.0101931e+01  -9.6921956e+00  -5.0776525e+00   0.0000000e+00   0.0000000e+00   0.0000000e+00   0.0000000e+00
   1.6628097e+00  -4.4245038e+00   1.5150951e+00   7.7154505e+00  -7.4283563e+00  -9.3986801e+00  -1.1641064e+01  -1.3530594e+00  -5.8330285e+00  -4.5262787e+00  -1.9861850e+00   1.0889197e+01  -1.5923354e+01  -2.6272513e+01  -1.1414382e+01  -4.8647935e+00  -2.2902499e+00  -9.5413479e+00  -9.2619683e+00  -5.3220824e+00   0.0000000e+00   0.0000000e+00   0.0000000e+00   0.0000000e+00
   1.8564251e+00  -4.1050241e+00   1.6801708e+00   8.2457297e+00  -6.6003507e+00  -8.2195952e+00  -1.0804817e+01  -9.2721233e-01  -5.5020374e+00  -4.0292002e+00  -2.2599073e+00   1.0600219e+01  -1.5524885e+01  -2.5350363e+01  -1.0656884e+01  -4.7678061e+00  -1.6431118e+00  -8.8930770e+00  -8.6269079e+00  -5.2464319e+00   0.0000000e+00   0.0000000e+00   0.0000000e+00   0.0000000e+00
   1.2850291e+00  -4.1944920e+00   1.6471924e+00   8.2657348e+00  -6.6295079e+00  -7.7880704e+00  -1.0244973e+01  -5.6734115e-01  -4.5236066e+00  -3.1873983e+00  -1.9544052e+00   1.0158652e+01  -1.5067422e+01  -2.3553662e+01  -9.0445361e+00  -4.2023405e+00  -1.2861054e+00  -8.5363784e+00  -7.7132096e+00  -4.8745799e+00   0.0000000e+00   0.0000000e+00   0.0000000e+00   0.0000000e+00
   5.8253912e-01  -4.4457327e+00   1.7216930e+00   8.1449868e+00  -7.0303848e+00  -7.6867184e+00  -9.8529916e+00  -2.6879918e-01  -3.1044679e+00  -2.1335481e+00  -9.0774209e-01   9.9170303e+00  -1.4320838e+01  -2.1151663e+01  -6.8484926e+00  -3.0112851e+00  -7.6404316e-01  -8.2421322e+00  -6.4986751e+00  -4.2603208e+00   0.0000000e+00   0.0000000e+00   0.0000000e+00   0.0000000e+00
   3.0647019e-01  -4.4620066e+00   2.1401013e+00   8.1375631e+00  -7.1962274e+00  -7.2797564e+00  -9.3500130e+00   1.1968842e-01  -1.9066471e+00  -1.6017840e+00   4.5935160e-01   1.0020242e+01  -1.3416934e+01  -1.9173359e+01  -4.8535442e+00  -1.2280075e+00   2.3520801e-01  -7.8110706e+00  -5.3029591e+00  -3.5506365e+00   0.0000000e+00   0.0000000e+00   0.0000000e+00   0.0000000e+00
   3.1870750e-01  -4.2139742e+00   2.7428571e+00   8.2231444e+00  -6.9446002e+00  -6.3667155e+00  -8.7904372e+00   6.4007499e-01  -1.6314313e+00  -2.1018887e+00   1.4389173e+00   1.0247373e+01  -1.2928829e+01  -1.8551914e+01  -3.8458288e+00   6.5572323e-01   1.4458034e+00  -7.5234022e+00  -4.5885253e+00  -2.9703769e+00   0.0000000e+00   0.0000000e+00   0.0000000e+00   0.0000000e+00
   4.2268245e-01  -3.8024508e+00   3.2904958e+00   8.3898764e+00  -6.3694263e+00  -5.1808058e+00  -8.3900279e+00   1.0914256e+00  -2.4334946e+00  -3.3018022e+00   1.9134706e+00   1.0446020e+01  -1.2994832e+01  -1.9071885e+01  -3.8323278e+00   2.0371826e+00   2.4905241e+00  -7.5768461e+00  -4.3528550e+00  -2.6226051e+00   0.0000000e+00   0.0000000e+00   0.0000000e+00   0.0000000e+00
   6.5111997e-01  -3.3969468e+00   3.7249750e+00   8.5823431e+00  -5.6932608e+00  -4.1324840e+00  -8.1800212e+00   1.3209183e+00  -3.7158178e+00  -4.4347955e+00   2.2497452e+00   1.0604284e+01  -1.3071686e+01  -1.9786372e+01  -4.2409355e+00   2.7190152e+00   3.2089105e+00  -7.7007742e+00  -4.2938549e+00  -2.3560574e+00   0.0000000e+00   0.0000000e+00   0.0000000e+00   0.0000000e+00
   9.2083140e-01  -3.3063246e+00   3.9658113e+00   8.6839789e+00  -5.1739592e+00  -3.5085667e+00  -8.1550683e+00   1.3766604e+00  -4.6216391e+00  -4.9767072e+00   2.6766214e+00   1.0755674e+01  -1.2576781e+01  -1.9964575e+01  -4.4656433e+00   2.9117631e+00   3.6734767e+00  -7.5542587e+00  -4.1511046e+00  -2.0103852e+00   0.0000000e+00   0.0000000e+00   0.0000000e+00   0.0000000e+00
   1.0292795e+00  -3.3858005e+00   4.1441114e+00   8.7031033e+00  -4.8369781e+00  -3.1171100e+00  -8.0136242e+00   1.5882414e+00  -4.6733730e+00  -4.6353343e+00   3.2704538e+00   1.1160584e+01  -1.1377224e+01  -1.9408947e+01  -4.1607489e+00   3.0813076e+00   4.0507150e+00  -6.9642752e+00  -3.7156704e+00  -1.4405665e+00   0.0000000e+00   0.0000000e+00   0.0000000e+00   0.0000000e+00
   9.2029374e-01  -3.3817189e+00   4.5154661e+00   8.3671615e+00  -4.7509483e+00  -2.6201690e+00  -7.4695392e+00   2.0027518e+00  -4.0984613e+00  -3.7299765e+00   3.7957975e+00   1.1764054e+01  -1.0099494e+01  -1.8643755e+01  -3.5260722e+00   3.3224330e+00   4.0922487e+00  -6.2223574e+00  -3.0803672e+00  -7.8501789e-01   0.0000000e+00   0.0000000e+00   0.0000000e+00   0.0000000e+00
   6.4692004e-01  -3.2158333e+00   5.2131986e+00   7.6837492e+00  -4.8192075e+00  -1.6939498e+00  -6.4208793e+00   2.5616905e+00  -3.3663097e+00  -2.7201554e+00   4.1496703e+00   1.2306471e+01  -9.3187192e+00  -1.7961589e+01  -2.7781829e+00   3.5547643e+00   3.6864913e+00  -5.4105686e+00  -2.2656177e+00  -5.0013555e-02   0.0000000e+00   0.0000000e+00   0.0000000e+00   0.0000000e+00
   2.3895892e-01  -3.1039817e+00   6.0073172e+00   6.9650592e+00  -4.8623196e+00  -5.2027771e-01  -5.1682248e+00   3.1070343e+00  -2.8711836e+00  -1.7789434e+00   4.4074848e+00   1.2511165e+01  -9.1356455e+00  -1.7184213e+01  -1.9269338e+00   3.7614673e+00   3.1071397e+00  -4.4091738e+00  -1.2482214e+00   8.9993966e-01   0.0000000e+00   0.0000000e+00   0.0000000e+00   0.0000000e+00
  -3.6444144e-01  -3.2802999e+00   6.5309478e+00   6.5418714e+00  -4.8000630e+00   3.6521829e-01  -4.1600194e+00   3.4544396e+00  -2.5527612e+00  -8.2300616e-01   4.7619349e+00   1.2584731e+01  -9.0504906e+00  -1.5953181e+01  -7.9924463e-01   4.1358188e+00   2.7763587e+00  -3.1550320e+00  -8.7921208e-02   2.1564421e+00   0.0000000e+00   0.0000000e+00   0.0000000e+00   0.0000000e+00
  -1.0219356e+00  -3.6429058e+00   6.6353035e+00   6.4665755e+00  -4.6996943e+00   6.9565987e-01  -3.5020091e+00   3.6394772e+00  -2.3325793e+00   2.6595851e-01   5.2495522e+00   1.2809211e+01  -8.5874957e+00  -1.4165901e+01   7.7530218e-01   4.7578971e+00   2.7873007e+00  -1.8671245e+00   1.1706936e+00   3.6930995e+00   0.0000000e+00   0.0000000e+00   0.0000000e+00   0.0000000e+00
  -1.5914952e+00  -3.8540538e+00   6.5497357e+00   6.4520173e+00  -4.7165490e+00   7.0137012e-01  -2.9426594e+00   3.9570937e+00  -2.1646289e+00   1.3083320e+00   5.8226285e+00   1.2986515e+01  -7.9157616e+00  -1.2269733e+01   2.6342194e+00   5.5553007e+00   2.8048263e+00  -6.8898937e-01   2.4284586e+00   5.4076030e+00   0.0000000e+00   0.0000000e+00   0.0000000e+00   0.0000000e+00
  -1.9532900e+00  -3.9120573e+00   6.4960323e+00   6.0843063e+00  -5.0231717e+00   6.2020078e-01  -2.4246952e+00   4.3084830e+00  -2.2097749e+00   1.8833193e+00   6.3998600e+00   1.2477246e+01  -7.8378471e+00  -1.0958387e+01   4.4341846e+00   6.2291484e+00   2.3649242e+00   1.3268749e-01   3.4373230e+00   6.9797198e+00   0.0000000e+00   0.0000000e+00   0.0000000e+00   0.0000000e+00
  -2.0208375e+00  -4.0029867e+00   6.5009615e+00   5.4759568e+00  -5.3620610e+00   5.6502991e-01  -1.9742458e+00   4.5398079e+00  -2.3370582e+00   2.0652630e+00   7.0348343e+00   1.1336726e+01  -8.4478668e+00  -1.0393038e+01   5.9296085e+00   6.6087231e+00   1.5461490e+00   5.1589253e-01   4.0786850e+00   8.2129354e+00   0.0000000e+00   0.0000000e+00   0.0000000e+00   0.0000000e+00
  -1.9763867e+00  -4.2015626e+00   6.4203690e+00   5.0024652e+00  -5.3417439e+00   6.0588707e-01  -1.6127652e+00   4.6323843e+00  -2.1658925e+00   2.1782796e+00   7.6826761e+00   1.0341183e+01  -9.0332564e+00  -1.0336766e+01   6.8652688e+00   6.7146916e+00   8.3001979e-01   6.4346238e-01   4.4696037e+00   9.0855775e+00   0.0000000e+00   0.0000000e+00   0.0000000e+00   0.0000000e+00
  -2.0896029e+00  -4.4381743e+00   6.1423921e+00   4.9600865e+00  -4.9055471e+00   7.9209104e-01  -1.3194743e+00   4.5115767e+00  -1.6446642e+00   2.3185133e+00   8.0928474e+00   9.8678863e+00  -9.2020479e+00  -1.0640880e+01   6.9864745e+00   6.5994365e+00   5.2425999e-01   9.1085023e-01   4.6665022e+00   9.4812141e+00   0.0000000e+00   0.0000000e+00   0.0000000e+00   0.0000000e+00
  -2.2093771e+00  -4.4938326e+00   5.7969525e+00   5.1119419e+00  -4.3734520e+00   1.1100804e+00  -1.0908838e+00   4.0367267e+00  -1.1412934e+00   2.1520898e+00   7.8592747e+00   9.5427564e+00  -9.2988942e+00  -1.1401842e+01   6.3436708e+00   6.1088058e+00   3.9502774e-01   1.3502264e+00   4.6269917e+00   9.3103248e+00   0.0000000e+00   0.0000000e+00   0.0000000e+00   0.0000000e+00
  -1.8487953e+00  -3.8375772e+00   5.8503253e+00   5.2681739e+00  -3.8164582e+00   1.6746996e+00  -7.1563745e-01   3.4801505e+00  -7.5773893e-01   1.4029737e+00   6.9494172e+00   9.3492612e+00  -9.4555380e+00  -1.2600929e+01   5.3722342e+00   5.3220713e+00   3.5508581e-01   1.8909501e+00   4.4844332e+00   8.9295625e+00   0.0000000e+00   0.0000000e+00   0.0000000e+00   0.0000000e+00
  -9.5576983e-01  -2.4745832e+00   6.3842416e+00   5.3785100e+00  -3.1455466e+00   2.4636337e+00  -2.8169689e-03   3.1269403e+00  -5.0452897e-01   2.6538031e-01   5.7114659e+00   9.5285645e+00  -9.3815983e+00  -1.3987819e+01   4.4745509e+00   4.5476965e+00   6.1095964e-01   2.5142135e+00   4.3928320e+00   8.6187400e+00   0.0000000e+00   0.0000000e+00   0.0000000e+00   0.0000000e+00
  -1.3779616e-01  -9.9782138e-01   7.0678389e+00   5.5085198e+00  -2.3420938e+00   3.4630917e+00   1.0972648e+00   3.2001808e+00  -3.0853603e-01  -3.3792603e-01   4.9447456e+00   1.0049376e+01  -8.5980456e+00  -1.4774968e+01   4.0473025e+00   4.2698614e+00   1.3977959e+00   3.4919803e+00   4.5955959e+00   8.6118657e+00   0.0000000e+00   0.0000000e+00   0.0000000e+00   0.0000000e+00
  -3.8110998e-02  -2.0578386e-01   7.4376978e+00   5.6724962e+00  -1.5721310e+00   4.2452241e+00   2.0058881e+00   3.4509191e+00  -1.3547081e-01  -8.4563456e-02   5.0472500e+00   1.0445263e+01  -7.1819124e+00  -1.4528028e+01   4.2393786e+00   4.4834393e+00   2.4819570e+00   4.7881266e+00   4.9420365e+00   8.7252408e+00   0.0000000e+00   0.0000000e+00   0.0000000e+00   0.0000000e+00
  -6.1510187e-01  -5.6064632e-01   7.1017239e+00   5.8804944e+00  -1.0612364e+00   4.1322699e+00   1.8818965e+00   3.3257948e+00   1.0578668e-01   4.9251337e-01   5.5881814e+00   1.0355598e+01  -5.6989938e+00  -1.3468614e+01   4.7055657e+00   4.6765838e+00   3.4449653e+00   5.9051455e+00   4.8843838e+00   8.4231219e+00   0.0000000e+00   0.0000000e+00   0.0000000e+00   0.0000000e+00
  -1.2812419e+00  -1.7589359e+00   5.9498753e+00   5.9436865e+00  -1.0296411e+00   2.9525738e+00   6.2923577e-01   2.6358990e+00   4.1461939e-01   8.5957043e-01   5.8724608e+00   9.9232474e+00  -4.5057594e+00  -1.2056529e+01   4.9006980e+00   4.4315108e+00   4.1610000e+00   6.4052881e+00   4.1454667e+00   7.4922456e+00   0.0000000e+00   0.0000000e+00   0.0000000e+00   0.0000000e+00
  -1.6814417e+00  -3.0071646e+00   4.4118026e+00   5.8877200e+00  -1.2911387e+00   1.4084802e+00  -9.0668817e-01   1.7420729e+00   9.1523763e-01   1.0758911e+00   5.7800315e+00   9.6033758e+00  -3.4886570e+00  -1.0716617e+01   4.7540700e+00   3.9876767e+00   4.9188232e+00   6.5300307e+00   3.0388141e+00   6.3701504e+00   0.0000000e+00   0.0000000e+00   0.0000000e+00   0.0000000e+00
  -1.7901118e+00  -3.7883453e+00   2.9986802e+00   5.8234375e+00  -1.5501250e+00   3.7817822e-01  -1.9640933e+00   9.5228582e-01   1.6452030e+00   1.2345337e+00   5.6132029e+00   9.4132113e+00  -2.7002830e+00  -9.7870245e+00   4.7537541e+00   3.7884801e+00   5.7675168e+00   6.6927300e+00   2.1597931e+00   5.5768158e+00   0.0000000e+00   0.0000000e+00   0.0000000e+00   0.0000000e+00
  -1.6454093e+00  -3.7782712e+00   2.0564379e+00   5.8841465e+00  -1.7814728e+00   2.0612485e-01  -2.0993662e+00   5.3760753e-01   2.2632162e+00   1.1113513e+00   5.5875369e+00   9.0451999e+00  -2.4594544e+00  -9.2514591e+00   5.2459530e+00   3.9786180e+00   6.3847253e+00   6.9791858e+00   2.0290169e+00   5.4203830e+00   0.0000000e+00   0.0000000e+00   0.0000000e+00   0.0000000e+00
  -1.3121105e+00  -3.0129520e+00   1.6755685e+00   6.0308160e+00  -2.1383756e+00   6.4618723e-01  -1.4417848e+00   3.2102799e-01   2.3169974e+00   3.9115290e-01   5.5593859e+00   8.2792628e+00  -2.9230825e+00  -9.0657368e+00   6.0115677e+00   4.2549330e+00   6.4957706e+00   7.1535923e+00   2.5740866e+00   5.5939733e+00   0.0000000e+00   0.0000000e+00   0.0000000e+00   0.0000000e+00
  -7.3178603e-01  -1.8862030e+00   1.7066276e+00   6.0795420e+00  -2.5804146e+00   1.3094338e+00  -4.4391883e-01   3.6561105e-02   1.7358996e+00  -8.5387521e-01   5.3295255e+00   7.3757736e+00  -3.8711846e+00  -9.3689896e+00   6.5079805e+00   4.3356116e+00   6.1562419e+00   7.1498194e+00   3.1990114e+00   5.5887101e+00   0.0000000e+00   0.0000000e+00   0.0000000e+00   0.0000000e+00
   2.2734220e-01  -7.4500917e-01   2.0340210e+00   6.1205314e+00  -2.7947291e+00   1.9789139e+00   4.8336206e-01  -3.7435193e-01   6.7323836e-01  -2.2245218e+00   4.7269406e+00   6.6258864e+00  -4.9889278e+00  -1.0316216e+01   6.2968148e+00   4.0926044e+00   5.6919731e+00   6.9362708e+00   3.3566420e+00   5.2076438e+00   0.0000000e+00   0.0000000e+00   0.0000000e+00   0.0000000e+00
   1.4530451e+00   3.3653568e-01   2.7341859e+00   6.5828504e+00  -2.4071108e+00   2.7331027e+00   1.2544644e+00  -7.5208226e-01  -4.6437915e-01  -3.3389216e+00   3.7737397e+00   6.0246330e+00  -5.8989140e+00  -1.1753858e+01   5.3354932e+00   3.5231235e+00   5.5684274e+00   6.6127915e+00   3.0256368e+00   4.6316258e+00   0.0000000e+00   0.0000000e+00   0.0000000e+00   0.0000000e+00
   2.2029695e+00   1.1265783e+00   3.6043124e+00   6.9634947e+00  -1.8583368e+00   3.4258258e+00   1.8481069e+00  -1.0130758e+00  -1.5990835e+00  -4.1578561e+00   2.6212623e+00   5.2016084e+00  -6.7153736e+00  -1.3510772e+01   3.8208276e+00   2.7447058e+00   5.5321856e+00   6.0934882e+00   2.3788880e+00   4.1767398e+00   0.0000000e+00   0.0000000e+00   0.0000000e+00   0.0000000e+00
   1.7690766e+00   1.2662639e+00   4.3115175e+00   6.3266344e+00  -2.2015087e+00   3.6684568e+00   2.1618979e+00  -1.2251976e+00  -2.8473103e+00  -4.9004066e+00   1.5764348e+00   3.8478443e+00  -7.8653787e+00  -1.5449609e+01   2.1560035e+00   2.1751615e+00   4.7833842e+00   5.2292185e+00   1.5509020e+00   4.0392366e+00   0.0000000e+00   0.0000000e+00   0.0000000e+00   0.0000000e+00
   4.0143384e-01   6.8465093e-01   4.7514512e+00   4.6839736e+00  -3.7091406e+00   3.2039148e+00   2.0022008e+00  -1.6004529e+00  -4.3309898e+00  -5.6581956e+00   7.6904992e-01   2.1053568e+00  -9.4789218e+00  -1.7373481e+01   7.0338498e-01   1.9757681e+00   3.1116301e+00   4.0027582e+00   6.0500736e-01   4.0612768e+00   0.0000000e+00   0.0000000e+00   0.0000000e+00   0.0000000e+00
  -8.8082878e-01  -1.7504673e-02   5.1809429e+00   3.0695899e+00  -5.2462537e+00   2.5014669e+00   1.5163062e+00  -1.9631154e+00  -5.6078717e+00  -6.1428463e+00   2.6682803e-01   5.8182681e-01  -1.0826934e+01  -1.8663652e+01  -1.8541052e-01   1.9928037e+00   1.5095355e+00   2.8168686e+00  -1.4067511e-01   4.1430198e+00   0.0000000e+00   0.0000000e+00   0.0000000e+00   0.0000000e+00
  -1.3678664e+00  -2.8966237e-01   5.7399932e+00   2.1411742e+00  -5.7754769e+00   2.2009798e+00   9.4185489e-01  -2.2106412e+00  -6.3155023e+00  -6.1121213e+00  -4.1445086e-02  -4.3010673e-01  -1.1264989e+01  -1.8943010e+01  -4.6686977e-01   1.7971182e+00   1.0033451e+00   1.9405246e+00  -4.0284543e-01   4.1660858e+00   0.0000000e+00   0.0000000e+00   0.0000000e+00   0.0000000e+00
  -1.3045835e+00  -2.0262331e-01   6.2298885e+00   1.6888167e+00  -5.4571241e+00   2.3853024e+00   4.1595484e-01  -2.4670171e+00  -6.8023650e+00  -5.8293309e+00  -3.3177663e-01  -1.0654100e+00  -1.1062501e+01  -1.8476101e+01  -5.6866636e-01   1.1673997e+00   1.4612759e+00   1.2587664e+00  -3.2109460e-01   3.9533595e+00   0.0000000e+00   0.0000000e+00   0.0000000e+00   0.0000000e+00
  -1.3912684e+00  -2.3795728e-01   6.3471591e+00   8.8672226e-01  -5.3962900e+00   2.4802249e+00  -7.4686085e-02  -2.7881678e+00  -7.8510805e+00  -5.8873018e+00  -6.2151382e-01  -1.8200641e+00  -1.1010824e+01  -1.7880518e+01  -9.1176152e-01   2.7816305e-01   1.7139778e+00   4.6321501e-01  -2.7255947e-01   3.4708519e+00   0.0000000e+00   0.0000000e+00   0.0000000e+00   0.0000000e+00
  -2.0616294e+00  -6.6327398e-01   6.0036860e+00  -5.8966271e-01  -6.1508019e+00   2.0817501e+00  -5.5782007e-01  -3.1941238e+00  -9.4644936e+00  -6.1976328e+00  -6.3631425e-01  -2.8924618e+00  -1.1330906e+01  -1.7462502e+01  -1.4671375e+00  -4.5489724e-01   1.1375667e+00  -5.6552754e-01  -3.5673579e-01   2.9248258e+00   0.0000000e+00   0.0000000e+00   0.0000000e+00   0.0000000e+00
  -3.0841990e+00  -1.1019739e+00   5.5769314e+00  -2.1201108e+00  -7.0885118e+00   1.6946200e+00  -6.9668983e-01  -3.3574319e+00  -1.0730075e+01  -6.1575910e+00   3.9016226e-03  -3.7347674e+00  -1.1529606e+01  -1.6891854e+01  -1.6636248e+00  -4.4450417e-01   3.2819789e-01  -1.2801188e+00  -1.1592408e-01   2.8403400e+00   0.0000000e+00   0.0000000e+00   0.0000000e+00   0.0000000e+00
  -4.1808547e+00  -1.1832722e+00   5.5100913e+00  -3.1274321e+00  -7.6804972e+00   1.9790302e+00  -1.5981178e-01  -2.7678463e+00  -1.1047262e+01  -5.3649356e+00   1.4135906e+00  -3.9905658e+00  -1.1266349e+01  -1.5713467e+01  -9.5694430e-01   6.6083836e-01  -5.2177095e-02  -8.1025967e-01   9.1001224e-01   3.6572393e+00   0.0000000e+00   0.0000000e+00   0.0000000e+00   0.0000000e+00
  -5.5547733e+00  -1.2661921e+00   5.7086338e+00  -4.0479696e+00  -8.2027600e+00   2.6885096e+00   6.1293588e-01  -1.6342424e+00  -1.0779796e+01  -4.2785474e+00   3.0303316e+00  -4.1238016e+00  -1.0964342e+01  -1.4269394e+01   3.6465158e-01   2.4023344e+00  -2.0336901e-01   6.4593719e-01   2.4049729e+00   5.0391994e+00   0.0000000e+00   0.0000000e+00   0.0000000e+00   0.0000000e+00
  -6.9903506e+00  -1.5836772e+00   6.0241707e+00  -5.1409528e+00  -8.9078391e+00   3.2587496e+00   1.0623536e+00  -4.3896895e-01  -1.0646322e+01  -3.8403215e+00   4.0061771e+00  -4.4883354e+00  -1.1280055e+01  -1.3506470e+01   1.4298995e+00   4.0403458e+00  -6.1471028e-01   2.0904158e+00   3.5393214e+00   6.3497891e+00   0.0000000e+00   0.0000000e+00   0.0000000e+00   0.0000000e+00
  -7.7842014e+00  -1.8444637e+00   6.4363649e+00  -5.9446260e+00  -9.6115029e+00   3.5153327e+00   9.6729087e-01   4.0872384e-01  -1.0808259e+01  -4.2545070e+00   3.8724192e+00  -4.9180741e+00  -1.2247136e+01  -1.4001518e+01   1.5678131e+00   5.0234452e+00  -1.3376435e+00   2.8370978e+00   3.7528721e+00   7.0286795e+00   0.0000000e+00   0.0000000e+00   0.0000000e+00   0.0000000e+00
  -7.6840956e+00  -1.7589769e+00   6.8537222e+00  -5.8092589e+00  -9.8063513e+00   3.5819078e+00   2.9753156e-01   7.4035391e-01  -1.0891355e+01  -4.7509269e+00   2.9073017e+00  -4.7715598e+00  -1.3017934e+01  -1.5299656e+01   6.9197102e-01   5.2658828e+00  -1.7172545e+00   3.0927684e+00   3.0443519e+00   6.8364985e+00   0.0000000e+00   0.0000000e+00   0.0000000e+00   0.0000000e+00
  -6.9273576e+00  -1.5141291e+00   7.0002812e+00  -4.6558788e+00  -9.3243242e+00   3.4136436e+00  -9.4126822e-01   5.5814931e-01  -1.0845362e+01  -4.7447165e+00   1.7265199e+00  -3.8332855e+00  -1.2959188e+01  -1.6399716e+01  -5.9998926e-01   4.9429839e+00  -1.3117800e+00   3.3464017e+00   1.8397292e+00   5.9376813e+00   0.0000000e+00   0.0000000e+00   0.0000000e+00   0.0000000e+00
  -6.1984470e+00  -1.5452889e+00   6.6631540e+00  -3.1067480e+00  -8.7019546e+00   2.8049765e+00  -2.4695337e+00   7.5750656e-02  -1.0726464e+01  -4.0826196e+00   8.6990888e-01  -2.6204276e+00  -1.2206668e+01  -1.6563900e+01  -1.4510521e+00   4.3988481e+00  -4.6011062e-01   3.6609456e+00   6.9056754e-01   4.9080177e+00   0.0000000e+00   0.0000000e+00   0.0000000e+00   0.0000000e+00
  -5.9772357e+00  -2.0731996e+00   5.9261500e+00  -1.7929934e+00  -8.4339629e+00   1.7596386e+00  -3.8491935e+00  -5.2599791e-01  -1.0507009e+01  -3.1298031e+00   4.1511219e-01  -1.5377354e+00  -1.1188859e+01  -1.5980806e+01  -1.5857696e+00   3.8539291e+00   3.4882182e-01   3.6964090e+00  -1.7040026e-01   4.2186995e+00   0.0000000e+00   0.0000000e+00   0.0000000e+00   0.0000000e+00
  -6.0966616e+00  -2.8407853e+00   5.1700864e+00  -7.9221929e-01  -8.3963754e+00   7.1731997e-01  -4.6120546e+00  -9.9504701e-01  -1.0138098e+01  -2.2671377e+00   3.4889624e-01  -5.2060468e-01  -1.0044507e+01  -1.5116134e+01  -1.2910164e+00   3.3807889e+00   1.0485092e+00   3.5707026e+00  -6.2973619e-01   4.0051140e+00   0.0000000e+00   0.0000000e+00   0.0000000e+00   0.0000000e+00
  -6.6254483e+00  -3.7335433e+00   4.5184719e+00  -3.3270796e-01  -8.6982866e+00  -2.8082267e-01  -4.8243778e+00  -1.2033735e+00  -9.8052732e+00  -1.7067760e+00   5.9752604e-01   9.1771557e-03  -9.0914919e+00  -1.4382317e+01  -1.0019803e+00   2.9239068e+00   1.3774727e+00   3.4368724e+00  -7.1103533e-01   4.0732280e+00   0.0000000e+00   0.0000000e+00   0.0000000e+00   0.0000000e+00
  -7.7496332e+00  -4.6738925e+00   4.0099648e+00  -4.5348140e-01  -9.5566142e+00  -1.4076131e+00  -4.8366089e+00  -1.1049232e+00  -9.4220148e+00  -1.1663703e+00   1.1724143e+00  -1.8126554e-01  -8.5395314e+00  -1.3830888e+01  -7.0390689e-01   2.5230134e+00   1.1935641e+00   3.2931206e+00  -4.7599128e-01   4.2824031e+00   1.0000000e+03   0.0000000e+00   0.0000000e+00   0.0000000e+00
  -9.2750498e+00  -5.5611975e+00   3.5367508e+00  -1.0104876e+00  -1.0928058e+01  -2.7496369e+00  -5.0305175e+00  -8.0808134e-01  -8.9550546e+00  -1.0059347e-01   1.9896454e+00  -8.8537004e-01  -8.3469278e+00  -1.3345873e+01  -2.8378726e-01   2.1444758e+00   6.2143125e-01   2.9969970e+00  -1.2468003e-01   4.5538640e+00   1.0000000e+03   0.0000000e+00   0.0000000e+00   0.0000000e+00
  -1.0535434e+01  -6.4288894e+00   2.8161726e+00  -1.7787638e+00  -1.2439182e+01  -4.1227175e+00  -5.7566971e+00  -7.7322645e-01  -8.5946488e+00   1.1257223e+00   2.7939455e+00  -1.9177183e+00  -8.4633665e+00  -1.3017572e+01   3.5437026e-02   1.7214538e+00  -1.3206930e-01   2.4323496e+00  -3.4293612e-03   4.6176627e+00   1.0000000e+03   3.0000000e+01   0.0000000e+00   0.0000000e+00
  -1.0918502e+01  -7.0924239e+00   1.7170057e+00  -2.4390013e+00  -1.3639433e+01  -5.0758145e+00  -6.7649777e+00  -1.1475247e+00  -8.6286666e+00   1.6087892e+00   3.2817399e+00  -3.2117936e+00  -9.0018155e+00  -1.3165764e+01  -1.8692850e-02   1.1431357e+00  -8.8981326e-01   1.7610684e+00  -2.3544193e-01   4.3504336e+00   1.0000000e+03   3.0000000e+01   0.0000000e+00   0.0000000e+00
  -1.0253372e+01  -7.2116284e+00   4.0083424e-01  -2.5882148e+00  -1.4208436e+01  -5.2550647e+00  -7.5922614e+00  -1.8126501e+00  -9.0077436e+00   1.2362276e+00   3.2752197e+00  -4.4907375e+00  -9.8030675e+00  -1.3817131e+01  -4.9618769e-01   3.0008650e-01  -1.5028689e+00   1.2690587e+00  -7.2210755e-01   3.8957820e+00   1.0000000e+03   3.0000000e+01   0.0000000e+00   0.0000000e+00
  -8.7437864e+00  -6.8800783e+00  -1.0421330e+00  -2.0981472e+00  -1.4113140e+01  -4.9138016e+00  -8.1707009e+00  -2.8846181e+00  -9.5685819e+00   4.8141108e-01   2.6869748e+00  -5.2546338e+00  -1.0451796e+01  -1.4627023e+01  -1.2930028e+00  -8.7101301e-01  -1.8632687e+00   9.6250638e-01  -1.3934782e+00   3.1691733e+00   0.0000000e+00   3.0000000e+01   0.0000000e+00   0.0000000e+00
  -6.8750414e+00  -6.3465604e+00  -2.3635977e+00  -1.0488016e+00  -1.3469949e+01  -4.5582308e+00  -8.5941051e+00  -4.1760702e+00  -1.0248697e+01  -5.9595469e-01   1.5542343e+00  -5.3140042e+00  -1.0710985e+01  -1.5434828e+01  -2.2875205e+00  -2.1862692e+00  -1.8174901e+00   7.7382810e-01  -2.2055016e+00   2.2077687e+00   0.0000000e+00   3.0000000e+01   0.0000000e+00   0.0000000e+00
  -5.1290713e+00  -5.8323104e+00  -3.1043935e+00   2.8887592e-01  -1.2493494e+01  -4.4679735e+00  -8.9334178e+00  -5.2118244e+00  -1.0926421e+01  -1.9592412e+00   1.7821997e-01  -5.0749209e+00  -1.0682548e+01  -1.6322760e+01  -3.3210110e+00  -3.3406703e+00  -1.3321118e+00   7.8912824e-01  -3.0583790e+00   1.2564890e+00   0.0000000e+00   3.0000000e+01   0.0000000e+00   0.0000000e+00
  -4.1722630e+00  -5.4612576e+00  -3.0451087e+00   1.2120294e+00  -1.1735839e+01  -4.7901020e+00  -9.0548279e+00  -5.2179097e+00  -1.1580956e+01  -3.1491365e+00  -1.0645274e+00  -5.1452220e+00  -1.0666807e+01  -1.7285893e+01  -4.1745360e+00  -4.1592777e+00  -7.8405954e-01   9.4894797e-01  -3.7931243e+00   8.7336012e-01   0.0000000e+00   3.0000000e+01   0.0000000e+00   0.0000000e+00
  -4.5595670e+00  -5.6066501e+00  -2.5448319e+00   9.1749028e-01  -1.1973717e+01  -5.6802872e+00  -9.2346097e+00  -4.5402755e+00  -1.2463687e+01  -4.1319884e+00  -2.2465188e+00  -6.0390856e+00  -1.1042892e+01  -1.8444071e+01  -4.8442791e+00  -4.9144284e+00  -9.9129098e-01   6.1959842e-01  -4.4909747e+00   9.4306474e-01   0.0000000e+00   3.0000000e+01   0.0000000e+00   0.0000000e+00
  -5.9596284e+00  -6.2036292e+00  -1.9140282e+00  -1.9921425e-01  -1.3095920e+01  -6.6512270e+00  -9.1794641e+00  -3.7388834e+00  -1.3048171e+01  -4.6107384e+00  -3.0587274e+00  -7.3699290e+00  -1.1394613e+01  -1.9226348e+01  -5.0661747e+00  -5.4617975e+00  -1.9593935e+00  -6.7041594e-02  -4.8008209e+00   1.2100510e+00   0.0000000e+00   3.0000000e+01   0.0000000e+00   0.0000000e+00
  -7.5058418e+00  -6.7110432e+00  -1.2511903e+00  -1.3612726e+00  -1.4256767e+01  -6.8219026e+00  -8.3123933e+00  -2.7699320e+00  -1.2830671e+01  -4.1401979e+00  -3.0075116e+00  -8.3662644e+00  -1.1101553e+01  -1.8766009e+01  -4.4093920e+00  -5.2974669e+00  -2.8709432e+00  -2.8313919e-01  -4.0605962e+00   1.8544523e+00   0.0000000e+00   3.0000000e+01   0.0000000e+00   0.0000000e+00
  -8.6309284e+00  -6.9326264e+00  -8.1233972e-01  -2.3023149e+00  -1.4877536e+01  -6.0849681e+00  -7.0175429e+00  -1.8733392e+00  -1.2285963e+01  -2.9504508e+00  -2.4276129e+00  -8.9610512e+00  -1.0396436e+01  -1.7247075e+01  -3.1141279e+00  -4.5619583e+00  -3.3003297e+00  -2.6045417e-03  -2.6024424e+00   2.7296598e+00   0.0000000e+00   3.0000000e+01   0.0000000e+00   0.0000000e+00
  -9.0461180e+00  -6.9538226e+00  -8.5225601e-01  -2.8172291e+00  -1.4958287e+01  -5.1349697e+00  -6.0837429e+00  -1.3605630e+00  -1.2053061e+01  -1.7655146e+00  -2.0863735e+00  -9.4324949e+00  -9.8649211e+00  -1.5756647e+01  -1.9954552e+00  -3.8831889e+00  -3.4147235e+00   1.8745503e-01  -1.5269864e+00   3.4809580e+00   0.0000000e+00   3.0000000e+01   0.0000000e+00   0.0000000e+00
  -8.7411762e+00  -6.8525616e+00  -1.3489108e+00  -2.7853546e+00  -1.4660954e+01  -4.3879866e+00  -5.8300208e+00  -1.3019639e+00  -1.2154176e+01  -1.3100511e+00  -2.3402952e+00  -9.6168183e+00  -9.6680978e+00  -1.4993499e+01  -1.6760282e+00  -3.6229517e+00  -3.4122626e+00  -9.2776313e-02  -1.5033191e+00   3.9117156e+00   0.0000000e+00   3.0000000e+01   0.0000000e+00   0.0000000e+00
  -8.1837419e+00  -6.7080319e+00  -2.0946581e+00  -2.3232481e+00  -1.4051918e+01  -3.9046159e+00  -6.2202472e+00  -1.6033228e+00  -1.2221347e+01  -1.7409442e+00  -3.1217477e+00  -9.1871606e+00  -9.4523027e+00  -1.4837724e+01  -2.2566184e+00  -3.7632275e+00  -3.1726190e+00  -7.6883450e-01  -2.4179781e+00   4.0100396e+00   0.0000000e+00   3.0000000e+01   0.0000000e+00   0.0000000e+00
  -8.0290982e+00  -6.8926371e+00  -2.8346148e+00  -1.9131987e+00  -1.3491692e+01  -3.9974756e+00  -7.2669343e+00  -2.2767850e+00  -1.2213446e+01  -2.7335100e+00  -4.1707859e+00  -8.3540145e+00  -9.0578126e+00  -1.5026974e+01  -3.5041915e+00  -4.1648564e+00  -2.7501063e+00  -1.8196565e+00  -4.0123160e+00   3.7314169e+00   0.0000000e+00   3.0000000e+01   0.0000000e+00   0.0000000e+00
  -8.5334134e+00  -7.6081687e+00  -3.3499125e+00  -2.0837900e+00  -1.3491950e+01  -4.9247884e+00  -8.8024495e+00  -3.1371174e+00  -1.2380166e+01  -4.1928200e+00  -5.2419418e+00  -7.7649992e+00  -8.8242620e+00  -1.5621362e+01  -5.1208265e+00  -4.6930318e+00  -2.5176456e+00  -3.3809681e+00  -6.1099439e+00   3.1180399e+00   0.0000000e+00   3.0000000e+01   0.0000000e+00   0.0000000e+00
  -9.6458354e+00  -8.4199258e+00  -3.4000408e+00  -2.8101980e+00  -1.4104072e+01  -6.4053066e+00  -1.0392288e+01  -3.8066176e+00  -1.2581024e+01  -5.8634427e+00  -6.0409827e+00  -7.6385372e+00  -8.8615631e+00  -1.6564859e+01  -6.7145836e+00  -5.1804926e+00  -2.5899706e+00  -5.1604038e+00  -8.3350660e+00   2.4023138e+00   0.0000000e+00   3.0000000e+01   0.0000000e+00   0.0000000e+00
  -1.0835615e+01  -8.8673828e+00  -3.0065407e+00  -3.8419168e+00  -1.5014534e+01  -7.9976723e+00  -1.1755912e+01  -4.2868037e+00  -1.2641453e+01  -7.2781621e+00  -6.5776374e+00  -7.9928203e+00  -9.2118847e+00  -1.7819975e+01  -8.0445197e+00  -5.7951945e+00  -3.0117542e+00  -6.8710873e+00  -1.0331886e+01   1.6185126e+00   0.0000000e+00   3.0000000e+01   0.0000000e+00   0.0000000e+00
  -1.1045725e+01  -8.5178670e+00  -2.2857481e+00  -4.5528892e+00  -1.5474816e+01  -9.0053162e+00  -1.2539479e+01  -4.5546915e+00  -1.2556017e+01  -8.0633884e+00  -6.9658152e+00  -8.5704999e+00  -9.6599739e+00  -1.9148595e+01  -8.9682506e+00  -6.6806947e+00  -3.4758745e+00  -8.2999850e+00  -1.1793548e+01   8.7527625e-01   0.0000000e+00   3.0000000e+01   0.0000000e+00   0.0000000e+00
  -9.9748939e+00  -7.5066133e+00  -1.4653488e+00  -4.6207827e+00  -1.5162393e+01  -9.1763330e+00  -1.2706206e+01  -4.7151345e+00  -1.2545253e+01  -8.1971366e+00  -7.1285343e+00  -9.2415358e+00  -9.9394736e+00  -2.0094764e+01  -9.2833024e+00  -7.5938536e+00  -3.6389094e+00  -9.3499445e+00  -1.2530350e+01   2.9956554e-01   0.0000000e+00   3.0000000e+01   0.0000000e+00   0.0000000e+00
  -8.5032650e+00  -6.4575884e+00  -6.6945362e-01  -4.3059834e+00  -1.4572717e+01  -8.8193414e+00  -1.2274018e+01  -4.6226026e+00  -1.2792776e+01  -7.8882684e+00  -6.8330501e+00  -1.0160133e+01  -1.0086202e+01  -2.0393355e+01  -8.8259852e+00  -8.0055814e+00  -3.6040965e+00  -9.9022507e+00  -1.2453668e+01   2.0022823e-01   0.0000000e+00   3.0000000e+01   0.0000000e+00   0.0000000e+00
  -7.5170640e+00  -5.8639627e+00   9.5996033e-02  -4.0726160e+00  -1.4216603e+01  -8.1261278e+00  -1.1167192e+01  -3.9983609e+00  -1.3210288e+01  -7.3217204e+00  -5.9166651e+00  -1.1383934e+01  -1.0201106e+01  -2.0080632e+01  -7.4676237e+00  -7.6057342e+00  -3.6638126e+00  -9.7948047e+00  -1.1483164e+01   8.3908497e-01   0.0000000e+00   3.0000000e+01   0.0000000e+00   0.0000000e+00
  -7.3296286e+00  -5.8948409e+00   8.2058249e-01  -4.2336651e+00  -1.4242766e+01  -7.0662864e+00  -9.4310571e+00  -2.9257734e+00  -1.3423425e+01  -6.5146100e+00  -4.3849195e+00  -1.2890592e+01  -1.0281831e+01  -1.9046286e+01  -5.1178094e+00  -6.4168782e+00  -3.9138707e+00  -9.0985905e+00  -9.5676798e+00   2.0568110e+00   0.0000000e+00   3.0000000e+01   0.0000000e+00   0.0000000e+00
  -7.9078455e+00  -6.3557586e+00   1.4835665e+00  -4.6559193e+00  -1.4571860e+01  -5.6167010e+00  -7.2418622e+00  -1.6481044e+00  -1.3306104e+01  -5.4463357e+00  -2.5734189e+00  -1.4553782e+01  -1.0296954e+01  -1.7380393e+01  -2.1353586e+00  -4.7698802e+00  -4.2516884e+00  -8.1311875e+00  -6.9101857e+00   3.4954272e+00   0.0000000e+00   3.0000000e+01   0.0000000e+00   0.0000000e+00
  -8.5680009e+00  -6.8787008e+00   2.0157416e+00  -4.6850571e+00  -1.4804006e+01  -3.7410865e+00  -4.9300166e+00  -3.5412095e-01  -1.2800685e+01  -4.1592925e+00  -8.5010320e-01  -1.5806110e+01  -1.0014165e+01  -1.5293056e+01   7.2739491e-01  -3.0163893e+00  -4.2388134e+00  -6.9782601e+00  -4.0449007e+00   4.8976557e+00   0.0000000e+00   3.0000000e+01   0.0000000e+00   0.0000000e+00
  -8.7427350e+00  -7.2516388e+00   2.1845076e+00  -4.1151064e+00  -1.4662865e+01  -1.8720509e+00  -3.2683112e+00   5.0920249e-01  -1.2092971e+01  -3.1116229e+00   4.1546453e-01  -1.6294726e+01  -9.4439286e+00  -1.3219601e+01   2.6620424e+00  -1.6381223e+00  -3.7523377e+00  -5.6723406e+00  -1.8407557e+00   5.8649159e+00   0.0000000e+00   3.0000000e+01   0.0000000e+00   0.0000000e+00
  -8.3979170e+00  -7.4084355e+00   1.8378683e+00  -3.2983219e+00  -1.4350262e+01  -6.8052667e-01  -2.8503847e+00   4.2990212e-01  -1.1793358e+01  -2.9425393e+00   8.5817972e-01  -1.6405831e+01  -9.1000110e+00  -1.1892283e+01   3.0903544e+00  -1.2585338e+00  -3.4360458e+00  -4.6782106e+00  -1.0587578e+00   5.8700659e+00   0.0000000e+00   3.0000000e+01   0.0000000e+00   0.0000000e+00
  -7.7141484e+00  -7.3848330e+00   1.0329028e+00  -2.6489463e+00  -1.4288104e+01  -5.3857177e-01  -3.4873589e+00  -4.8740124e-01  -1.2388370e+01  -3.7331560e+00   5.0141658e-01  -1.6887926e+01  -9.6174000e+00  -1.1794914e+01   1.9635520e+00  -2.1090293e+00  -4.0834707e+00  -4.5632366e+00  -1.8323546e+00   4.8223994e+00   0.0000000e+00   3.0000000e+01   0.0000000e+00   0.0000000e+00
  -6.8614643e+00  -7.1964355e+00   2.2347031e-02  -2.3563376e+00  -1.4629491e+01  -1.3247268e+00  -4.5154187e+00  -1.5993233e+00  -1.3628236e+01  -4.8593141e+00  -1.1844013e-01  -1.7788406e+01  -1.0982532e+01  -1.2714259e+01  -1.8839391e-02  -3.7029579e+00  -5.7558707e+00  -5.3415952e+00  -3.5924258e+00   3.3106125e+00   0.0000000e+00   3.0000000e+01   0.0000000e+00   0.0000000e+00
  -5.9020453e+00  -6.9953910e+00  -9.3689850e-01  -2.3452676e+00  -1.5135859e+01  -2.6318416e+00  -5.5114072e+00  -2.5625302e+00  -1.4942174e+01  -5.6244257e+00  -5.4429407e-01  -1.8613469e+01  -1.2440837e+01  -1.3870615e+01  -2.0079983e+00  -5.3478737e+00  -7.7357800e+00  -6.5349953e+00  -5.4763073e+00   1.8996244e+00   0.0000000e+00   3.0000000e+01   0.0000000e+00   0.0000000e+00
  -4.9540944e+00  -6.8806184e+00  -1.5977134e+00  -2.1683180e+00  -1.5449673e+01  -3.8602471e+00  -6.2291192e+00  -3.2879904e+00  -1.5723517e+01  -5.7938317e+00  -6.0289974e-01  -1.9113597e+01  -1.3145015e+01  -1.4515731e+01  -3.5287096e+00  -6.6076899e+00  -9.0922367e+00  -7.5989957e+00  -6.8241408e+00   8.5783063e-01   0.0000000e+00   3.0000000e+01   0.0000000e+00   0.0000000e+00
  -4.1445699e+00  -6.8751838e+00  -1.9564061e+00  -1.7742278e+00  -1.5593921e+01  -4.6578615e+00  -6.5988682e+00  -3.8070845e+00  -1.5698895e+01  -5.5196532e+00  -3.7762802e-01  -1.9291817e+01  -1.2849164e+01  -1.4575423e+01  -4.5407110e+00  -7.5222364e+00  -9.4729700e+00  -8.3648312e+00  -7.5493955e+00   9.3592147e-02   0.0000000e+00   3.0000000e+01   0.0000000e+00   0.0000000e+00
  -3.5895404e+00  -6.9331583e+00  -2.1542198e+00  -1.3595227e+00  -1.5706976e+01  -5.0481920e+00  -6.6766287e+00  -4.1222129e+00  -1.4917060e+01  -4.8357362e+00   3.4748564e-02  -1.9041571e+01  -1.1797266e+01  -1.4192483e+01  -5.2513306e+00  -8.2445914e+00  -9.0793717e+00  -8.7373729e+00  -7.9388450e+00  -5.3234950e-01   0.0000000e+00   3.0000000e+01   0.0000000e+00   0.0000000e+00
  -3.5368482e+00  -7.0672002e+00  -2.3762225e+00  -1.0050407e+00  -1.5950280e+01  -5.2800836e+00  -6.6676970e+00  -4.3237748e+00  -1.3775634e+01  -3.8335439e+00   4.2162335e-01  -1.8405915e+01  -1.0497903e+01  -1.3433355e+01  -5.8574882e+00  -8.8177784e+00  -8.2898396e+00  -8.6416825e+00  -8.1969355e+00  -1.0541363e+00   0.0000000e+00   3.0000000e+01   0.0000000e+00   0.0000000e+00
  -3.7718079e+00  -7.1628180e+00  -2.5844912e+00  -5.4555518e-01  -1.6111225e+01  -5.3407199e+00  -6.5340943e+00  -4.2955920e+00  -1.2640955e+01  -2.6460254e+00   7.4948968e-01  -1.7553179e+01  -9.1503027e+00  -1.2193541e+01  -6.1655572e+00  -9.0151206e+00  -7.1388613e+00  -7.9956950e+00  -8.0921925e+00  -1.2856424e+00   0.0000000e+00   3.0000000e+01   0.0000000e+00   0.0000000e+00
  -3.7878463e+00  -7.1469909e+00  -2.7125521e+00  -8.0535550e-02  -1.5978669e+01  -5.1717263e+00  -6.2784622e+00  -4.0625115e+00  -1.1891642e+01  -1.6772713e+00   9.3193786e-01  -1.6750366e+01  -7.9527363e+00  -1.0836340e+01  -6.1201585e+00  -8.8701611e+00  -5.7895765e+00  -7.0405899e+00  -7.6017133e+00  -1.2332818e+00   0.0000000e+00   3.0000000e+01   0.0000000e+00   0.0000000e+00
  -3.3104245e+00  -6.9331597e+00  -2.6929818e+00   3.3972200e-01  -1.5475270e+01  -4.8349257e+00  -6.0423794e+00  -3.8177001e+00  -1.1646764e+01  -1.4074480e+00   8.4966119e-01  -1.5875357e+01  -7.0290241e+00  -9.9366771e+00  -5.9347835e+00  -8.5254523e+00  -4.4404871e+00  -6.0662515e+00  -7.0429056e+00  -1.0078784e+00   0.0000000e+00   3.0000000e+01   0.0000000e+00   0.0000000e+00
  -2.2177101e+00  -6.4406514e+00  -2.4993302e+00   1.0355638e+00  -1.4484604e+01  -4.2101234e+00  -5.6818073e+00  -3.4797893e+00  -1.1708388e+01  -1.7998262e+00   5.3429641e-01  -1.4868024e+01  -6.2226795e+00  -9.6025963e+00  -5.6725147e+00  -7.9554893e+00  -2.9600957e+00  -4.9718473e+00  -6.4578194e+00  -4.9711189e-01   0.0000000e+00   3.0000000e+01   0.0000000e+00   0.0000000e+00
  -7.7915632e-01  -5.6781793e+00  -2.2148972e+00   1.8442942e+00  -1.3104597e+01  -2.9895232e+00  -4.9704897e+00  -2.9488405e+00  -1.2061771e+01  -2.6046636e+00  -1.1706420e-02  -1.4143430e+01  -5.5566614e+00  -9.6296605e+00  -5.3491817e+00  -7.2280818e+00  -1.4202796e+00  -3.8229021e+00  -5.8047654e+00   3.5259104e-01   0.0000000e+00   3.0000000e+01   0.0000000e+00   0.0000000e+00
   6.7849396e-01  -4.7106138e+00  -1.8391092e+00   2.5006997e+00  -1.1599952e+01  -1.1916512e+00  -4.1382022e+00  -2.3019832e+00  -1.2693516e+01  -3.6102592e+00  -6.5598823e-01  -1.3627292e+01  -5.0548191e+00  -9.7743663e+00  -5.0506742e+00  -6.4837061e+00  -8.8766755e-02  -2.7842724e+00  -5.1894934e+00   1.3952736e+00   0.0000000e+00   3.0000000e+01   0.0000000e+00   0.0000000e+00
   2.0223645e+00  -3.6810106e+00  -1.4075770e+00   3.2671006e+00  -1.0215341e+01   5.2446365e-01  -3.6408550e+00  -1.6339840e+00  -1.3132284e+01  -4.3469182e+00  -1.0941027e+00  -1.2782360e+01  -4.4129318e+00  -9.7415620e+00  -4.9077861e+00  -5.7707836e+00   9.5087114e-01  -1.7052440e+00  -4.8161390e+00   2.4078316e+00   0.0000000e+00   3.0000000e+01   0.0000000e+00   0.0000000e+00
   3.1518965e+00  -2.8476189e+00  -1.0848226e+00   4.1757508e+00  -9.1426138e+00   1.2861817e+00  -3.6716115e+00  -1.0303536e+00  -1.2888411e+01  -4.5702950e+00  -1.1898357e+00  -1.1567151e+01  -3.4081648e+00  -9.2786498e+00  -4.9832408e+00  -5.1731895e+00   1.6512723e+00  -4.6773805e-01  -4.8169685e+00   3.1633359e+00   0.0000000e+00   3.0000000e+01   0.0000000e+00   0.0000000e+00
   3.9486272e+00  -2.3924861e+00  -8.1709594e-01   4.9382310e+00  -8.4327670e+00   9.8369755e-01  -4.0163998e+00  -4.1165587e-01  -1.1857344e+01  -4.3900024e+00  -1.0094912e+00  -1.0234675e+01  -2.1167531e+00  -8.2899689e+00  -5.0741668e+00  -4.6583891e+00   1.9849345e+00   8.0187798e-01  -5.0557552e+00   3.7353491e+00   0.0000000e+00   3.0000000e+01   0.0000000e+00   0.0000000e+00
   4.4534367e+00  -2.3386237e+00  -4.6808910e-01   5.4605911e+00  -8.0640675e+00   2.0075119e-01  -4.3983866e+00   3.0475762e-01  -1.0489374e+01  -4.0951245e+00  -8.1385843e-01  -8.9972390e+00  -9.7128263e-01  -7.1900613e+00  -5.0642200e+00  -4.1794507e+00   1.9481267e+00   1.9032815e+00  -5.3690603e+00   4.2425548e+00   0.0000000e+00   3.0000000e+01   0.0000000e+00   0.0000000e+00
   4.7194497e+00  -2.5564120e+00   3.4575608e-02   5.8076735e+00  -8.0770153e+00  -4.8682132e-01  -4.5637974e+00   1.1347401e+00  -9.5181615e+00  -4.1638369e+00  -8.8404890e-01  -8.0100888e+00  -3.6972497e-01  -6.4612126e+00  -5.1337849e+00  -3.7425825e+00   1.4982310e+00   2.7837296e+00  -5.7194808e+00   4.6713982e+00   0.0000000e+00   3.0000000e+01   0.0000000e+00   0.0000000e+00
   4.7255698e+00  -2.7805512e+00   8.2244855e-01   5.7322453e+00  -8.4012913e+00  -7.6790601e-01  -4.3170358e+00   2.0605726e+00  -9.4590297e+00  -4.7093062e+00  -1.2808518e+00  -7.5706987e+00  -5.4023994e-01  -6.1657449e+00  -5.3068297e+00  -3.1910633e+00   5.7324708e-01   3.4766901e+00  -5.9455217e+00   5.0859196e+00   0.0000000e+00   3.0000000e+01   0.0000000e+00   0.0000000e+00
   4.4964958e+00  -2.6662371e+00   2.0715645e+00   5.1808893e+00  -8.8429690e+00  -6.0595985e-01  -3.5958373e+00   3.1499122e+00  -1.0344692e+01  -5.5016561e+00  -1.8217664e+00  -8.0344082e+00  -1.5541616e+00  -6.2120871e+00  -5.4301642e+00  -2.3248251e+00  -7.6989108e-01   3.8006011e+00  -5.9553001e+00   5.6667483e+00   0.0000000e+00   3.0000000e+01   0.0000000e+00   0.0000000e+00
   4.0228276e+00  -2.2636179e+00   3.5477371e+00   4.3115575e+00  -9.4959923e+00  -4.1499199e-01  -2.7876662e+00   4.1633245e+00  -1.2003343e+01  -6.4347059e+00  -2.4410861e+00  -9.5263607e+00  -3.3274027e+00  -6.6530775e+00  -5.6687329e+00  -1.4066386e+00  -2.4550217e+00   3.4150765e+00  -6.0754186e+00   6.2200001e+00   0.0000000e+00   3.0000000e+01   0.0000000e+00   0.0000000e+00
   3.6661198e+00  -1.8477300e+00   4.7181464e+00   3.1990660e+00  -1.0409868e+01  -5.7826236e-01  -2.2912468e+00   4.7642123e+00  -1.3817693e+01  -7.3673171e+00  -3.1499688e+00  -1.1638665e+01  -5.5414504e+00  -7.3088922e+00  -6.3051608e+00  -8.9105535e-01  -4.2735978e+00   2.2908055e+00  -6.6701465e+00   6.3738026e+00   0.0000000e+00   3.0000000e+01   0.0000000e+00   0.0000000e+00
   3.5771132e+00  -1.6057071e+00   5.2259516e+00   1.8915058e+00  -1.1404064e+01  -1.1662444e+00  -2.2772183e+00   4.9442161e+00  -1.5200957e+01  -8.1743382e+00  -3.8700227e+00  -1.3797730e+01  -7.8005108e+00  -8.1194265e+00  -7.4786585e+00  -9.9856183e-01  -5.9579859e+00   7.4474901e-01  -7.8703617e+00   6.1178152e+00   0.0000000e+00   3.0000000e+01   0.0000000e+00   0.0000000e+00
   3.4251056e+00  -1.8761261e+00   4.9853491e+00   5.5073360e-01  -1.2231717e+01  -2.1205315e+00  -3.0569634e+00   4.3836307e+00  -1.6005877e+01  -8.7927270e+00  -4.5318542e+00  -1.5734127e+01  -9.8290984e+00  -9.1119942e+00  -9.0234125e+00  -1.6724209e+00  -7.3390931e+00  -1.0974203e+00  -9.5826711e+00   5.3792716e+00   0.0000000e+00   3.0000000e+01   0.0000000e+00   0.0000000e+00
   2.9840603e+00  -2.8702114e+00   4.0659244e+00  -7.5930114e-01  -1.2830792e+01  -3.5220926e+00  -4.5579272e+00   3.0296360e+00  -1.6382583e+01  -9.3958254e+00  -5.2290741e+00  -1.7336326e+01  -1.1400247e+01  -1.0198844e+01  -1.0739528e+01  -2.6995787e+00  -8.3639243e+00  -3.1680077e+00  -1.1632355e+01   4.0392278e+00   0.0000000e+00   3.0000000e+01   0.0000000e+00   0.0000000e+00
   2.2244180e+00  -4.2693606e+00   2.7107734e+00  -2.0260584e+00  -1.3419698e+01  -5.4799088e+00  -6.2561764e+00   1.6725911e+00  -1.6509287e+01  -9.9145117e+00  -6.0797977e+00  -1.8407047e+01  -1.2416031e+01  -1.1446628e+01  -1.2565846e+01  -3.8361187e+00  -9.1810830e+00  -5.2458504e+00  -1.3902625e+01   2.4751175e+00   0.0000000e+00   3.0000000e+01   0.0000000e+00   0.0000000e+00
   1.2743665e+00  -5.7669657e+00   1.2508591e+00  -3.2347664e+00  -1.4265416e+01  -7.8798170e+00  -8.0032801e+00   5.9559305e-01  -1.6743467e+01  -1.0364594e+01  -7.1093619e+00  -1.9266004e+01  -1.3270090e+01  -1.3213505e+01  -1.4406233e+01  -4.8343130e+00  -1.0190205e+01  -7.2370830e+00  -1.6299432e+01   9.5713690e-01   0.0000000e+00   3.0000000e+01   0.0000000e+00   0.0000000e+00
   3.2413155e-01  -6.9592532e+00   1.4251168e-01  -4.1238315e+00  -1.5157980e+01  -1.0166724e+01  -9.3465076e+00  -1.3828476e-01  -1.7411138e+01  -1.1290495e+01  -8.2444724e+00  -2.0360463e+01  -1.4423603e+01  -1.5646664e+01  -1.5987478e+01  -5.4628636e+00  -1.1465277e+01  -9.0915435e+00  -1.8451371e+01  -2.0697559e-01   0.0000000e+00   3.0000000e+01   0.0000000e+00   0.0000000e+00
  -7.2316445e-01  -7.4531711e+00  -2.9291083e-01  -4.6994977e+00  -1.5702266e+01  -1.1719860e+01  -9.6930567e+00  -2.7605704e-01  -1.8383335e+01  -1.2788633e+01  -9.2218411e+00  -2.1774195e+01  -1.5750190e+01  -1.8180982e+01  -1.6873637e+01  -5.6260123e+00  -1.2720717e+01  -1.0686717e+01  -1.9745690e+01  -5.6936341e-01   0.0000000e+00   3.0000000e+01   0.0000000e+00   0.0000000e+00
  -2.0783366e+00  -7.5134472e+00  -1.5984746e-01  -5.4367340e+00  -1.5921689e+01  -1.2409181e+01  -9.2036837e+00   2.5661852e-02  -1.9470018e+01  -1.4172862e+01  -9.6628440e+00  -2.3292583e+01  -1.6745066e+01  -1.9853927e+01  -1.6812665e+01  -5.2912970e+00  -1.3759966e+01  -1.1861302e+01  -1.9885577e+01  -2.3478623e-01   0.0000000e+00   3.0000000e+01   0.0000000e+00   0.0000000e+00
  -3.5820646e+00  -7.8628517e+00  -2.7168061e-02  -6.7572176e+00  -1.6487183e+01  -1.2822198e+01  -8.5152782e+00   4.1705581e-01  -2.0785038e+01  -1.4976756e+01  -9.7482134e+00  -2.5007706e+01  -1.7456972e+01  -2.0481501e+01  -1.6164500e+01  -4.7902595e+00  -1.4935157e+01  -1.2831729e+01  -1.9308705e+01   2.4461574e-01   0.0000000e+00   3.0000000e+01   0.0000000e+00   0.0000000e+00
  -5.0025416e+00  -8.7198177e+00  -3.7705168e-01  -8.6464719e+00  -1.7949689e+01  -1.3573965e+01  -8.2865702e+00   5.6981601e-01  -2.2235255e+01  -1.5428448e+01  -9.9437127e+00  -2.6988061e+01  -1.8238445e+01  -2.0755245e+01  -1.5509398e+01  -4.6011684e+00  -1.6709712e+01  -1.4155735e+01  -1.8905828e+01   4.4096343e-01   0.0000000e+00   3.0000000e+01   0.0000000e+00   0.0000000e+00
  -6.1809576e+00  -9.6070965e+00  -1.1530535e+00  -1.0594200e+01  -1.9817915e+01  -1.4534924e+01  -8.6997791e+00   3.1555268e-01  -2.3177845e+01  -1.5650204e+01  -1.0304042e+01  -2.8563759e+01  -1.8847564e+01  -2.1201317e+01  -1.5147535e+01  -4.7897669e+00  -1.8711526e+01  -1.5856251e+01  -1.9185786e+01   2.0393961e-01   0.0000000e+00   3.0000000e+01   0.0000000e+00   0.0000000e+00
  -6.8458380e+00  -9.9479120e+00  -1.8475938e+00  -1.1863554e+01  -2.1090051e+01  -1.5113998e+01  -9.1611075e+00  -5.8927665e-02  -2.2760135e+01  -1.5211271e+01  -1.0580970e+01  -2.8797893e+01  -1.8531168e+01  -2.1492810e+01  -1.4935566e+01  -5.0605903e+00  -1.9881790e+01  -1.7333868e+01  -1.9846471e+01  -2.4899907e-01   0.0000000e+00   3.0000000e+01   0.0000000e+00   0.0000000e+00
  -7.1042828e+00  -9.9982588e+00  -2.3684944e+00  -1.2272955e+01  -2.1567394e+01  -1.5452758e+01  -9.5274758e+00  -5.4489135e-01  -2.1021296e+01  -1.4177362e+01  -1.0785682e+01  -2.7654955e+01  -1.7217526e+01  -2.1562182e+01  -1.4770531e+01  -5.4909231e+00  -1.9827180e+01  -1.8401418e+01  -2.0583678e+01  -1.0068855e+00   0.0000000e+00   3.0000000e+01   0.0000000e+00   0.0000000e+00
  -7.3706836e+00  -1.0161306e+01  -2.7169512e+00  -1.2005362e+01  -2.1502550e+01  -1.5775341e+01  -9.8874481e+00  -1.0776746e+00  -1.8657532e+01  -1.2976046e+01  -1.0877746e+01  -2.5713412e+01  -1.5352251e+01  -2.1553080e+01  -1.4524879e+01  -6.1601422e+00  -1.8902062e+01  -1.9248103e+01  -2.1149895e+01  -1.9628526e+00   0.0000000e+00   3.0000000e+01   0.0000000e+00   0.0000000e+00
  -7.7266297e+00  -1.0351859e+01  -2.7334574e+00  -1.1357467e+01  -2.1049448e+01  -1.5813058e+01  -1.0016383e+01  -1.3532954e+00  -1.6447723e+01  -1.1922700e+01  -1.0757162e+01  -2.3592328e+01  -1.3376057e+01  -2.1413924e+01  -1.4032313e+01  -6.8506530e+00  -1.7621814e+01  -1.9800684e+01  -2.1227225e+01  -2.6394072e+00   0.0000000e+00   3.0000000e+01   0.0000000e+00   0.0000000e+00
  -7.7792391e+00  -1.0298459e+01  -2.4385965e+00  -1.0715550e+01  -2.0364123e+01  -1.5373250e+01  -9.7037214e+00  -1.2502722e+00  -1.5229277e+01  -1.1498756e+01  -1.0591790e+01  -2.2033422e+01  -1.1864976e+01  -2.1161307e+01  -1.3281332e+01  -7.3880503e+00  -1.6569590e+01  -2.0011631e+01  -2.0783228e+01  -2.8286331e+00   0.0000000e+00   3.0000000e+01   0.0000000e+00   0.0000000e+00
  -7.3712565e+00  -9.9245779e+00  -2.0275083e+00  -1.0375748e+01  -1.9718925e+01  -1.4646993e+01  -9.1565915e+00  -9.6120526e-01  -1.5333114e+01  -1.1780295e+01  -1.0416641e+01  -2.1398812e+01  -1.1106399e+01  -2.0796258e+01  -1.2336482e+01  -7.6163521e+00  -1.6232742e+01  -1.9976246e+01  -2.0058299e+01  -2.6712373e+00   0.0000000e+00   3.0000000e+01   0.0000000e+00   0.0000000e+00
  -6.8707115e+00  -9.5202387e+00  -1.8486549e+00  -1.0748176e+01  -1.9615438e+01  -1.4133584e+01  -8.8581354e+00  -6.9829520e-01  -1.6362407e+01  -1.2593333e+01  -1.0090138e+01  -2.1733025e+01  -1.1095364e+01  -2.0341643e+01  -1.1394190e+01  -7.5242503e+00  -1.6885053e+01  -2.0106039e+01  -1.9440957e+01  -2.3693872e+00   0.0000000e+00   3.0000000e+01   0.0000000e+00   0.0000000e+00
  -6.6760742e+00  -9.3773069e+00  -2.0829218e+00  -1.2034576e+01  -2.0295018e+01  -1.4146953e+01  -9.0655183e+00  -6.1181960e-01  -1.7932816e+01  -1.3800835e+01  -9.6822492e+00  -2.3099002e+01  -1.1916725e+01  -1.9969044e+01  -1.0625402e+01  -7.2296712e+00  -1.8440283e+01  -2.0841101e+01  -1.9176208e+01  -2.1048986e+00   0.0000000e+00   3.0000000e+01   0.0000000e+00   0.0000000e+00
  -6.4830155e+00  -9.1638841e+00  -2.4627891e+00  -1.3476203e+01  -2.1063678e+01  -1.4229409e+01  -9.3409628e+00  -6.2119801e-01  -1.9563048e+01  -1.4995044e+01  -9.3259358e+00  -2.4852512e+01  -1.3196041e+01  -1.9880622e+01  -1.0032100e+01  -6.7313974e+00  -2.0093409e+01  -2.1880017e+01  -1.9062727e+01  -1.8931628e+00   0.0000000e+00   3.0000000e+01   0.0000000e+00   0.0000000e+00
  -5.6733414e+00  -8.5929614e+00  -2.8307270e+00  -1.4145067e+01  -2.1208309e+01  -1.4021614e+01  -9.3905656e+00  -6.6472356e-01  -2.0776020e+01  -1.5946798e+01  -9.2409251e+00  -2.6036893e+01  -1.4387123e+01  -2.0405128e+01  -9.8079826e+00  -6.2029378e+00  -2.1087672e+01  -2.2661211e+01  -1.8962398e+01  -1.8371984e+00   0.0000000e+00   3.0000000e+01   0.0000000e+00   0.0000000e+00
  -4.4895692e+00  -8.0797163e+00  -3.2304720e+00  -1.3897656e+01  -2.0734770e+01  -1.3781676e+01  -9.3914069e+00  -8.0708652e-01  -2.1418582e+01  -1.6588449e+01  -9.4916757e+00  -2.6349859e+01  -1.5223527e+01  -2.1398620e+01  -9.9527238e+00  -5.8473134e+00  -2.1305102e+01  -2.3014485e+01  -1.8952176e+01  -2.0148490e+00   0.0000000e+00   3.0000000e+01   0.0000000e+00   0.0000000e+00
  -3.5796440e+00  -8.0357115e+00  -3.5766823e+00  -1.2916341e+01  -1.9772362e+01  -1.3581610e+01  -9.3864794e+00  -9.5355550e-01  -2.1462318e+01  -1.6637450e+01  -9.8174071e+00  -2.5950637e+01  -1.5406033e+01  -2.2031045e+01  -1.0015277e+01  -5.6166335e+00  -2.0678306e+01  -2.2873016e+01  -1.8891091e+01  -2.1957913e+00   0.0000000e+00   3.0000000e+01   0.0000000e+00   0.0000000e+00
  -3.1083693e+00  -8.2564607e+00  -3.5946810e+00  -1.1418226e+01  -1.8416310e+01  -1.2979358e+01  -9.1154814e+00  -8.6492641e-01  -2.1010595e+01  -1.6148192e+01  -9.9728641e+00  -2.5030895e+01  -1.4783393e+01  -2.1574684e+01  -9.7020674e+00  -5.3859861e+00  -1.9154380e+01  -2.2169654e+01  -1.8496056e+01  -2.1753560e+00   0.0000000e+00   3.0000000e+01   0.0000000e+00   0.0000000e+00
  -3.0766966e+00  -8.5079603e+00  -3.2769321e+00  -1.0023375e+01  -1.6963268e+01  -1.1783596e+01  -8.5075292e+00  -5.3747984e-01  -2.0553228e+01  -1.5617041e+01  -9.9143157e+00  -2.4099160e+01  -1.3808311e+01  -2.0232356e+01  -9.2141604e+00  -5.1414246e+00  -1.7163435e+01  -2.0924919e+01  -1.7697105e+01  -2.0842048e+00   0.0000000e+00   3.0000000e+01   0.0000000e+00   0.0000000e+00
  -3.6613261e+00  -8.8276799e+00  -2.9407205e+00  -9.2916145e+00  -1.5689312e+01  -1.0336428e+01  -7.8167088e+00  -1.5418428e-01  -2.0346976e+01  -1.5160202e+01  -9.6455347e+00  -2.3706596e+01  -1.3084193e+01  -1.8594867e+01  -8.7239278e+00  -4.8196363e+00  -1.5290453e+01  -1.9333689e+01  -1.6596311e+01  -2.0326613e+00   0.0000000e+00   3.0000000e+01   0.0000000e+00   0.0000000e+00
  -4.8366619e+00  -9.3503726e+00  -2.9146128e+00  -9.4216891e+00  -1.4760287e+01  -9.3012509e+00  -7.4305492e+00   8.4999781e-02  -2.0381850e+01  -1.4691898e+01  -9.2595939e+00  -2.4093812e+01  -1.2840665e+01  -1.6946499e+01  -8.1316398e+00  -4.3769142e+00  -1.3852089e+01  -1.7651345e+01  -1.5383683e+01  -2.0462502e+00   0.0000000e+00   3.0000000e+01   0.0000000e+00   0.0000000e+00
  -6.0279281e+00  -9.9761767e+00  -3.1987970e+00  -9.9428641e+00  -1.4066366e+01  -8.9787720e+00  -7.4115069e+00   1.7663726e-01  -2.0445470e+01  -1.4206199e+01  -8.8243505e+00  -2.4887543e+01  -1.2836920e+01  -1.5307664e+01  -7.2950385e+00  -3.8603131e+00  -1.2794083e+01  -1.5984258e+01  -1.4302645e+01  -2.0678648e+00   0.0000000e+00   3.0000000e+01   0.0000000e+00   0.0000000e+00
  -6.5726160e+00  -1.0493204e+01  -3.6354713e+00  -1.0138772e+01  -1.3425940e+01  -9.0933857e+00  -7.6092758e+00   1.4634813e-01  -2.0273308e+01  -1.3537981e+01  -8.2645905e+00  -2.5559851e+01  -1.2752286e+01  -1.3742026e+01  -6.3060316e+00  -3.3667942e+00  -1.2026182e+01  -1.4314651e+01  -1.3588446e+01  -2.0498353e+00   0.0000000e+00   3.0000000e+01   0.0000000e+00   0.0000000e+00
  -6.3122494e+00  -1.0830828e+01  -4.0784274e+00  -9.8895474e+00  -1.2917538e+01  -9.0936358e+00  -7.7917666e+00  -4.6512264e-02  -1.9805345e+01  -1.2618669e+01  -7.4702357e+00  -2.6030657e+01  -1.2474433e+01  -1.2149288e+01  -5.3087076e+00  -3.0131592e+00  -1.1549284e+01  -1.2752103e+01  -1.3184191e+01  -2.0271082e+00   0.0000000e+00   3.0000000e+01   0.0000000e+00   0.0000000e+00
  -5.6609412e+00  -1.1076320e+01  -4.4601414e+00  -9.4119572e+00  -1.2547406e+01  -8.5796787e+00  -7.7256533e+00  -4.2475817e-01  -1.9062282e+01  -1.1670728e+01  -6.4927342e+00  -2.6220597e+01  -1.1951687e+01  -1.0381979e+01  -4.2878547e+00  -2.8541635e+00  -1.1155893e+01  -1.1450868e+01  -1.2782807e+01  -2.0305858e+00   0.0000000e+00   3.0000000e+01   0.0000000e+00   0.0000000e+00
  -5.0452100e+00  -1.1225159e+01  -4.6579651e+00  -8.5868713e+00  -1.1926537e+01  -7.4741983e+00  -7.2001521e+00  -7.4542693e-01  -1.7906219e+01  -1.0664417e+01  -5.3881319e+00  -2.5636281e+01  -1.0909372e+01  -8.3880244e+00  -3.0915130e+00  -2.6524335e+00  -1.0233676e+01  -1.0244246e+01  -1.2059249e+01  -1.8490435e+00   0.0000000e+00   3.0000000e+01   0.0000000e+00   0.0000000e+00
  -4.6282582e+00  -1.1254352e+01  -4.7049185e+00  -7.2253380e+00  -1.1030711e+01  -6.2343090e+00  -6.2950477e+00  -8.1757397e-01  -1.6504649e+01  -9.5404595e+00  -4.2934876e+00  -2.4429106e+01  -9.3820350e+00  -6.5062276e+00  -1.8294092e+00  -2.2610922e+00  -8.6000686e+00  -8.8111000e+00  -1.0947638e+01  -1.3111200e+00   0.0000000e+00   3.0000000e+01   5.0000000e+01   0.0000000e+00
  -4.1727613e+00  -1.1184527e+01  -4.7411721e+00  -5.6217099e+00  -1.0355794e+01  -5.3918362e+00  -5.2734117e+00  -7.6352896e-01  -1.5413739e+01  -8.8434445e+00  -3.5029648e+00  -2.3495627e+01  -8.1037051e+00  -5.2685219e+00  -7.0075136e-01  -1.8826205e+00  -6.9638416e+00  -7.3662376e+00  -9.6646149e+00  -5.0457950e-01   0.0000000e+00   3.0000000e+01   5.0000000e+01   0.0000000e+00
  -3.5139684e+00  -1.0953440e+01  -4.6774593e+00  -4.3816014e+00  -1.0032250e+01  -4.8213437e+00  -4.4119205e+00  -8.0250035e-01  -1.4909777e+01  -8.8336699e+00  -3.1036730e+00  -2.3190258e+01  -7.6012942e+00  -4.8672565e+00   1.8362425e-01  -1.6571053e+00  -5.8636711e+00  -6.3048649e+00  -8.4577706e+00   3.1995957e-01   0.0000000e+00   3.0000000e+01   5.0000000e+01   0.0000000e+00
  -3.1792149e+00  -1.0806512e+01  -4.5768578e+00  -3.8375468e+00  -9.9176173e+00  -4.3339034e+00  -4.0121808e+00  -1.2270019e+00  -1.4893124e+01  -9.1489897e+00  -3.0951674e+00  -2.3145591e+01  -7.7048951e+00  -5.2893457e+00   5.1705919e-01  -1.7240624e+00  -5.2177831e+00  -5.8636556e+00  -7.7660169e+00   6.5304620e-01   0.0000000e+00   3.0000000e+01   5.0000000e+01   0.0000000e+00
  -4.0750277e+00  -1.1279268e+01  -4.7554063e+00  -3.9463628e+00  -1.0226953e+01  -4.4907895e+00  -4.3747144e+00  -2.0650793e+00  -1.5127630e+01  -9.7057869e+00  -3.4683679e+00  -2.3034625e+01  -8.1505426e+00  -6.4804273e+00   2.3220784e-02  -2.2641045e+00  -4.9205826e+00  -6.0708778e+00  -8.0557223e+00   1.7312270e-01   0.0000000e+00   3.0000000e+01   5.0000000e+01   0.0000000e+00
  -5.9841427e+00  -1.2310446e+01  -5.2313654e+00  -4.4749012e+00  -1.1174415e+01  -5.7301230e+00  -5.4300436e+00  -2.8511656e+00  -1.5468770e+01  -1.0593753e+01  -4.0245039e+00  -2.2811163e+01  -8.8004984e+00  -8.0452220e+00  -9.9931071e-01  -3.1356632e+00  -5.0978887e+00  -6.7600919e+00  -9.2703565e+00  -8.5445734e-01   0.0000000e+00   3.0000000e+01   5.0000000e+01   0.0000000e+00
  -7.7535312e+00  -1.3344551e+01  -5.7816377e+00  -5.4745834e+00  -1.2824247e+01  -7.8080699e+00  -6.9157319e+00  -3.1650218e+00  -1.5952164e+01  -1.1721419e+01  -4.6251604e+00  -2.2741716e+01  -9.7288792e+00  -9.6755147e+00  -2.0761730e+00  -4.0664958e+00  -6.2012981e+00  -7.7271394e+00  -1.1002006e+01  -1.9008284e+00   0.0000000e+00   3.0000000e+01   5.0000000e+01   0.0000000e+00
  -8.6571937e+00  -1.4000588e+01  -6.2297049e+00  -6.7104991e+00  -1.4733080e+01  -9.8995764e+00  -8.4678738e+00  -3.1085767e+00  -1.6295797e+01  -1.2742423e+01  -5.1107215e+00  -2.2836091e+01  -1.0738839e+01  -1.1095024e+01  -2.9635494e+00  -4.7622261e+00  -8.1281185e+00  -8.5543437e+00  -1.2800361e+01  -2.7359726e+00   0.0000000e+00   3.0000000e+01   5.0000000e+01   0.0000000e+00
  -8.7408865e+00  -1.4265176e+01  -6.6490655e+00  -7.6918047e+00  -1.6230213e+01  -1.1397821e+01  -9.6521980e+00  -2.8922456e+00  -1.6313271e+01  -1.3208138e+01  -5.4979293e+00  -2.2934310e+01  -1.1399716e+01  -1.2050103e+01  -3.6359583e+00  -5.1470235e+00  -1.0137533e+01  -8.9241847e+00  -1.4283628e+01  -3.3809108e+00   0.0000000e+00   3.0000000e+01   5.0000000e+01   0.0000000e+00
  -8.5516844e+00  -1.4378008e+01  -7.2859041e+00  -8.3660588e+00  -1.7116248e+01  -1.2394470e+01  -1.0493448e+01  -2.9028527e+00  -1.6125484e+01  -1.3025136e+01  -6.0666704e+00  -2.2927343e+01  -1.1533083e+01  -1.2374480e+01  -4.1403142e+00  -5.5859942e+00  -1.1768577e+01  -9.2537216e+00  -1.5440022e+01  -4.0497438e+00   0.0000000e+00   3.0000000e+01   5.0000000e+01   0.0000000e+00
  -8.3924213e+00  -1.4409114e+01  -8.1939867e+00  -8.7419979e+00  -1.7522004e+01  -1.3140186e+01  -1.1223944e+01  -3.2454775e+00  -1.5574847e+01  -1.2192834e+01  -6.7458277e+00  -2.2522335e+01  -1.1162568e+01  -1.1918480e+01  -4.3855830e+00  -6.1749976e+00  -1.2933167e+01  -9.8520064e+00  -1.6292494e+01  -4.7126738e+00   0.0000000e+00   3.0000000e+01   5.0000000e+01   0.0000000e+00
  -8.3943820e+00  -1.4446636e+01  -9.0967097e+00  -8.8839033e+00  -1.7897501e+01  -1.3665108e+01  -1.1875461e+01  -3.7538914e+00  -1.4519270e+01  -1.0667969e+01  -6.9780721e+00  -2.1651775e+01  -1.0506104e+01  -1.0730455e+01  -4.1723803e+00  -6.4265740e+00  -1.3853289e+01  -1.0430121e+01  -1.6617501e+01  -5.1608034e+00   0.0000000e+00   3.0000000e+01   5.0000000e+01   0.0000000e+00
  -8.8899389e+00  -1.4730279e+01  -9.8109700e+00  -9.1246188e+00  -1.8754095e+01  -1.3965376e+01  -1.2204857e+01  -4.2892712e+00  -1.3474170e+01  -9.0084572e+00  -6.5511382e+00  -2.0857463e+01  -1.0090140e+01  -9.4808365e+00  -3.6550968e+00  -6.1863553e+00  -1.4944962e+01  -1.0711589e+01  -1.6374577e+01  -5.3252702e+00   0.0000000e+00   3.0000000e+01   5.0000000e+01   0.0000000e+00
  -1.0047690e+01  -1.5354724e+01  -1.0448387e+01  -9.7655908e+00  -2.0036009e+01  -1.4018423e+01  -1.2064481e+01  -4.8600273e+00  -1.3091097e+01  -8.2022393e+00  -6.0029313e+00  -2.0924752e+01  -1.0430346e+01  -9.0770917e+00  -3.2743586e+00  -6.0126822e+00  -1.6359113e+01  -1.1024353e+01  -1.5968315e+01  -5.4304577e+00   0.0000000e+00   3.0000000e+01   5.0000000e+01   0.0000000e+00
  -1.1528853e+01  -1.5942393e+01  -1.1001821e+01  -1.0472165e+01  -2.1095345e+01  -1.3710900e+01  -1.1608211e+01  -5.4407169e+00  -1.3287371e+01  -8.4376139e+00  -5.8312386e+00  -2.1792900e+01  -1.1201128e+01  -9.7441589e+00  -3.4208973e+00  -6.2489143e+00  -1.7614559e+01  -1.1521646e+01  -1.5809637e+01  -5.7503394e+00   0.0000000e+00   3.0000000e+01   5.0000000e+01   0.0000000e+00
  -1.2535808e+01  -1.5991192e+01  -1.1349992e+01  -1.0583190e+01  -2.1325798e+01  -1.3153089e+01  -1.1111384e+01  -5.9492696e+00  -1.3738846e+01  -9.4805569e+00  -6.1155989e+00  -2.2595396e+01  -1.1688984e+01  -1.1138503e+01  -4.2998293e+00  -6.7760530e+00  -1.8069014e+01  -1.1902398e+01  -1.6071191e+01  -6.3743431e+00   0.0000000e+00   3.0000000e+01   5.0000000e+01   0.0000000e+00
  -1.2494636e+01  -1.5482197e+01  -1.1579929e+01  -9.9632009e+00  -2.0646871e+01  -1.2766313e+01  -1.0922549e+01  -6.3401973e+00  -1.4441721e+01  -1.1059001e+01  -6.7150606e+00  -2.2806915e+01  -1.1736925e+01  -1.2797117e+01  -5.7497221e+00  -7.3680344e+00  -1.7629523e+01  -1.1870450e+01  -1.6699579e+01  -7.1528591e+00   0.0000000e+00   3.0000000e+01   5.0000000e+01   0.0000000e+00
  -1.1345789e+01  -1.4798387e+01  -1.1762838e+01  -8.7669887e+00  -1.9303983e+01  -1.2824855e+01  -1.1272239e+01  -6.5943275e+00  -1.5254829e+01  -1.2640503e+01  -7.4942074e+00  -2.2586989e+01  -1.1518213e+01  -1.4267052e+01  -7.2201557e+00  -7.8831222e+00  -1.6709808e+01  -1.1549807e+01  -1.7442052e+01  -7.8302088e+00   0.0000000e+00   3.0000000e+01   5.0000000e+01   0.0000000e+00
  -9.2614201e+00  -1.4111803e+01  -1.1704019e+01  -7.0760167e+00  -1.7528587e+01  -1.3057148e+01  -1.1798523e+01  -6.3996611e+00  -1.5716804e+01  -1.3707901e+01  -8.2374031e+00  -2.2060637e+01  -1.0905622e+01  -1.5058021e+01  -8.1341171e+00  -8.1552198e+00  -1.5510714e+01  -1.1012691e+01  -1.7851373e+01  -8.0456626e+00   0.0000000e+00   3.0000000e+01   5.0000000e+01   0.0000000e+00
  -6.6043572e+00  -1.3206905e+01  -1.1113620e+01  -5.0036522e+00  -1.5390770e+01  -1.2769021e+01  -1.1844751e+01  -5.6036905e+00  -1.5403758e+01  -1.3845797e+01  -8.6620833e+00  -2.1251617e+01  -9.6205446e+00  -1.4754652e+01  -8.1126724e+00  -8.0290157e+00  -1.3900641e+01  -1.0034037e+01  -1.7488247e+01  -7.5710510e+00   0.0000000e+00   3.0000000e+01   5.0000000e+01   0.0000000e+00
  -4.0144002e+00  -1.2010212e+01  -1.0080913e+01  -2.9376849e+00  -1.3014521e+01  -1.1713652e+01  -1.1223215e+01  -4.7302034e+00  -1.4474137e+01  -1.2884030e+01  -8.8345699e+00  -2.0441253e+01  -7.9107505e+00  -1.3546532e+01  -7.3045563e+00  -7.6098116e+00  -1.1967603e+01  -8.5795783e+00  -1.6458466e+01  -6.7368979e+00   0.0000000e+00   3.0000000e+01   5.0000000e+01   0.0000000e+00
  -2.0757436e+00  -1.0801823e+01  -9.0500712e+00  -1.3665864e+00  -1.0748725e+01  -1.0250441e+01  -1.0120208e+01  -4.4384501e+00  -1.3461645e+01  -1.1254850e+01  -9.0526365e+00  -1.9801567e+01  -6.4143609e+00  -1.1909137e+01  -6.1778393e+00  -7.1857436e+00  -1.0094615e+01  -7.0643317e+00  -1.5263969e+01  -6.1062906e+00   0.0000000e+00   3.0000000e+01   5.0000000e+01   0.0000000e+00
  -1.1131208e+00  -9.8536119e+00  -8.2958827e+00  -6.0012242e-01  -9.0217890e+00  -8.6199299e+00  -8.6696636e+00  -4.6583990e+00  -1.2800667e+01  -9.4863892e+00  -9.3343417e+00  -1.9507261e+01  -5.4279991e+00  -9.9882686e+00  -4.8484045e+00  -6.9055014e+00  -8.7482174e+00  -5.9411398e+00  -1.3992962e+01  -5.7200707e+00   0.0000000e+00   3.0000000e+01   5.0000000e+01   0.0000000e+00
  -1.2503629e+00  -9.0428770e+00  -7.6144451e+00  -5.7857973e-01  -8.0829720e+00  -6.6016521e+00  -6.7583257e+00  -4.5848797e+00  -1.2567204e+01  -7.7553769e+00  -9.3133658e+00  -1.9694870e+01  -4.7787396e+00  -7.6138703e+00  -3.1399622e+00  -6.5052568e+00  -8.0644483e+00  -5.1974411e+00  -1.2259577e+01  -5.0016459e+00   0.0000000e+00   3.0000000e+01   5.0000000e+01   0.0000000e+00
  -2.3088639e+00  -8.2711253e+00  -6.7594993e+00  -1.1311125e+00  -7.9475988e+00  -4.2294461e+00  -4.4449189e+00  -3.9019786e+00  -1.2778631e+01  -6.3832237e+00  -8.8620330e+00  -2.0560695e+01  -4.5004962e+00  -5.1770327e+00  -1.2817323e+00  -5.7409510e+00  -7.9259139e+00  -4.5443971e+00  -9.9940616e+00  -3.7898701e+00   0.0000000e+00   3.0000000e+01   5.0000000e+01   0.0000000e+00
  -3.3939678e+00  -7.5243563e+00  -5.8051452e+00  -1.8248142e+00  -8.2137029e+00  -2.0864326e+00  -2.1542008e+00  -2.9011144e+00  -1.3372805e+01  -5.7921840e+00  -8.4078435e+00  -2.1883076e+01  -4.7624290e+00  -3.7739218e+00   3.4135091e-02  -4.8210628e+00  -8.0306851e+00  -3.9995066e+00  -7.9148415e+00  -2.5334746e+00   0.0000000e+00   3.0000000e+01   5.0000000e+01   0.0000000e+00
  -3.7115760e+00  -6.7640444e+00  -4.9803088e+00  -2.0323971e+00  -8.2259642e+00  -5.8300001e-01  -4.1181477e-01  -1.9126727e+00  -1.3883612e+01  -6.1867166e+00  -8.3868290e+00  -2.2806299e+01  -5.3508309e+00  -3.9696779e+00   3.5797069e-01  -4.1171534e+00  -7.7756340e+00  -3.6338027e+00  -6.7500371e+00  -1.7205529e+00   0.0000000e+00   3.0000000e+01   5.0000000e+01   0.0000000e+00
  -3.3318011e+00  -5.9835549e+00  -4.3183956e+00  -1.5938394e+00  -7.6291128e+00   3.7195199e-01   6.8655964e-01  -9.9606705e-01  -1.3838338e+01  -7.3926005e+00  -8.8032846e+00  -2.2656029e+01  -5.7091014e+00  -5.1225305e+00  -8.4005073e-02  -3.6975115e+00  -6.6969231e+00  -3.2946874e+00  -6.4172661e+00  -1.3865551e+00   0.0000000e+00   3.0000000e+01   5.0000000e+01   0.0000000e+00
  -2.7091448e+00  -5.3343553e+00  -3.8238073e+00  -6.9158262e-01  -6.6785220e+00   9.0387724e-01   1.2113847e+00  -9.0346920e-02  -1.3279809e+01  -8.6759880e+00  -9.3003653e+00  -2.1641176e+01  -5.4563723e+00  -6.2886661e+00  -7.5784342e-01  -3.3314832e+00  -4.9298339e+00  -2.6561186e+00  -6.4279177e+00  -1.2057823e+00   0.0000000e+00   3.0000000e+01   5.0000000e+01   0.0000000e+00
  -2.1605214e+00  -5.0532890e+00  -3.4443128e+00   5.3567280e-01  -5.6746454e+00   1.2239825e+00   1.2614252e+00   5.6957700e-01  -1.2415264e+01  -9.3169238e+00  -9.5684280e+00  -2.0486323e+01  -4.6353158e+00  -6.8074020e+00  -1.0939245e+00  -2.9453498e+00  -2.8744000e+00  -1.6621197e+00  -6.3669373e+00  -1.1318283e+00   0.0000000e+00   3.0000000e+01   5.0000000e+01   0.0000000e+00
  -1.5943620e+00  -4.9311380e+00  -2.9185333e+00   1.8817174e+00  -4.4925087e+00   1.7317311e+00   1.3623150e+00   1.0200165e+00  -1.1210454e+01  -9.2871403e+00  -9.6370077e+00  -1.9457820e+01  -3.4532322e+00  -6.4002342e+00  -8.1357089e-01  -2.5845874e+00  -7.9708123e-01  -3.8349101e-01  -5.8851646e+00  -1.1229237e+00   0.0000000e+00   3.0000000e+01   5.0000000e+01   0.0000000e+00
  -7.2873460e-01  -4.5333669e+00  -2.1169426e+00   3.1646730e+00  -2.9498461e+00   2.8435216e+00   2.0573407e+00   1.6699808e+00  -9.8117255e+00  -8.9621873e+00  -9.6062420e+00  -1.8548217e+01  -2.1189713e+00  -5.2415015e+00   3.9092669e-02  -2.1700796e+00   1.0608338e+00   1.1482113e+00  -4.8038167e+00  -8.1817258e-01   0.0000000e+00   3.0000000e+01   5.0000000e+01   0.0000000e+00
   1.1056562e-01  -3.9840926e+00  -1.3301988e+00   4.0404376e+00  -1.4953668e+00   4.4798253e+00   3.1028218e+00   2.4950495e+00  -8.7267896e+00  -8.4304749e+00  -9.3594503e+00  -1.7965653e+01  -1.1418026e+00  -3.8548181e+00   1.2973900e+00  -1.6890124e+00   2.3373302e+00   2.7129671e+00  -3.3557982e+00  -1.9206111e-01   0.0000000e+00   3.0000000e+01   5.0000000e+01   0.0000000e+00
   2.9930848e-01  -3.6294226e+00  -8.7254287e-01   4.0863546e+00  -9.4248139e-01   6.1005557e+00   4.0720781e+00   3.1317360e+00  -8.1736891e+00  -7.4890892e+00  -8.6726581e+00  -1.8044931e+01  -9.4700010e-01  -2.3515622e+00   2.9459487e+00  -1.1773587e+00   2.7116954e+00   3.7819179e+00  -1.8843313e+00   5.0443349e-01   0.0000000e+00   3.0000000e+01   5.0000000e+01   0.0000000e+00
  -7.3461174e-02  -3.5597131e+00  -8.0645527e-01   3.3892580e+00  -1.4821365e+00   7.0902236e+00   4.7754764e+00   3.3347140e+00  -7.8460267e+00  -6.1938892e+00  -7.4741258e+00  -1.8901371e+01  -1.3511306e+00  -5.3984588e-01   4.9168985e+00  -6.2299938e-01   2.2149530e+00   4.1924314e+00  -5.7840779e-01   1.1412787e+00   0.0000000e+00   3.0000000e+01   5.0000000e+01   0.0000000e+00
  -4.5993013e-01  -3.6705381e+00  -1.0354818e+00   2.3885816e+00  -2.6144859e+00   7.1392027e+00   4.9725168e+00   2.9032678e+00  -7.5996207e+00  -4.9729549e+00  -6.2162615e+00  -2.0300228e+01  -2.1103075e+00   9.9261077e-01   6.5586311e+00  -2.6326484e-01   1.1457040e+00   4.0337279e+00   2.0075564e-01   1.4882705e+00   0.0000000e+00   3.0000000e+01   5.0000000e+01   0.0000000e+00
  -5.4967101e-01  -3.7132208e+00  -1.3739358e+00   1.7104619e+00  -3.6390817e+00   6.5669961e+00   4.5068551e+00   1.9735831e+00  -7.3997869e+00  -4.3496561e+00  -5.5232441e+00  -2.1524426e+01  -2.9338895e+00   1.3157257e+00   7.0504350e+00  -3.2594850e-01   7.2798876e-02   3.6125202e+00   9.3324818e-02   1.3553440e+00   0.0000000e+00   3.0000000e+01   5.0000000e+01   0.0000000e+00
  -4.2574676e-01  -3.8130457e+00  -2.0228783e+00   1.5889910e+00  -4.2488284e+00   5.6749535e+00   3.2912960e+00   7.2239747e-01  -6.9649895e+00  -4.7446314e+00  -5.7477789e+00  -2.1803819e+01  -3.3415598e+00   2.6365515e-01   6.0974292e+00  -9.3381494e-01  -5.7787873e-01   3.0901619e+00  -9.8404438e-01   6.3060838e-01   0.0000000e+00   3.0000000e+01   5.0000000e+01   0.0000000e+00
  -1.1887780e-01  -4.1867472e+00  -3.2685243e+00   1.9450813e+00  -4.3798547e+00   4.5519894e+00   1.4150495e+00  -6.7205370e-01  -5.9905281e+00  -5.6618488e+00  -6.5920204e+00  -2.1014282e+01  -2.8530642e+00  -1.4290400e+00   4.1643681e+00  -1.9427505e+00  -6.8140237e-01   2.6570124e+00  -2.6536141e+00  -4.7571898e-01   0.0000000e+00   3.0000000e+01   5.0000000e+01   0.0000000e+00
   5.8280194e-01  -4.6063343e+00  -4.6789157e+00   2.7591027e+00  -3.8974579e+00   3.5332881e+00  -6.6032988e-01  -1.8462406e+00  -4.4686372e+00  -6.0635269e+00  -7.4830406e+00  -1.9577031e+01  -1.4744585e+00  -2.9068876e+00   2.0516327e+00  -2.9319330e+00  -2.0872991e-01   2.5486061e+00  -4.3307715e+00  -1.4774312e+00   0.0000000e+00   0.0000000e+00   5.0000000e+01   0.0000000e+00
   1.3449100e+00  -4.9517996e+00  -5.7033044e+00   3.5541365e+00  -3.1583281e+00   2.6702408e+00  -2.5296252e+00  -2.4933645e+00  -2.9516632e+00  -5.5976816e+00  -8.1128173e+00  -1.8316437e+01   9.8658588e-02  -4.0045730e+00   7.6041474e-02  -3.5926243e+00   3.1531452e-01   2.7560795e+00  -5.7838980e+00  -2.1737769e+00   0.0000000e+00   0.0000000e+00   5.0000000e+01   0.0000000e+00
   1.7753307e+00  -5.2664194e+00  -6.0650872e+00   3.8012853e+00  -2.8246326e+00   1.8237197e+00  -3.9445626e+00  -2.6168278e+00  -2.0720393e+00  -4.9229393e+00  -8.4282833e+00  -1.7969498e+01   1.0920086e+00  -4.8293836e+00  -1.5835236e+00  -3.8657669e+00   2.0074078e-01   2.9462927e+00  -6.9224789e+00  -2.6375484e+00   0.0000000e+00   0.0000000e+00   5.0000000e+01   0.0000000e+00
   1.7788250e+00  -5.4416918e+00  -5.8159393e+00   3.5826369e+00  -3.0698783e+00   1.1109374e+00  -4.6361339e+00  -2.4628936e+00  -1.7539893e+00  -4.5200595e+00  -8.5694348e+00  -1.8450040e+01   1.3022788e+00  -5.2855164e+00  -2.6012008e+00  -3.9077086e+00  -5.5613286e-01   2.8732654e+00  -7.5459003e+00  -2.9681331e+00   0.0000000e+00   0.0000000e+00   5.0000000e+01   0.0000000e+00
   1.1934855e+00  -5.4554962e+00  -5.3511928e+00   2.9814993e+00  -3.7788512e+00   5.5381088e-01  -4.4820671e+00  -2.1236209e+00  -1.6471654e+00  -4.2162538e+00  -8.6751127e+00  -1.9281728e+01   9.5157594e-01  -5.2011020e+00  -2.8026717e+00  -3.9111257e+00  -1.7099953e+00   2.4539439e+00  -7.6282726e+00  -3.1211468e+00   0.0000000e+00   0.0000000e+00   5.0000000e+01   0.0000000e+00
  -1.7374912e-01  -5.5543977e+00  -5.0260042e+00   1.7859151e+00  -4.9776744e+00  -1.3278502e-01  -3.8803033e+00  -1.6456081e+00  -1.7295613e+00  -3.7613966e+00  -8.6337130e+00  -2.0322999e+01   2.2943184e-01  -4.7258090e+00  -2.3324818e+00  -3.8452029e+00  -3.3065489e+00   1.7348268e+00  -7.4070568e+00  -3.0324413e+00   0.0000000e+00   0.0000000e+00   5.0000000e+01   0.0000000e+00
  -2.2257966e+00  -6.0300288e+00  -4.9784224e+00  -2.5243575e-01  -6.7724324e+00  -1.2325681e+00  -3.3974653e+00  -1.2965882e+00  -2.2701316e+00  -3.2354950e+00  -8.3217665e+00  -2.1749864e+01  -9.2070510e-01  -4.2423245e+00  -1.4919369e+00  -3.7120805e+00  -5.4819474e+00   5.3279571e-01  -7.2191477e+00  -2.8194518e+00   0.0000000e+00   0.0000000e+00   5.0000000e+01   0.0000000e+00
  -4.4683577e+00  -6.8963003e+00  -5.1853610e+00  -3.0908310e+00  -9.0726109e+00  -2.6746878e+00  -3.2793929e+00  -1.3116951e+00  -3.5320791e+00  -2.8883405e+00  -7.8931641e+00  -2.3620651e+01  -2.5768391e+00  -4.1698690e+00  -7.0790734e-01  -3.6495040e+00  -8.0821306e+00  -1.3200701e+00  -7.2968273e+00  -2.6632488e+00   0.0000000e+00   0.0000000e+00   5.0000000e+01   0.0000000e+00
  -6.1877347e+00  -7.7100746e+00  -5.5826643e+00  -5.9572809e+00  -1.1259633e+01  -3.9565155e+00  -3.3617608e+00  -1.6887096e+00  -5.3111373e+00  -3.1817236e+00  -7.6428524e+00  -2.5330856e+01  -4.5141588e+00  -4.8346307e+00  -4.4584472e-01  -3.7558695e+00  -1.0451749e+01  -3.6250202e+00  -7.7218928e+00  -2.6817564e+00   0.0000000e+00   0.0000000e+00   5.0000000e+01   0.0000000e+00
  -6.7073149e+00  -7.9156097e+00  -5.9636562e+00  -7.5327781e+00  -1.2400772e+01  -4.7569355e+00  -3.3969619e+00  -2.0909336e+00  -7.0136434e+00  -4.0258685e+00  -7.6377099e+00  -2.6010163e+01  -6.1686327e+00  -6.2056969e+00  -8.0797138e-01  -3.8383341e+00  -1.1767123e+01  -5.6259121e+00  -8.4308508e+00  -2.7137234e+00   0.0000000e+00   0.0000000e+00   5.0000000e+01   0.0000000e+00
  -6.2026007e+00  -7.5135655e+00  -6.1535521e+00  -7.4758705e+00  -1.2327462e+01  -5.2700459e+00  -3.4487049e+00  -2.3138232e+00  -8.2346130e+00  -4.8161304e+00  -7.8504602e+00  -2.5658888e+01  -7.1968971e+00  -7.8993285e+00  -1.5623636e+00  -3.8559723e+00  -1.1968460e+01  -7.0067109e+00  -9.3840281e+00  -2.6813518e+00   0.0000000e+00   0.0000000e+00   5.0000000e+01   0.0000000e+00
  -5.7724822e+00  -7.0475270e+00  -6.2670403e+00  -6.6007973e+00  -1.1611853e+01  -5.6917262e+00  -3.6873894e+00  -2.5221404e+00  -8.8032118e+00  -5.2471273e+00  -8.2123113e+00  -2.4910806e+01  -7.5625458e+00  -9.4733371e+00  -2.4475305e+00  -3.9773095e+00  -1.1433737e+01  -8.0355158e+00  -1.0467799e+01  -2.8052209e+00   0.0000000e+00   0.0000000e+00   5.0000000e+01   0.0000000e+00
  -5.9603183e+00  -6.8539395e+00  -6.3231172e+00  -5.6338455e+00  -1.0593758e+01  -5.7390365e+00  -3.8284845e+00  -2.6704627e+00  -8.7703798e+00  -5.2526414e+00  -8.5198101e+00  -2.4203916e+01  -7.1291309e+00  -1.0431818e+01  -3.0401039e+00  -4.0722765e+00  -1.0210220e+01  -8.7708791e+00  -1.1195175e+01  -3.0793386e+00   0.0000000e+00   0.0000000e+00   5.0000000e+01   0.0000000e+00
  -6.4401178e+00  -6.7747251e+00  -6.0830407e+00  -4.8244124e+00  -9.4594295e+00  -5.0837931e+00  -3.4084913e+00  -2.4699312e+00  -8.3756632e+00  -4.9608393e+00  -8.5516442e+00  -2.3499631e+01  -5.9143513e+00  -1.0402516e+01  -2.8395377e+00  -3.8902671e+00  -8.3968985e+00  -8.9151546e+00  -1.1013759e+01  -3.1854908e+00   0.0000000e+00   0.0000000e+00   5.0000000e+01   0.0000000e+00
  -6.9029452e+00  -6.7561699e+00  -5.4959979e+00  -4.3267954e+00  -8.6660456e+00  -3.9367772e+00  -2.4219606e+00  -2.0391014e+00  -8.0589326e+00  -4.6759839e+00  -8.3754507e+00  -2.2951729e+01  -4.6243679e+00  -9.4695100e+00  -1.7289718e+00  -3.5561904e+00  -6.7258421e+00  -8.7533244e+00  -9.9887356e+00  -3.0049817e+00   0.0000000e+00   0.0000000e+00   5.0000000e+01   0.0000000e+00
  -7.1926828e+00  -6.7711911e+00  -4.6800181e+00  -4.1248217e+00  -8.3205346e+00  -2.5573182e+00  -1.0200790e+00  -1.5037967e+00  -8.0373573e+00  -4.3923248e+00  -7.9382055e+00  -2.2818390e+01  -3.7549872e+00  -7.6728345e+00   1.0189412e-01  -3.2108620e+00  -5.7006824e+00  -8.5972782e+00  -8.3675539e+00  -2.4231978e+00   0.0000000e+00   0.0000000e+00   5.0000000e+01   0.0000000e+00
  -7.2498318e+00  -6.5047004e+00  -3.6955437e+00  -3.8984288e+00  -7.8943075e+00  -8.3197267e-01   8.3245199e-01  -7.4111446e-01  -7.8641821e+00  -3.4437003e+00  -7.0619814e+00  -2.2735370e+01  -2.9083999e+00  -4.8087714e+00   2.5241897e+00  -2.7891089e+00  -4.9989970e+00  -8.1867635e+00  -6.1586222e+00  -1.3005788e+00   0.0000000e+00   0.0000000e+00   5.0000000e+01   0.0000000e+00
  -7.3006668e+00  -5.9354795e+00  -2.6207192e+00  -3.3937866e+00  -7.2237284e+00   1.2101513e+00   3.0308793e+00   2.6410609e-01  -7.1483859e+00  -1.4628660e+00  -5.8626685e+00  -2.2442555e+01  -1.8380015e+00  -1.3300007e+00   5.2442250e+00  -2.1917604e+00  -4.4451764e+00  -7.1733925e+00  -3.5602447e+00   2.1472026e-01   0.0000000e+00   0.0000000e+00   5.0000000e+01   0.0000000e+00
  -7.3901985e+00  -5.5119389e+00  -1.7410109e+00  -2.9607469e+00  -6.8340463e+00   2.8931745e+00   5.0508968e+00   1.2432469e+00  -6.2422552e+00   6.8138665e-01  -4.7480876e+00  -2.2301362e+01  -1.1612357e+00   1.6068638e+00   7.7239454e+00  -1.6010342e+00  -4.4008506e+00  -6.0234244e+00  -1.2226905e+00   1.7882773e+00   0.0000000e+00   0.0000000e+00   5.0000000e+01   0.0000000e+00
  -7.3636871e+00  -5.6224333e+00  -1.5239019e+00  -2.8190244e+00  -6.9677151e+00   3.5088163e+00   6.1429342e+00   1.6837752e+00  -5.4782162e+00   2.0921443e+00  -4.0270195e+00  -2.2432650e+01  -1.2384183e+00   3.1450849e+00   9.3918859e+00  -1.3277281e+00  -4.9474734e+00  -5.4068964e+00   1.0228869e-01   2.9546104e+00   0.0000000e+00   0.0000000e+00   5.0000000e+01   0.0000000e+00
  -7.0174115e+00  -6.0252155e+00  -1.8558756e+00  -2.6140734e+00  -7.0445854e+00   3.3890487e+00   6.3290229e+00   1.5733765e+00  -4.5482072e+00   2.8035802e+00  -3.6387220e+00  -2.2264670e+01  -1.3797621e+00   3.3178584e+00   1.0075133e+01  -1.3301592e+00  -5.3869226e+00  -5.1325857e+00   4.3262682e-01   3.6285850e+00   0.0000000e+00   0.0000000e+00   5.0000000e+01   0.0000000e+00
  -6.3385532e+00  -6.2394444e+00  -2.2235683e+00  -1.9108513e+00  -6.4630242e+00   3.3136877e+00   6.1387729e+00   1.2545890e+00  -3.1704874e+00   3.0197906e+00  -3.5630511e+00  -2.1292076e+01  -7.5077416e-01   2.5935687e+00   9.8563859e+00  -1.4877714e+00  -4.9130184e+00  -4.5174469e+00   3.3960685e-01   3.9192840e+00   0.0000000e+00   0.0000000e+00   5.0000000e+01   0.0000000e+00
  -5.8279441e+00  -6.2293460e+00  -2.3811651e+00  -9.2845191e-01  -5.6118004e+00   3.4967876e+00   5.9228217e+00   8.2630295e-01  -1.8148851e+00   2.4301206e+00  -4.0246939e+00  -1.9999444e+01   3.4946164e-01   1.4396185e+00   9.0114465e+00  -2.0048515e+00  -3.7768031e+00  -3.6299277e+00   5.5776904e-02   3.7651726e+00   0.0000000e+00   0.0000000e+00   5.0000000e+01   0.0000000e+00
  -5.9600875e+00  -6.3647190e+00  -2.4363002e+00  -3.7520262e-01  -5.3175338e+00   3.5214220e+00   5.5730952e+00   2.5034279e-01  -9.6476317e-01   1.1964408e+00  -4.8986478e+00  -1.9152809e+01   1.1231855e+00   2.0151121e-01   7.9428328e+00  -2.9330627e+00  -2.7753413e+00  -2.8541880e+00  -5.2373279e-01   3.1648891e+00   0.0000000e+00   0.0000000e+00   5.0000000e+01   0.0000000e+00
  -6.5530359e+00  -6.8140713e+00  -2.5329844e+00  -4.8365910e-01  -5.7970253e+00   3.0171640e+00   4.9715911e+00  -3.0383120e-01  -3.8553430e-01   2.5127312e-01  -5.6474554e+00  -1.8787007e+01   1.6115203e+00  -5.8556213e-01   7.0526975e+00  -3.8898088e+00  -2.1579506e+00  -2.2396355e+00  -1.2759731e+00   2.4005013e+00   0.0000000e+00   0.0000000e+00   5.0000000e+01   0.0000000e+00
  -7.2111189e+00  -7.3523219e+00  -2.7091430e+00  -1.1093571e+00  -6.7902264e+00   2.0923504e+00   4.3490198e+00  -6.0203891e-01   3.3466615e-01   2.7554954e-01  -5.9186427e+00  -1.8670579e+01   2.2128736e+00  -4.6708696e-01   6.5838815e+00  -4.4289239e+00  -1.8559685e+00  -1.5724068e+00  -1.8393103e+00   1.7999623e+00   0.0000000e+00   0.0000000e+00   5.0000000e+01   0.0000000e+00
  -7.7706862e+00  -7.7196854e+00  -2.9460897e+00  -2.2010970e+00  -8.1399308e+00   1.2276764e+00   4.0154941e+00  -7.0267022e-01   1.2144545e+00   1.0177065e+00  -5.8779694e+00  -1.8848932e+01   2.7448425e+00   2.7246358e-01   6.4102864e+00  -4.4351036e+00  -2.1081950e+00  -8.9254092e-01  -2.0777465e+00   1.3782967e+00   0.0000000e+00   0.0000000e+00   5.0000000e+01   0.0000000e+00
  -8.2702024e+00  -7.7837280e+00  -3.0691804e+00  -3.5840823e+00  -9.7975339e+00   8.4672857e-01   4.1435332e+00  -7.1035192e-01   2.0871080e+00   2.1318567e+00  -5.6142888e+00  -1.9469392e+01   2.6262738e+00   1.1822627e+00   6.4679842e+00  -3.9052347e+00  -3.1847041e+00  -2.3679754e-01  -1.9510983e+00   1.1590461e+00   0.0000000e+00   0.0000000e+00   5.0000000e+01   0.0000000e+00
  -8.6132450e+00  -7.7138603e+00  -3.0583287e+00  -4.9728939e+00  -1.1621794e+01   6.5584054e-01   4.4906694e+00  -7.4891474e-01   2.7441680e+00   3.5051147e+00  -5.0877416e+00  -2.0426797e+01   1.6040572e+00   2.0495432e+00   6.8479020e+00  -2.9983407e+00  -4.8895845e+00   2.8338349e-01  -1.5937884e+00   1.2021307e+00   0.0000000e+00   0.0000000e+00   5.0000000e+01   0.0000000e+00
  -8.6989859e+00  -7.8916225e+00  -3.0930415e+00  -6.1688983e+00  -1.3344432e+01   9.4213077e-02   4.5710630e+00  -8.8924923e-01   3.2479031e+00   4.8784902e+00  -4.3700049e+00  -2.1389569e+01   7.2246448e-02   2.6456844e+00   7.3904593e+00  -1.8929411e+00  -6.7233234e+00   7.0817584e-01  -1.3323249e+00   1.3697890e+00   0.0000000e+00   0.0000000e+00   5.0000000e+01   0.0000000e+00
  -8.4662631e+00  -8.2567438e+00  -3.1955785e+00  -6.9178498e+00  -1.4443385e+01  -6.0053271e-01   4.4328895e+00  -1.0164164e+00   3.8658249e+00   6.0488649e+00  -3.6894651e+00  -2.2160136e+01  -1.3879560e+00   2.7915075e+00   7.7796814e+00  -7.4619718e-01  -8.1676351e+00   1.2213918e+00  -1.2871295e+00   1.5238392e+00   0.0000000e+00   0.0000000e+00   5.0000000e+01   0.0000000e+00
  -7.7626291e+00  -8.4161458e+00  -3.3519497e+00  -7.0549395e+00  -1.4459119e+01  -7.1027136e-01   4.3770435e+00  -1.2120028e+00   4.5263042e+00   6.7511775e+00  -3.3749063e+00  -2.2555899e+01  -2.4536692e+00   2.3501491e+00   7.7592635e+00   1.5129538e-01  -8.7466338e+00   1.8691788e+00  -1.3676215e+00   1.4529701e+00   0.0000000e+00   0.0000000e+00   5.0000000e+01   0.0000000e+00
  -6.6707831e+00  -8.0993899e+00  -3.5264921e+00  -6.7088677e+00  -1.3500813e+01   9.1376934e-02   4.6597047e+00  -1.4820734e+00   5.0069759e+00   6.7304284e+00  -3.5552456e+00  -2.2331214e+01  -2.9472982e+00   1.4298869e+00   7.3954832e+00   5.7227859e-01  -8.3246213e+00   2.4581023e+00  -1.4411755e+00   1.1375450e+00   0.0000000e+00   0.0000000e+00   5.0000000e+01   0.0000000e+00
  -5.4657705e+00  -7.2975274e+00  -3.6451467e+00  -5.7552335e+00  -1.1918781e+01   1.4491913e+00   5.1103227e+00  -1.6369904e+00   5.5380621e+00   6.4243347e+00  -3.9421713e+00  -2.1324674e+01  -2.5372634e+00   3.9771326e-01   6.7589160e+00   6.8004365e-01  -7.0342808e+00   3.1166923e+00  -1.5373642e+00   7.6825898e-01   0.0000000e+00   0.0000000e+00   5.0000000e+01   0.0000000e+00
  -4.0778463e+00  -6.3735557e+00  -3.7760455e+00  -4.1378122e+00  -9.9210313e+00   2.7415379e+00   5.3034435e+00  -1.8318287e+00   6.4057722e+00   6.1507502e+00  -4.3715309e+00  -1.9623144e+01  -1.0661439e+00  -3.1225478e-01   5.9364493e+00   5.8316865e-01  -4.9654486e+00   3.8595612e+00  -1.7917072e+00   2.0641407e-01   0.0000000e+00   0.0000000e+00   5.0000000e+01   0.0000000e+00
  -2.1357542e+00  -5.3356608e+00  -3.7207239e+00  -2.0939402e+00  -7.4045795e+00   3.9683665e+00   5.5822991e+00  -1.7862107e+00   7.5710302e+00   6.0966791e+00  -4.7160816e+00  -1.7505575e+01   1.3562421e+00  -4.2946583e-01   5.2059731e+00   4.3403907e-01  -2.1396190e+00   4.7944786e+00  -1.9382763e+00  -3.2193226e-01   0.0000000e+00   0.0000000e+00   5.0000000e+01   0.0000000e+00
   6.4837061e-02  -4.1092141e+00  -3.2521046e+00  -2.4269929e-01  -4.7107068e+00   5.4786590e+00   6.3544862e+00  -1.3232922e+00   8.6443365e+00   6.1698766e+00  -4.8857296e+00  -1.5517178e+01   4.0809891e+00  -4.5489002e-02   4.7570001e+00   3.8662812e-01   8.0446726e-01   6.0184001e+00  -1.6690256e+00  -5.3870275e-01   0.0000000e+00   0.0000000e+00   5.0000000e+01   0.0000000e+00
   1.6979763e+00  -2.8591529e+00  -2.5239118e+00   9.1675171e-01  -2.5344689e+00   7.3486949e+00   7.6777199e+00  -6.0042275e-01   9.3735533e+00   6.3703202e+00  -4.8875428e+00  -1.4012495e+01   6.4030736e+00   6.3214040e-01   4.6628239e+00   4.5481825e-01   3.0717586e+00   7.5425998e+00  -9.2262208e-01  -4.3209841e-01   0.0000000e+00   0.0000000e+00   5.0000000e+01   0.0000000e+00
   2.6988809e+00  -1.6915866e+00  -1.7414897e+00   1.5253767e+00  -1.0183809e+00   9.3859152e+00   9.2641693e+00  -1.6950211e-02   9.6716907e+00   6.9653485e+00  -4.9302833e+00  -1.3163026e+01   7.9252002e+00   1.3933355e+00   4.8482981e+00   4.7855813e-01   4.4983215e+00   9.0562427e+00   1.0331344e-01  -3.7140149e-01   0.0000000e+00   0.0000000e+00   5.0000000e+01   0.0000000e+00
   3.4811942e+00  -5.7404616e-01  -8.8973990e-01   1.9648010e+00   3.1291931e-02   1.1205697e+01   1.0731673e+01   2.3303831e-01   9.3224352e+00   7.6676976e+00  -5.1696589e+00  -1.3137154e+01   8.4323081e+00   2.0308810e+00   5.1308787e+00   2.9525378e-01   5.1825842e+00   1.0126792e+01   1.0942111e+00  -6.9049312e-01   0.0000000e+00   0.0000000e+00   5.0000000e+01   0.0000000e+00
   4.0189796e+00   4.6731471e-01   1.4693344e-01   1.9601737e+00   5.5499719e-01   1.2325183e+01   1.1907187e+01   5.0923748e-01   8.3305397e+00   7.9150565e+00  -5.2913791e+00  -1.3903994e+01   7.8437160e+00   2.5306960e+00   5.5691799e+00   2.7613898e-02   4.9648333e+00   1.0514309e+01   1.8921058e+00  -1.1573036e+00   0.0000000e+00   0.0000000e+00   5.0000000e+01   0.0000000e+00
   4.0089255e+00   1.1541032e+00   1.2531501e+00   1.0974619e+00   2.0442447e-01   1.2336170e+01   1.2572824e+01   1.0805252e+00   7.1052298e+00   7.7455632e+00  -4.9787896e+00  -1.5352692e+01   6.2339469e+00   2.8629352e+00   6.1516435e+00  -5.7846372e-02   3.5629293e+00   1.0349722e+01   2.3782760e+00  -1.3943992e+00   0.0000000e+00   0.0000000e+00   5.0000000e+01   0.0000000e+00
   3.4477744e+00   1.2534252e+00   2.0377346e+00  -1.7439987e-01  -1.0611681e+00   1.1239800e+01   1.2422760e+01   1.6129432e+00   6.0951610e+00   7.3904513e+00  -4.5031554e+00  -1.7126102e+01   4.0052520e+00   2.6546087e+00   6.4388140e+00   5.7874927e-02   1.2161696e+00   9.7853207e+00   2.2077309e+00  -1.3801937e+00   0.0000000e+00   0.0000000e+00   5.0000000e+01   0.0000000e+00
   2.8226238e+00   9.0044659e-01   2.1871810e+00  -1.0051289e+00  -2.5311432e+00   9.5475386e+00   1.1474930e+01   1.7519400e+00   5.4249920e+00   6.6711089e+00  -4.4065446e+00  -1.8676713e+01   1.7549532e+00   1.4861267e+00   5.8354454e+00   1.7079921e-01  -1.1648310e+00   8.9364085e+00   1.1015003e+00  -1.4069901e+00   0.0000000e+00   0.0000000e+00   5.0000000e+01   0.0000000e+00
   2.7611546e+00   5.0655294e-01   1.7625768e+00  -9.9529749e-01  -3.2890747e+00   8.0205843e+00   1.0129676e+01   1.4949819e+00   4.8503925e+00   5.2968096e+00  -4.9246024e+00  -1.9652703e+01  -8.9671496e-02  -4.5226043e-01   4.2805398e+00   9.0388864e-03  -2.7658982e+00   7.7339398e+00  -7.2035498e-01  -1.8369542e+00   0.0000000e+00   0.0000000e+00   5.0000000e+01   0.0000000e+00
   3.3934543e+00   5.0883439e-01   1.0069356e+00  -2.2623469e-01  -3.1279168e+00   7.0903167e+00   8.7550546e+00   1.1221796e+00   4.2614982e+00   3.5132957e+00  -5.7947995e+00  -1.9869141e+01  -1.2768408e+00  -2.4968418e+00   2.1871530e+00  -4.4555669e-01  -3.3964942e+00   6.3777446e+00  -2.7041811e+00  -2.6832138e+00   0.0000000e+00   0.0000000e+00   5.0000000e+01   0.0000000e+00
   4.6498840e+00   1.1327837e+00   2.2359617e-01   8.9639158e-01  -2.4734105e+00   6.7501465e+00   7.6070509e+00   7.4059441e-01   3.7158484e+00   1.6886411e+00  -6.7604295e+00  -1.9416666e+01  -1.7941188e+00  -4.1402658e+00   1.0707774e-01  -1.0693207e+00  -3.3126246e+00   4.9764603e+00  -4.3471065e+00  -3.7055178e+00   0.0000000e+00   0.0000000e+00   5.0000000e+01   0.0000000e+00
   6.0939965e+00   2.2894174e+00  -2.2731842e-01   1.9118330e+00  -1.7413990e+00   6.8077684e+00   6.9409088e+00   5.5275059e-01   3.4167751e+00   2.8063841e-01  -7.5061424e+00  -1.8674631e+01  -1.7333161e+00  -5.0412718e+00  -1.4205442e+00  -1.5661294e+00  -2.8610457e+00   3.5753055e+00  -5.3347993e+00  -4.4986989e+00   0.0000000e+00   0.0000000e+00   5.0000000e+01   0.0000000e+00
   7.1681289e+00   3.5138132e+00  -2.6807767e-01   2.6506428e+00  -1.1498393e+00   6.9601355e+00   6.7208710e+00   7.4441746e-01   3.3421659e+00  -3.2322585e-01  -7.8132962e+00  -1.8144646e+01  -1.3257729e+00  -4.9810303e+00  -2.1224723e+00  -1.6815899e+00  -2.4297304e+00   2.2186487e+00  -5.6472788e+00  -4.8430824e+00   0.0000000e+00   0.0000000e+00   5.0000000e+01   0.0000000e+00
   7.9526428e+00   4.6979820e+00   9.6354171e-02   3.4080867e+00  -3.9352784e-01   7.3866902e+00   6.9831893e+00   1.4558409e+00   3.3386007e+00  -1.7131646e-01  -7.6551096e+00  -1.7863517e+01  -6.7027260e-01  -3.7967885e+00  -1.9263300e+00  -1.1303348e+00  -1.9768310e+00   1.3880012e+00  -5.1925412e+00  -4.5436537e+00   0.0000000e+00   0.0000000e+00   5.0000000e+01   0.0000000e+00
   8.7986502e+00   5.9738266e+00   8.1865880e-01   4.1399550e+00   7.6799478e-01   8.3777782e+00   7.7877125e+00   2.6125691e+00   3.0940918e+00   5.0149034e-01  -7.2437801e+00  -1.7725648e+01   1.2403217e-01  -1.7469375e+00  -1.0316469e+00  -1.2886948e-03  -1.3849124e+00   1.2536908e+00  -4.0027587e+00  -3.6108387e+00   0.0000000e+00   0.0000000e+00   5.0000000e+01   0.0000000e+00
   9.3891832e+00   7.0604735e+00   1.4861781e+00   4.5578098e+00   1.9346170e+00   9.5029174e+00   8.7030654e+00   3.8512430e+00   2.4875897e+00   1.4855496e+00  -6.8854742e+00  -1.7681054e+01   8.5928989e-01   3.2949241e-01  -1.2451313e-01   1.1838132e+00  -8.5761243e-01   1.3931478e+00  -2.6077406e+00  -2.5028990e+00   0.0000000e+00   0.0000000e+00   5.0000000e+01   0.0000000e+00
   9.1450090e+00   7.5938438e+00   1.7147208e+00   4.7761811e+00   2.6469607e+00   1.0171965e+01   9.2246053e+00   4.8513822e+00   2.0568240e+00   2.3459864e+00  -6.6558097e+00  -1.7346233e+01   1.5925919e+00   1.8823458e+00   3.2509002e-01   2.1198027e+00  -5.8155790e-01   1.4967433e+00  -1.5477165e+00  -1.6583838e+00   0.0000000e+00   0.0000000e+00   5.0000000e+01   0.0000000e+00
   8.3009731e+00   7.5033274e+00   1.5453793e+00   4.8800726e+00   2.8223087e+00   1.0248409e+01   9.1618745e+00   5.5105744e+00   2.0246491e+00   2.8275040e+00  -6.3949702e+00  -1.6638458e+01   2.2908621e+00   2.7802985e+00   2.7510459e-01   2.8016407e+00  -6.7418309e-01   1.6436068e+00  -9.9857746e-01  -1.2087630e+00   0.0000000e+00   0.0000000e+00   5.0000000e+01   0.0000000e+00
   7.6101604e+00   6.9366640e+00   1.1702142e+00   4.8139706e+00   2.6661041e+00   9.9584761e+00   8.5568632e+00   5.7352578e+00   1.9341326e+00   2.8418342e+00  -6.2307933e+00  -1.5807462e+01   2.6396635e+00   2.8741535e+00  -3.2191991e-01   3.0838149e+00  -1.1356954e+00   1.6249489e+00  -1.0188151e+00  -1.1904256e+00   0.0000000e+00   0.0000000e+00   5.0000000e+01   0.0000000e+00
   7.4190035e+00   6.2100535e+00   6.7895831e-01   4.8384161e+00   2.5572314e+00   9.6162152e+00   7.7020384e+00   5.6297093e+00   1.7861011e+00   2.4448788e+00  -6.3844006e+00  -1.4799177e+01   2.8602522e+00   2.2224636e+00  -1.5171290e+00   2.8613490e+00  -1.6121433e+00   1.3368319e+00  -1.5684043e+00  -1.5389366e+00   0.0000000e+00   0.0000000e+00   5.0000000e+01   0.0000000e+00
   7.6403528e+00   5.6180155e+00  -1.1315265e-02   5.1756105e+00   2.8715365e+00   9.4714641e+00   6.8970718e+00   5.3194906e+00   1.9306814e+00   1.7143289e+00  -6.9418803e+00  -1.3541383e+01   3.4689642e+00   1.2007916e+00  -3.0835471e+00   2.1770975e+00  -1.6324266e+00   9.2018044e-01  -2.3508813e+00  -2.1841571e+00   0.0000000e+00   0.0000000e+00   5.0000000e+01   0.0000000e+00
   7.8230482e+00   5.1722003e+00  -9.5448197e-01   5.7740700e+00   3.6365841e+00   9.6122018e+00   6.3248457e+00   4.9069017e+00   2.3972884e+00   8.6635785e-01  -7.6578655e+00  -1.2114559e+01   4.6194661e+00   4.0914708e-01  -4.4086281e+00   1.2976514e+00  -9.0781341e-01   6.5493486e-01  -2.8004507e+00  -2.9337921e+00   0.0000000e+00   0.0000000e+00   5.0000000e+01   0.0000000e+00
   7.6033931e+00   4.7272454e+00  -1.8709428e+00   6.2601000e+00   4.4821745e+00   1.0013550e+01   6.1995691e+00   4.5517271e+00   2.8644158e+00   2.4295301e-01  -8.0030741e+00  -1.0880894e+01   5.9834180e+00   3.1354751e-01  -4.9260406e+00   6.3557813e-01   3.9665579e-01   6.3105198e-01  -2.4752077e+00  -3.3955886e+00   0.0000000e+00   0.0000000e+00   5.0000000e+01   0.0000000e+00
   7.0530602e+00   4.4077836e+00  -2.3258812e+00   6.3857536e+00   5.0932367e+00   1.0799613e+01   6.6641450e+00   4.5171264e+00   2.9745090e+00   1.7768814e-01  -7.6196031e+00  -1.0305980e+01   6.9505509e+00   8.8345914e-01  -4.6036404e+00   6.2953168e-01   1.6675851e+00   8.9260893e-01  -1.3517936e+00  -3.2638421e+00   0.0000000e+00   0.0000000e+00   5.0000000e+01   0.0000000e+00
   6.4227751e+00   4.3449689e+00  -2.2967991e+00   5.8829877e+00   5.2886199e+00   1.1837611e+01   7.4740563e+00   4.9036086e+00   2.4825287e+00   5.5254738e-01  -6.7298897e+00  -1.0681796e+01   7.1113728e+00   1.7366408e+00  -3.7682471e+00   1.2952943e+00   2.2422514e+00   1.2580888e+00   1.2322733e-01  -2.7180431e+00   0.0000000e+00   0.0000000e+00   5.0000000e+01   0.0000000e+00
   5.8235365e+00   4.4893301e+00  -2.0477774e+00   4.7900145e+00   5.1465327e+00   1.2687427e+01   8.1596579e+00   5.6188622e+00   1.6392500e+00   1.1529044e+00  -5.5899438e+00  -1.1749345e+01   6.8373181e+00   2.7967716e+00  -2.5923547e+00   2.3393509e+00   2.1381572e+00   1.7262835e+00   1.5492555e+00  -2.1104292e+00   0.0000000e+00   0.0000000e+00   5.0000000e+01   0.0000000e+00
   5.2623120e+00   4.6201576e+00  -1.8408863e+00   3.6352677e+00   4.8323443e+00   1.3079448e+01   8.5030544e+00   6.3600847e+00   9.3758500e-01   1.9573944e+00  -4.3356774e+00  -1.2849995e+01   6.6272960e+00   4.1710645e+00  -1.0669128e+00   3.4069517e+00   1.6980297e+00   2.2433590e+00   2.7591610e+00  -1.6864861e+00   0.0000000e+00   0.0000000e+00   5.0000000e+01   0.0000000e+00
   4.8364244e+00   4.6126566e+00  -1.8413580e+00   2.8961386e+00   4.3294556e+00   1.3113751e+01   8.5983468e+00   6.9301243e+00   6.0724636e-01   3.0280334e+00  -3.0019079e+00  -1.3524060e+01   6.4962333e+00   5.6092427e+00   6.1270623e-01   4.3591493e+00   1.0730729e+00   2.7704535e+00   3.6526045e+00  -1.5008003e+00   0.0000000e+00   0.0000000e+00   5.0000000e+01   0.0000000e+00
   4.6649768e+00   4.7078561e+00  -1.9146605e+00   2.4854510e+00   3.6846021e+00   1.3268890e+01   8.7158429e+00   7.2493811e+00   5.0634809e-01   4.1773831e+00  -1.7022797e+00  -1.3989599e+01   6.0629719e+00   6.6695157e+00   2.1212333e+00   5.0778222e+00   2.3419942e-01   3.2915449e+00   4.2658590e+00  -1.4908439e+00   0.0000000e+00   0.0000000e+00   5.0000000e+01   0.0000000e+00
   4.9212802e+00   5.2613205e+00  -1.7665210e+00   2.2632167e+00   3.2397025e+00   1.3813269e+01   9.0146088e+00   7.3311191e+00   3.7456055e-01   4.8035311e+00  -8.0225227e-01  -1.4556267e+01   5.1377833e+00   6.7751260e+00   2.9132691e+00   5.3355077e+00  -6.6443992e-01   3.8565362e+00   4.6188501e+00  -1.6595366e+00   0.0000000e+00   0.0000000e+00   5.0000000e+01   0.0000000e+00
   5.7289174e+00   6.2061727e+00  -1.4924533e+00   2.1546778e+00   3.2798236e+00   1.4416437e+01   9.1913437e+00   7.0301990e+00   8.8732239e-03   4.2605114e+00  -8.4297803e-01  -1.5070929e+01   4.0029695e+00   5.5995474e+00   2.4039104e+00   4.7487763e+00  -1.1535762e+00   4.1411356e+00   4.4481872e+00  -2.3541569e+00   0.0000000e+00   0.0000000e+00   5.0000000e+01   0.0000000e+00
   6.7325587e+00   7.1356637e+00  -1.5006088e+00   2.2067450e+00   3.8220636e+00   1.4780053e+01   8.9206404e+00   6.2517885e+00  -3.6889494e-01   2.7784490e+00  -1.8515730e+00  -1.5039994e+01   3.2682650e+00   3.6342200e+00   7.4911308e-01   3.2999563e+00  -7.9196459e-01   3.9607652e+00   3.6284604e+00  -3.7365138e+00   0.0000000e+00   0.0000000e+00   5.0000000e+01   0.0000000e+00
   7.6208348e+00   7.9544080e+00  -1.7247470e+00   2.7531153e+00   4.7259266e+00   1.5039261e+01   8.5280395e+00   5.4123904e+00  -3.3429443e-01   1.4776559e+00  -3.0147246e+00  -1.4178042e+01   3.4501714e+00   1.9095129e+00  -1.0454987e+00   1.6984376e+00   4.0818151e-01   3.6682378e+00   2.6780408e+00  -5.1709520e+00   0.0000000e+00   0.0000000e+00   5.0000000e+01   0.0000000e+00
   8.3725768e+00   8.8281525e+00  -1.6379164e+00   3.9113602e+00   5.6739268e+00   1.5380537e+01   8.5495325e+00   5.1951577e+00   2.0856111e-01   9.7574106e-01  -3.4507013e+00  -1.2895884e+01   4.4271733e+00   9.9752351e-01  -2.1712896e+00   7.5514340e-01   1.9414642e+00   3.8177450e+00   2.2325114e+00  -5.7626663e+00   0.0000000e+00   0.0000000e+00   5.0000000e+01   0.0000000e+00
   9.1319154e+00   9.6601818e+00  -1.1382649e+00   5.1780591e+00   6.2692169e+00   1.5736249e+01   8.9431172e+00   5.5823165e+00   8.3523778e-01   8.3262669e-01  -3.1902618e+00  -1.1841577e+01   5.4953117e+00   7.9104948e-01  -2.5607759e+00   4.4090578e-01   3.1865090e+00   4.2788569e+00   2.3599187e+00  -5.4457472e+00   0.0000000e+00   0.0000000e+00   5.0000000e+01   0.0000000e+00
   1.0034652e+01   1.0430763e+01  -4.4416546e-01   6.2322425e+00   6.6883375e+00   1.6188099e+01   9.4483845e+00   6.1779354e+00   1.2456685e+00   8.3157138e-01  -2.6674527e+00  -1.1042991e+01   6.4045059e+00   1.3144201e+00  -2.4604207e+00   3.6865388e-01   4.1962808e+00   4.8601479e+00   2.9478625e+00  -4.6412756e+00   0.0000000e+00   0.0000000e+00   5.0000000e+01   0.0000000e+00
   1.0873653e+01   1.1190267e+01   3.6025261e-01   7.0577219e+00   7.2309719e+00   1.6897471e+01   1.0081436e+01   6.7891351e+00   1.4076909e+00   1.2417895e+00  -2.0178658e+00  -1.0392209e+01   7.2468494e+00   2.7149982e+00  -1.8783831e+00   4.1136701e-01   5.2413755e+00   5.5971983e+00   4.0228746e+00  -3.6192395e+00   0.0000000e+00   0.0000000e+00   5.0000000e+01   0.0000000e+00
   1.1025806e+01   1.1805889e+01   1.2827617e+00   7.6151410e+00   7.6950362e+00   1.7785047e+01   1.0920112e+01   7.4697006e+00   1.4425226e+00   2.4939293e+00  -9.7546727e-01  -9.9548679e+00   8.0017015e+00   4.9684926e+00  -6.1524388e-01   8.1966146e-01   6.1175831e+00   6.6789242e+00   5.6201023e+00  -2.3656315e+00   0.0000000e+00   0.0000000e+00   5.0000000e+01   0.0000000e+00
