nt = 720
nc = 24
channels = F7 T3 T5 Fp1 F3 C3 P3 O1 F8 T4 T6 Fp2 F4 C4 P4 O2 Fz Cz Pz Oz TR SOn Occ RAp
ne = 20
type = B
fsmp = 120.0000000000
band = 0.1 0.2 44 58 0
orig.file = s6_bl1
orig.nt = 283420
orig.sample_range = 131971 135566
orig.fsmp = 600
orig.subject = 6
orig.run = 24
   1.1396582e+00  -9.5362399e+00  -5.2355218e+00   1.1916852e+01  -6.6756280e+00  -4.2369607e-01  -4.2804616e+00  -2.9851872e+00  -3.7105027e+00  -7.7381762e-03   5.2076714e+00   2.8767690e-02   1.1478990e+00  -5.6197423e+00  -7.7016837e+00  -8.5111429e-01   7.5115570e+00  -6.1329844e+00  -2.3009303e+00   2.2575131e+00   0.0000000e+00   0.0000000e+00   0.0000000e+00   0.0000000e+00
   1.3651418e+00  -1.0092729e+01  -7.1241608e+00   1.5573589e+01  -5.8813743e+00  -1.2455303e+00  -5.6846655e+00  -3.8584384e+00  -2.2037668e+00   5.1799325e-01   4.8840386e+00   3.8293789e+00   2.4467572e+00  -6.4352051e+00  -1.0479471e+01  -1.7049782e+00   9.9021184e+00  -8.4720618e+00  -2.9793667e+00   1.9376689e+00   0.0000000e+00   0.0000000e+00   0.0000000e+00   0.0000000e+00
   1.8365571e+00  -1.0708519e+01  -9.1293589e+00   1.8831195e+01  -5.1402879e+00  -2.2664584e+00  -7.1899462e+00  -4.6455940e+00  -1.0436971e+00   8.8385400e-01   5.4558328e+00   7.1329759e+00   3.6173580e+00  -7.0299642e+00  -1.2307233e+01  -2.1750774e+00   1.1577919e+01  -9.8089050e+00  -3.7930021e+00   1.4812622e+00   0.0000000e+00   0.0000000e+00   0.0000000e+00   0.0000000e+00
   1.7688058e+00  -1.1659119e+01  -1.1139442e+01   2.1403075e+01  -4.7746487e+00  -3.5454839e+00  -8.6750156e+00  -5.4238629e+00  -5.6600171e-01   1.0647200e+00   6.5871655e+00   9.4161221e+00   4.3743431e+00  -7.2221022e+00  -1.3240419e+01  -2.2351001e+00   1.2453406e+01  -1.0369424e+01  -4.3988335e+00   1.0135122e+00   0.0000000e+00   0.0000000e+00   0.0000000e+00   0.0000000e+00
   1.0809698e+00  -1.3034829e+01  -1.3000038e+01   2.2956373e+01  -4.8626041e+00  -5.1381859e+00  -1.0132638e+01  -6.3727200e+00  -7.1061088e-01   1.2718362e+00   7.6928927e+00   1.0406755e+01   4.5468763e+00  -7.0308202e+00  -1.3446781e+01  -2.0152579e+00   1.2607757e+01  -1.0653072e+01  -4.7331919e+00   5.9011110e-01   0.0000000e+00   0.0000000e+00   0.0000000e+00   0.0000000e+00
   3.8175113e-01  -1.4319684e+01  -1.4500598e+01   2.3711175e+01  -4.9656144e+00  -6.7822811e+00  -1.1329662e+01  -7.5147761e+00  -1.2758082e+00   1.6332723e+00   8.5207316e+00   1.0605533e+01   4.2471074e+00  -6.6560672e+00  -1.3227205e+01  -1.7616339e+00   1.2465766e+01  -1.1028913e+01  -4.9142189e+00   1.8907075e-01   0.0000000e+00   0.0000000e+00   0.0000000e+00   0.0000000e+00
   1.7243161e-02  -1.4969906e+01  -1.5526324e+01   2.4112773e+01  -4.8938579e+00  -8.1027978e+00  -1.1954546e+01  -8.6803997e+00  -1.9434782e+00   2.2110240e+00   9.0614513e+00   1.0612240e+01   3.7029818e+00  -6.4479158e+00  -1.2948784e+01  -1.5689636e+00   1.2223411e+01  -1.1360774e+01  -5.1076687e+00  -2.3946322e-01   0.0000000e+00   0.0000000e+00   0.0000000e+00   0.0000000e+00
  -5.5960697e-02  -1.5009633e+01  -1.6196603e+01   2.4269274e+01  -5.0029567e+00  -8.9366546e+00  -1.2092117e+01  -9.9141652e+00  -2.5057166e+00   2.8535863e+00   9.1072678e+00   1.0452634e+01   2.9350956e+00  -6.7373117e+00  -1.2870201e+01  -1.6568535e+00   1.1581646e+01  -1.1688560e+01  -5.4688554e+00  -8.2061282e-01   0.0000000e+00   0.0000000e+00   0.0000000e+00   0.0000000e+00
   7.5480714e-02  -1.4655324e+01  -1.6609218e+01   2.4367220e+01  -5.4869258e+00  -9.2625659e+00  -1.1899532e+01  -1.1062994e+01  -2.9714692e+00   3.3780476e+00   8.6521172e+00   9.9885326e+00   1.8980966e+00  -7.5106191e+00  -1.3076956e+01  -2.1316668e+00   1.0503038e+01  -1.2179832e+01  -5.9065405e+00  -1.5546678e+00   0.0000000e+00   0.0000000e+00   0.0000000e+00   0.0000000e+00
   2.5998627e-01  -1.4104546e+01  -1.6660406e+01   2.4487644e+01  -6.1771984e+00  -9.2178023e+00  -1.1568927e+01  -1.1749976e+01  -3.7574142e+00   3.4439010e+00   7.9041073e+00   9.1786293e+00   6.5428068e-01  -8.6752236e+00  -1.3561759e+01  -2.8271971e+00   9.3031393e+00  -1.2997086e+01  -6.3115093e+00  -2.1649490e+00   0.0000000e+00   0.0000000e+00   0.0000000e+00   0.0000000e+00
   2.2172132e-01  -1.3527325e+01  -1.6149000e+01   2.4529940e+01  -6.7523911e+00  -8.9792733e+00  -1.1329045e+01  -1.1795434e+01  -5.1738536e+00   2.8129111e+00   7.0551407e+00   8.1137368e+00  -5.9006035e-01  -1.0112745e+01  -1.4295980e+01  -3.4646377e+00   8.3357146e+00  -1.4019610e+01  -6.7583720e+00  -2.6052466e+00   0.0000000e+00   0.0000000e+00   0.0000000e+00   0.0000000e+00
   3.9858877e-03  -1.3058907e+01  -1.5190463e+01   2.4358261e+01  -7.0680119e+00  -8.6763706e+00  -1.1268692e+01  -1.1498694e+01  -7.0033432e+00   1.6447524e+00   6.2088225e+00   6.9261505e+00  -1.7115931e+00  -1.1548573e+01  -1.5092896e+01  -4.0078170e+00   7.7218759e+00  -1.5070837e+01  -7.2285053e+00  -2.9642361e+00   0.0000000e+00   0.0000000e+00   0.0000000e+00   0.0000000e+00
  -3.1056314e-01  -1.2775864e+01  -1.4037908e+01   2.4028678e+01  -7.2025516e+00  -8.3061456e+00  -1.1313645e+01  -1.1172008e+01  -8.6142556e+00   5.3954435e-01   5.4651885e+00   6.0730311e+00  -2.5308531e+00  -1.2613032e+01  -1.5734143e+01  -4.4321716e+00   7.4129132e+00  -1.6006390e+01  -7.5615278e+00  -3.2140403e+00   0.0000000e+00   0.0000000e+00   0.0000000e+00   0.0000000e+00
  -9.1491029e-01  -1.2835692e+01  -1.2837589e+01   2.3541991e+01  -7.4896479e+00  -8.0167353e+00  -1.1424337e+01  -1.0845198e+01  -9.6687843e+00  -9.2540820e-02   4.7920419e+00   5.7305603e+00  -2.9946827e+00  -1.3152176e+01  -1.6115297e+01  -4.7136446e+00   7.0843545e+00  -1.6883272e+01  -7.7069240e+00  -3.2719997e+00   0.0000000e+00   0.0000000e+00   0.0000000e+00   0.0000000e+00
  -1.7993246e+00  -1.3280324e+01  -1.1640612e+01   2.3109117e+01  -8.0788570e+00  -8.0261028e+00  -1.1469199e+01  -1.0295124e+01  -1.0048721e+01  -3.4013960e-01   4.2386173e+00   5.9410570e+00  -3.0655114e+00  -1.3187715e+01  -1.6178192e+01  -4.7020394e+00   6.4947370e+00  -1.7520549e+01  -7.6322807e+00  -3.0688845e+00   0.0000000e+00   0.0000000e+00   0.0000000e+00   0.0000000e+00
  -2.6524751e+00  -1.4077224e+01  -1.0680903e+01   2.2733031e+01  -8.9050348e+00  -8.3192738e+00  -1.1377687e+01  -9.5765734e+00  -9.8714625e+00  -4.6638282e-01   3.7895975e+00   6.5942936e+00  -2.9672185e+00  -1.2949564e+01  -1.5999776e+01  -4.3882610e+00   5.5275827e+00  -1.7871161e+01  -7.3069857e+00  -2.6946085e+00   0.0000000e+00   0.0000000e+00   0.0000000e+00   0.0000000e+00
  -3.3569586e+00  -1.5024553e+01  -1.0130509e+01   2.2045650e+01  -9.9650911e+00  -8.6134573e+00  -1.1209028e+01  -8.8445903e+00  -9.4152943e+00  -5.3046406e-01   3.4928653e+00   7.3678096e+00  -2.9831536e+00  -1.2537937e+01  -1.5596897e+01  -3.9218088e+00   4.3542618e+00  -1.8248724e+01  -6.7365844e+00  -2.2372679e+00   0.0000000e+00   0.0000000e+00   0.0000000e+00   0.0000000e+00
  -4.0265399e+00  -1.5890048e+01  -1.0038803e+01   2.0871333e+01  -1.1162474e+01  -8.6057882e+00  -1.1153539e+01  -8.3471153e+00  -8.9491622e+00  -5.6119714e-01   3.3977523e+00   8.0317317e+00  -3.1334025e+00  -1.1764738e+01  -1.4961062e+01  -3.5060813e+00   3.4089967e+00  -1.8905813e+01  -6.0125463e+00  -1.8452882e+00   0.0000000e+00   0.0000000e+00   0.0000000e+00   0.0000000e+00
  -4.7777213e+00  -1.6553180e+01  -1.0355966e+01   1.9585360e+01  -1.2103844e+01  -8.2819839e+00  -1.1160727e+01  -8.0955633e+00  -8.4109103e+00  -4.3859391e-01   3.6037300e+00   8.6431864e+00  -3.2141329e+00  -1.0461926e+01  -1.4147553e+01  -3.1060591e+00   3.0258338e+00  -1.9574016e+01  -5.1503183e+00  -1.5077224e+00   0.0000000e+00   0.0000000e+00   0.0000000e+00   0.0000000e+00
  -5.5684985e+00  -1.7003170e+01  -1.0891919e+01   1.8638151e+01  -1.2615619e+01  -7.9891341e+00  -1.1179495e+01  -7.9084963e+00  -7.7353733e+00  -1.3093614e-01   4.0182181e+00   9.4423343e+00  -3.0261807e+00  -8.9938193e+00  -1.3291690e+01  -2.6626427e+00   3.1556175e+00  -1.9967747e+01  -4.2900565e+00  -1.0994919e+00   0.0000000e+00   0.0000000e+00   0.0000000e+00   0.0000000e+00
  -6.0654829e+00  -1.7127446e+01  -1.1345031e+01   1.8314816e+01  -1.2551845e+01  -7.7312538e+00  -1.1123768e+01  -7.4767556e+00  -7.0040460e+00   3.1632418e-01   4.5964737e+00   1.0645277e+01  -2.3635672e+00  -7.8014370e+00  -1.2478976e+01  -2.0589499e+00   3.7119154e+00  -1.9741741e+01  -3.4917334e+00  -4.0028573e-01   0.0000000e+00   0.0000000e+00   0.0000000e+00   0.0000000e+00
  -5.8483154e+00  -1.6873605e+01  -1.1549330e+01   1.8299327e+01  -1.1713556e+01  -7.1201707e+00  -1.0654746e+01  -6.7977358e+00  -6.5002127e+00   9.9954865e-01   5.3307633e+00   1.2029744e+01  -1.2695264e+00  -6.9026688e+00  -1.1574658e+01  -1.2370748e+00   4.6447276e+00  -1.8833896e+01  -2.4556887e+00   6.4846342e-01   0.0000000e+00   0.0000000e+00   0.0000000e+00   0.0000000e+00
  -4.9527028e+00  -1.6154856e+01  -1.1316228e+01   1.8515596e+01  -1.0125325e+01  -5.7892096e+00  -9.2994126e+00  -5.9259912e+00  -5.9203280e+00   2.1801582e+00   6.3780748e+00   1.3472131e+01   9.2114259e-02  -5.8801044e+00  -1.0441563e+01  -9.2171451e-02   5.9753082e+00  -1.7033497e+01  -8.1256306e-01   2.0408420e+00   0.0000000e+00   0.0000000e+00   0.0000000e+00   0.0000000e+00
  -3.7471195e+00  -1.5147638e+01  -1.0850519e+01   1.9048568e+01  -8.2670318e+00  -4.0941283e+00  -7.3800059e+00  -5.1065462e+00  -5.0420371e+00   3.4320378e+00   7.5209077e+00   1.4695064e+01   1.3812234e+00  -4.5603165e+00  -9.4605564e+00   1.1406907e+00   7.3546548e+00  -1.4410950e+01   1.0707078e+00   3.4471540e+00   0.0000000e+00   0.0000000e+00   0.0000000e+00   0.0000000e+00
  -2.7450238e+00  -1.4209077e+01  -1.0549234e+01   1.9655879e+01  -6.6697930e+00  -2.5844013e+00  -5.6647440e+00  -4.5715304e+00  -4.0903754e+00   4.2491750e+00   8.2501808e+00   1.5441776e+01   2.3506729e+00  -3.1745470e+00  -8.9052284e+00   2.0191804e+00   8.3570973e+00  -1.1533861e+01   2.4260330e+00   4.4247953e+00   0.0000000e+00   0.0000000e+00   0.0000000e+00   0.0000000e+00
  -2.0290263e+00  -1.3471296e+01  -1.0507328e+01   2.0134882e+01  -5.4966830e+00  -1.3933758e+00  -4.4701806e+00  -4.2954899e+00  -3.1972905e+00   4.6177417e+00   8.3460101e+00   1.5847590e+01   2.8977878e+00  -1.9685665e+00  -8.5842435e+00   2.2533065e+00   8.9608173e+00  -8.9669950e+00   3.0177321e+00   4.8515022e+00   0.0000000e+00   0.0000000e+00   0.0000000e+00   0.0000000e+00
  -1.4102263e+00  -1.2759660e+01  -1.0584346e+01   2.0717796e+01  -4.5895062e+00  -4.4299009e-01  -3.5281729e+00  -4.1111389e+00  -2.3081164e+00   4.7385382e+00   8.0332795e+00   1.6220986e+01   3.0823648e+00  -9.7645338e-01  -8.3156778e+00   2.0066741e+00   9.4590630e+00  -6.7449729e+00   3.2209446e+00   4.8709925e+00   0.0000000e+00   0.0000000e+00   0.0000000e+00   0.0000000e+00
  -7.5146784e-01  -1.1930353e+01  -1.0631310e+01   2.1488861e+01  -3.7742030e+00   2.2356011e-01  -2.6616713e+00  -3.9724734e+00  -1.4670737e+00   4.7661568e+00   7.4571124e+00   1.6592744e+01   3.0880173e+00  -3.2940134e-01  -8.1316401e+00   1.5129928e+00   1.0050134e+01  -4.8234257e+00   3.2896017e+00   4.5956109e+00   0.0000000e+00   0.0000000e+00   0.0000000e+00   0.0000000e+00
   1.4131450e-01  -1.1034036e+01  -1.0596840e+01   2.2456518e+01  -2.8570641e+00   4.5910960e-01  -2.1344634e+00  -3.9800425e+00  -6.6140352e-01   4.8104282e+00   6.5650511e+00   1.7005502e+01   3.2437219e+00  -1.6636990e-01  -8.2695930e+00   8.2028788e-01   1.0827763e+01  -3.3702705e+00   3.0499710e+00   4.0128499e+00   0.0000000e+00   0.0000000e+00   0.0000000e+00   0.0000000e+00
   1.0337988e+00  -1.0292203e+01  -1.0719835e+01   2.3334431e+01  -2.0156923e+00   2.2480478e-01  -2.2659263e+00  -4.3111360e+00   2.5892579e-02   4.7459527e+00   5.3688337e+00   1.7333418e+01   3.5971921e+00  -3.4639071e-01  -8.7747848e+00  -1.1468752e-01   1.1589331e+01  -2.7122994e+00   2.3831746e+00   3.0719855e+00   0.0000000e+00   0.0000000e+00   0.0000000e+00   0.0000000e+00
   1.7138495e+00  -9.6093954e+00  -1.1070622e+01   2.4094714e+01  -1.2028204e+00   6.2618169e-02  -2.7203405e+00  -4.6994763e+00   8.5797383e-01   4.8666376e+00   4.4485106e+00   1.7657182e+01   4.2068562e+00  -2.1571793e-01  -9.1525352e+00  -9.4660406e-01   1.2304232e+01  -2.3559153e+00   1.7835277e+00   2.1390745e+00   0.0000000e+00   0.0000000e+00   0.0000000e+00   0.0000000e+00
   2.2100538e+00  -8.9033988e+00  -1.1562172e+01   2.4852266e+01  -1.7105587e-01   3.4823780e-01  -3.0219763e+00  -4.8022724e+00   2.0263437e+00   5.3481163e+00   4.1511307e+00   1.8192336e+01   4.9322311e+00   4.5231194e-01  -9.0273044e+00  -1.4176139e+00   1.2984115e+01  -1.6821040e+00   1.6819637e+00   1.5472131e+00   0.0000000e+00   0.0000000e+00   0.0000000e+00   0.0000000e+00
   2.5370615e+00  -8.2207826e+00  -1.2097423e+01   2.5730737e+01   1.0411313e+00   7.8292389e-01  -2.9572772e+00  -4.4591671e+00   3.3235584e+00   5.8327982e+00   4.1260157e+00   1.9086486e+01   5.5952942e+00   1.3094759e+00  -8.4393955e+00  -1.5323392e+00   1.3618088e+01  -7.4213106e-01   2.0552630e+00   1.4816415e+00   0.0000000e+00   0.0000000e+00   0.0000000e+00   0.0000000e+00
   2.9811780e+00  -7.6196803e+00  -1.2515377e+01   2.6961914e+01   2.2273492e+00   9.2182755e-01  -2.6983803e+00  -3.9237372e+00   4.5839156e+00   6.1280570e+00   4.0853490e+00   2.0539297e+01   6.4145849e+00   2.1319347e+00  -7.6083243e+00  -1.3351467e+00   1.4379525e+01   1.8082354e-01   2.6851609e+00   1.8429405e+00   0.0000000e+00   0.0000000e+00   0.0000000e+00   0.0000000e+00
   3.6202043e+00  -6.9263849e+00  -1.2488255e+01   2.8461008e+01   3.2617140e+00   9.5606330e-01  -2.2527697e+00  -3.2656608e+00   5.9473742e+00   6.3607275e+00   4.2927013e+00   2.2428946e+01   7.6035121e+00   3.1876741e+00  -6.8006186e+00  -7.8444609e-01   1.5346993e+01   1.2479279e+00   3.5265731e+00   2.5544960e+00   0.0000000e+00   0.0000000e+00   0.0000000e+00   0.0000000e+00
   4.0591676e+00  -6.1313595e+00  -1.1973357e+01   2.9589025e+01   3.9490346e+00   1.2304747e+00  -1.6156629e+00  -2.5386196e+00   7.2559795e+00   6.8336346e+00   4.8386983e+00   2.4000665e+01   8.8736308e+00   4.6697022e+00  -6.2017586e+00  -1.0124847e-01   1.6194313e+01   2.4957489e+00   4.5687204e+00   3.4647952e+00   0.0000000e+00   0.0000000e+00   0.0000000e+00   0.0000000e+00
   4.1203294e+00  -5.4365981e+00  -1.1256155e+01   2.9966427e+01   4.2041180e+00   1.7771095e+00  -1.0124806e+00  -2.0883249e+00   7.9972200e+00   7.5517177e+00   5.4564342e+00   2.4647569e+01   9.7292846e+00   6.1231541e+00  -5.8300029e+00   3.8488469e-01   1.6633107e+01   3.5473737e+00   5.5868767e+00   4.1445190e+00   0.0000000e+00   0.0000000e+00   0.0000000e+00   0.0000000e+00
   4.2485655e+00  -4.7414246e+00  -1.0519437e+01   2.9968232e+01   4.3534449e+00   2.4967493e+00  -5.4207891e-01  -2.0803606e+00   8.0975267e+00   8.0906502e+00   5.8421919e+00   2.4665565e+01   9.9711237e+00   6.7142503e+00  -5.9047803e+00   4.8252356e-01   1.6764365e+01   4.1956320e+00   6.2921352e+00   4.3631441e+00   0.0000000e+00   0.0000000e+00   0.0000000e+00   0.0000000e+00
   4.8270547e+00  -3.9559397e+00  -9.8819872e+00   3.0326993e+01   4.9533129e+00   3.1096493e+00  -4.7185063e-01  -2.4470499e+00   8.1200945e+00   8.2534796e+00   5.9409840e+00   2.4818142e+01   9.9269833e+00   6.2581856e+00  -6.5976414e+00   1.6034648e-01   1.6917565e+01   4.6062460e+00   6.3902743e+00   4.2010619e+00   0.0000000e+00   0.0000000e+00   0.0000000e+00   0.0000000e+00
   5.6276684e+00  -3.5419034e+00  -9.6745022e+00   3.1013804e+01   5.8377365e+00   3.0096593e+00  -1.2724040e+00  -3.1273197e+00   8.4780033e+00   8.2584705e+00   5.8225493e+00   2.5249793e+01   9.9333574e+00   5.3446094e+00  -7.6681302e+00  -6.0854987e-01   1.7103102e+01   4.6994850e+00   5.6710926e+00   3.7067488e+00   0.0000000e+00   0.0000000e+00   0.0000000e+00   0.0000000e+00
   6.2056608e+00  -3.8660820e+00  -1.0040708e+01   3.1488663e+01   6.3835729e+00   2.0599135e+00  -2.9257907e+00  -3.9441822e+00   9.4059358e+00   8.6149506e+00   5.7224165e+00   2.5926937e+01   1.0396723e+01   4.7207963e+00  -8.7932268e+00  -1.5683015e+00   1.7350186e+01   4.5352222e+00   4.3792517e+00   3.0107899e+00   0.0000000e+00   0.0000000e+00   0.0000000e+00   0.0000000e+00
   6.3649735e+00  -4.6994252e+00  -1.0848535e+01   3.1505522e+01   6.2759545e+00   6.8674450e-01  -4.8741177e+00  -4.7974347e+00   1.0733406e+01   9.3360932e+00   5.7405687e+00   2.6635766e+01   1.1229209e+01   4.5466286e+00  -9.7872103e+00  -2.3660719e+00   1.7517927e+01   4.2022146e+00   2.9503057e+00   2.1197703e+00   0.0000000e+00   0.0000000e+00   0.0000000e+00   0.0000000e+00
   6.2919855e+00  -5.4203098e+00  -1.1638360e+01   3.1340212e+01   5.7658388e+00  -4.7440694e-01  -6.3202962e+00  -5.4179815e+00   1.2019010e+01   1.0160347e+01   5.9720417e+00   2.6913140e+01   1.1838505e+01   4.6582949e+00  -1.0350936e+01  -2.5608068e+00   1.7291075e+01   3.9565277e+00   1.7561070e+00   1.2464473e+00   0.0000000e+00   0.0000000e+00   0.0000000e+00   0.0000000e+00
   6.1841852e+00  -5.8189240e+00  -1.2121355e+01   3.0886800e+01   5.1305335e+00  -1.1670488e+00  -7.0690439e+00  -5.7253364e+00   1.2608966e+01   1.0710596e+01   6.3116690e+00   2.6454025e+01   1.1667197e+01   4.6627432e+00  -1.0444640e+01  -2.2137193e+00   1.6472978e+01   3.8339550e+00   8.8872951e-01   5.3404078e-01   0.0000000e+00   0.0000000e+00   0.0000000e+00   0.0000000e+00
   5.8857263e+00  -6.0276485e+00  -1.2423806e+01   2.9855754e+01   4.2031762e+00  -1.7243186e+00  -7.5262350e+00  -5.8657578e+00   1.2314787e+01   1.0725929e+01   6.6069427e+00   2.5468099e+01   1.0621308e+01   4.2141723e+00  -1.0393180e+01  -1.7122158e+00   1.5131232e+01   3.5461980e+00   1.7742327e-01  -5.0449991e-02   0.0000000e+00   0.0000000e+00   0.0000000e+00   0.0000000e+00
   5.2563923e+00  -6.3865867e+00  -1.2790991e+01   2.8364161e+01   2.7008336e+00  -2.7514942e+00  -8.2146206e+00  -6.0459470e+00   1.1446345e+01   1.0310621e+01   6.7615425e+00   2.4334280e+01   8.9464791e+00   3.2075274e+00  -1.0592997e+01  -1.3533773e+00   1.3442021e+01   2.7843449e+00  -7.5859455e-01  -6.3402408e-01   0.0000000e+00   0.0000000e+00   0.0000000e+00   0.0000000e+00
   4.4192616e+00  -7.0973944e+00  -1.3142115e+01   2.6876636e+01   8.1444637e-01  -4.3426741e+00  -9.1590580e+00  -6.2834825e+00   1.0352789e+01   9.8507825e+00   6.8813815e+00   2.3286757e+01   7.0864180e+00   1.9230197e+00  -1.0998656e+01  -1.0734911e+00   1.1729734e+01   1.6665773e+00  -1.9666698e+00  -1.0576760e+00   0.0000000e+00   0.0000000e+00   0.0000000e+00   0.0000000e+00
   3.7149663e+00  -7.8804542e+00  -1.3243219e+01   2.5697539e+01  -9.2872908e-01  -5.7916137e+00  -9.8595383e+00  -6.4359316e+00   9.1556972e+00   9.3008668e+00   6.9998154e+00   2.2310953e+01   5.3125468e+00   8.9392180e-01  -1.1202926e+01  -7.4444435e-01   1.0324670e+01   5.3796875e-01  -2.9823268e+00  -1.1363924e+00   0.0000000e+00   0.0000000e+00   0.0000000e+00   0.0000000e+00
   3.4451821e+00  -8.1829361e+00  -1.2998604e+01   2.5025145e+01  -1.9011966e+00  -6.3769681e+00  -9.9039391e+00  -6.2373427e+00   7.9296257e+00   8.4759488e+00   6.9747521e+00   2.1629316e+01   3.9066922e+00   5.6806654e-01  -1.1045126e+01  -4.5230851e-01   9.4791961e+00  -3.8141053e-01  -3.4305060e+00  -9.0308886e-01   0.0000000e+00   0.0000000e+00   0.0000000e+00   0.0000000e+00
   3.5116034e+00  -7.8374738e+00  -1.2473485e+01   2.4675470e+01  -2.0191318e+00  -6.3088118e+00  -9.7299008e+00  -5.7944580e+00   6.8964482e+00   7.5153887e+00   6.7682456e+00   2.1324226e+01   3.0039517e+00   7.5710554e-01  -1.0756625e+01  -2.4671146e-01   9.0616998e+00  -1.1170598e+00  -3.5400898e+00  -5.8587604e-01   0.0000000e+00   0.0000000e+00   0.0000000e+00   0.0000000e+00
   3.5914452e+00  -7.1541877e+00  -1.1780004e+01   2.4381447e+01  -1.8941049e+00  -6.3764571e+00  -9.8501719e+00  -5.2781703e+00   6.4959232e+00   6.7340270e+00   6.4352887e+00   2.1019097e+01   2.2858753e+00   7.2744983e-01  -1.0778684e+01  -9.1118341e-02   8.5638398e+00  -1.6919941e+00  -3.8797576e+00  -3.6077439e-01   0.0000000e+00   0.0000000e+00   0.0000000e+00   0.0000000e+00
   3.3983525e+00  -6.6950435e+00  -1.1184677e+01   2.3732923e+01  -2.2057335e+00  -7.1613437e+00  -1.0486116e+01  -5.0436842e+00   6.4666580e+00   6.1657193e+00   5.8194938e+00   2.0432530e+01   1.3241233e+00   6.0456436e-02  -1.1352039e+01  -1.8205158e-01   7.4688049e+00  -2.4763408e+00  -4.7884365e+00  -4.3577067e-01   0.0000000e+00   0.0000000e+00   0.0000000e+00   0.0000000e+00
   2.6054726e+00  -6.7695986e+00  -1.0938586e+01   2.2454530e+01  -3.2090538e+00  -8.6950621e+00  -1.1454172e+01  -5.1401965e+00   6.1958937e+00   5.5399601e+00   4.9229898e+00   1.9514501e+01  -1.0014509e-02  -1.0246809e+00  -1.2335452e+01  -5.9385672e-01   5.6658902e+00  -3.7499285e+00  -6.1947094e+00  -8.3773353e-01   0.0000000e+00   0.0000000e+00   0.0000000e+00   0.0000000e+00
   1.2572249e+00  -7.2947244e+00  -1.1057465e+01   2.0750963e+01  -4.7229220e+00  -1.0579936e+01  -1.2610120e+01  -5.3065311e+00   5.4152516e+00   4.4627293e+00   3.9784685e+00   1.7957746e+01  -1.7223656e+00  -2.2966148e+00  -1.3409440e+01  -1.1616390e+00   3.4746635e+00  -5.4194616e+00  -7.8435820e+00  -1.2267742e+00   0.0000000e+00   0.0000000e+00   0.0000000e+00   0.0000000e+00
  -1.4696450e-01  -8.1061563e+00  -1.1443152e+01   1.9143428e+01  -6.2430616e+00  -1.2246235e+01  -1.4064712e+01  -5.6205609e+00   4.4682201e+00   3.0294699e+00   3.2900066e+00   1.5954457e+01  -3.4723901e+00  -3.5364530e+00  -1.4282505e+01  -1.5820316e+00   1.4908512e+00  -7.0153999e+00  -9.4299227e+00  -1.4943368e+00   0.0000000e+00   0.0000000e+00   0.0000000e+00   0.0000000e+00
  -1.0651509e+00  -8.9639763e+00  -1.2019242e+01   1.8047043e+01  -7.3195474e+00  -1.3377596e+01  -1.5601479e+01  -6.1675413e+00   3.8815292e+00   1.6807001e+00   2.8967705e+00   1.4271941e+01  -4.8301704e+00  -4.6818061e+00  -1.4875166e+01  -1.8880288e+00   8.1164682e-02  -8.2209155e+00  -1.0828071e+01  -1.8130667e+00   0.0000000e+00   0.0000000e+00   0.0000000e+00   0.0000000e+00
  -1.0441170e+00  -9.3421520e+00  -1.2487781e+01   1.7954792e+01  -7.4231527e+00  -1.3760840e+01  -1.6491588e+01  -6.4943263e+00   4.0600831e+00   8.0749722e-01   2.7461760e+00   1.3821916e+01  -5.2649889e+00  -5.4911933e+00  -1.5091149e+01  -2.1230611e+00  -3.7231784e-01  -8.9117677e+00  -1.1895458e+01  -1.9232420e+00   0.0000000e+00   0.0000000e+00   0.0000000e+00   0.0000000e+00
  -1.0731017e-01  -9.1171012e+00  -1.2624629e+01   1.8741273e+01  -6.4896097e+00  -1.3504163e+01  -1.6465611e+01  -6.3624748e+00   4.8863713e+00   5.0485152e-01   2.7041017e+00   1.4678144e+01  -4.5663037e+00  -5.6864554e+00  -1.4903097e+01  -2.2041169e+00   2.6924466e-01  -9.2690412e+00  -1.2458565e+01  -1.5881428e+00   0.0000000e+00   0.0000000e+00   0.0000000e+00   0.0000000e+00
   1.0466959e+00  -8.5431864e+00  -1.2333910e+01   1.9696622e+01  -5.2084404e+00  -1.2862719e+01  -1.5643051e+01  -5.7348207e+00   5.7327945e+00   4.5076300e-01   2.7649278e+00   1.5840606e+01  -3.2493305e+00  -5.2919780e+00  -1.4458468e+01  -1.9999708e+00   1.4476484e+00  -9.5098039e+00  -1.2481118e+01  -7.8467866e-01   0.0000000e+00   0.0000000e+00   0.0000000e+00   0.0000000e+00
   1.5741690e+00  -8.1711848e+00  -1.1857727e+01   1.9968361e+01  -4.6587732e+00  -1.2308493e+01  -1.4644464e+01  -4.9251301e+00   5.8084781e+00  -3.2259122e-02   2.8455659e+00   1.6155836e+01  -2.3322514e+00  -4.7903106e+00  -1.4144670e+01  -1.6744944e+00   2.0462906e+00  -9.9523221e+00  -1.2339971e+01   1.5155668e-01   0.0000000e+00   0.0000000e+00   0.0000000e+00   0.0000000e+00
   1.2867353e+00  -8.1809655e+00  -1.1382204e+01   1.9473829e+01  -5.0972744e+00  -1.2070779e+01  -1.4075720e+01  -4.3351840e+00   4.9878208e+00  -1.0826357e+00   2.8720178e+00   1.5520953e+01  -2.2521143e+00  -4.7715879e+00  -1.4178148e+01  -1.3794058e+00   1.6212740e+00  -1.0674239e+01  -1.2436665e+01   7.7302706e-01   0.0000000e+00   0.0000000e+00   0.0000000e+00   0.0000000e+00
   8.2914323e-01  -8.1559942e+00  -1.0801204e+01   1.8951887e+01  -5.7923479e+00  -1.1975289e+01  -1.3841817e+01  -4.0046892e+00   3.7380117e+00  -2.3377387e+00   2.6523683e+00   1.4510033e+01  -2.8966613e+00  -5.6927527e+00  -1.4637488e+01  -1.2373742e+00   6.8426097e-01  -1.1646187e+01  -1.2904946e+01   1.0057194e+00   0.0000000e+00   0.0000000e+00   0.0000000e+00   0.0000000e+00
   8.6274922e-01  -7.9421081e+00  -1.0143027e+01   1.9055279e+01  -6.0484995e+00  -1.1988178e+01  -1.3929014e+01  -3.9183035e+00   2.4719952e+00  -3.4724003e+00   2.0974789e+00   1.3487567e+01  -3.9216206e+00  -7.3571842e+00  -1.5661139e+01  -1.2964420e+00  -1.0068952e-01  -1.2828741e+01  -1.3833821e+01   8.8313556e-01   0.0000000e+00   0.0000000e+00   0.0000000e+00   0.0000000e+00
   1.3983516e+00  -7.8310083e+00  -9.7649582e+00   1.9567775e+01  -5.8570511e+00  -1.2404386e+01  -1.4514095e+01  -4.1498110e+00   1.3040473e+00  -4.5190930e+00   1.3055912e+00   1.2589832e+01  -4.9827145e+00  -9.2192882e+00  -1.7105930e+01  -1.6487917e+00  -5.1906275e-01  -1.4223984e+01  -1.5217998e+01   2.5926194e-01   0.0000000e+00   0.0000000e+00   0.0000000e+00   0.0000000e+00
   1.8160106e+00  -8.0615251e+00  -9.7217331e+00   2.0044318e+01  -5.6249185e+00  -1.3221314e+01  -1.5451317e+01  -4.5344424e+00   4.4554081e-01  -5.3993903e+00   5.4056149e-01   1.1829486e+01  -5.8687191e+00  -1.0854389e+01  -1.8465256e+01  -2.2092914e+00  -6.9905414e-01  -1.5664263e+01  -1.6626259e+01  -6.7656284e-01   0.0000000e+00   0.0000000e+00   0.0000000e+00   0.0000000e+00
   1.6475392e+00  -8.6707469e+00  -9.7658228e+00   2.0156962e+01  -5.7504272e+00  -1.4173777e+01  -1.6498865e+01  -4.9746792e+00  -1.6519001e-01  -6.0993555e+00  -1.4128953e-01   1.0832672e+01  -6.5367298e+00  -1.2136807e+01  -1.9401284e+01  -2.8690182e+00  -9.6722994e-01  -1.6994795e+01  -1.7653278e+01  -1.7123748e+00   0.0000000e+00   0.0000000e+00   0.0000000e+00   0.0000000e+00
   1.0640022e+00  -9.2394853e+00  -9.6407846e+00   1.9890070e+01  -6.3219172e+00  -1.5011214e+01  -1.7294127e+01  -5.1915951e+00  -5.9925751e-01  -6.6059828e+00  -7.5484563e-01   9.5688364e+00  -6.9171520e+00  -1.3053307e+01  -1.9893707e+01  -3.5352453e+00  -1.4420794e+00  -1.8000055e+01  -1.8217007e+01  -2.5985821e+00   0.0000000e+00   0.0000000e+00   0.0000000e+00   0.0000000e+00
   5.2901747e-01  -9.3436867e+00  -9.3388203e+00   1.9496932e+01  -7.0526811e+00  -1.5427178e+01  -1.7683234e+01  -5.2330584e+00  -9.0747441e-01  -6.9601966e+00  -1.3205180e+00   8.4106993e+00  -7.1169143e+00  -1.3672278e+01  -2.0023994e+01  -4.1502436e+00  -1.8784645e+00  -1.8519147e+01  -1.8406304e+01  -3.3536206e+00   0.0000000e+00   0.0000000e+00   0.0000000e+00   0.0000000e+00
   2.8856422e-01  -9.0586413e+00  -8.9805192e+00   1.9043312e+01  -7.5633027e+00  -1.5311344e+01  -1.7640343e+01  -5.4202382e+00  -1.0450190e+00  -7.2774648e+00  -1.8854820e+00   7.5864296e+00  -7.2173536e+00  -1.3973465e+01  -1.9772276e+01  -4.6735959e+00  -1.9425404e+00  -1.8586182e+01  -1.8260692e+01  -4.2132352e+00   0.0000000e+00   0.0000000e+00   0.0000000e+00   0.0000000e+00
   1.9124413e-01  -8.9008801e+00  -8.7854588e+00   1.8296091e+01  -7.9303155e+00  -1.5026825e+01  -1.7196599e+01  -5.7358021e+00  -8.8416759e-01  -7.5668751e+00  -2.4817000e+00   6.7715062e+00  -7.2460845e+00  -1.3915766e+01  -1.9166711e+01  -5.1108839e+00  -1.6938994e+00  -1.8466461e+01  -1.7773665e+01  -5.1361549e+00   0.0000000e+00   0.0000000e+00   0.0000000e+00   0.0000000e+00
   7.9188877e-02  -9.0234965e+00  -8.7661920e+00   1.7560874e+01  -8.0589430e+00  -1.4725668e+01  -1.6343110e+01  -5.9006265e+00  -1.3003558e-01  -7.4472486e+00  -2.8636779e+00   5.8171447e+00  -7.0263546e+00  -1.3404647e+01  -1.8183553e+01  -5.2480386e+00  -1.2461303e+00  -1.8179221e+01  -1.6876167e+01  -5.7016571e+00   0.0000000e+00   0.0000000e+00   0.0000000e+00   0.0000000e+00
   9.4547172e-02  -9.0977729e+00  -8.5547099e+00   1.7456264e+01  -7.6576371e+00  -1.4297920e+01  -1.5109602e+01  -5.6966607e+00   1.1647240e+00  -6.8857046e+00  -2.8072409e+00   5.0582105e+00  -6.5589002e+00  -1.2517799e+01  -1.6826714e+01  -4.9087171e+00  -7.6155255e-01  -1.7575045e+01  -1.5528144e+01  -5.5415036e+00   0.0000000e+00   0.0000000e+00   0.0000000e+00   0.0000000e+00
   3.4885465e-01  -8.9522870e+00  -7.8719825e+00   1.7859943e+01  -6.8454983e+00  -1.3585157e+01  -1.3714792e+01  -5.2497259e+00   2.2357742e+00  -6.5153690e+00  -2.4260305e+00   4.6560439e+00  -6.2511142e+00  -1.1548660e+01  -1.5181850e+01  -4.2608892e+00  -4.0735892e-01  -1.6810749e+01  -1.3864093e+01  -4.8234071e+00   0.0000000e+00   0.0000000e+00   0.0000000e+00   0.0000000e+00
   7.3829065e-01  -8.7727237e+00  -7.0379655e+00   1.8156975e+01  -6.0384198e+00  -1.2714611e+01  -1.2389130e+01  -4.9167411e+00   2.4997170e+00  -6.6082464e+00  -1.9588385e+00   4.1483841e+00  -6.3637808e+00  -1.0680126e+01  -1.3459490e+01  -3.6579205e+00  -3.8600928e-02  -1.6301928e+01  -1.2209521e+01  -4.0686452e+00   0.0000000e+00   0.0000000e+00   0.0000000e+00   0.0000000e+00
   9.1148484e-01  -8.7017116e+00  -6.4985502e+00   1.8355739e+01  -5.4229242e+00  -1.2020639e+01  -1.1280383e+01  -4.7273547e+00   2.3778061e+00  -6.7361731e+00  -1.4640981e+00   3.2607608e+00  -6.6018426e+00  -9.7675258e+00  -1.2112225e+01  -3.1701337e+00   6.8152007e-01  -1.5966612e+01  -1.0924113e+01  -3.4665372e+00   0.0000000e+00   0.0000000e+00   0.0000000e+00   0.0000000e+00
   6.9451565e-01  -8.9084945e+00  -6.3727999e+00   1.8594557e+01  -5.0077313e+00  -1.1721224e+01  -1.0649293e+01  -4.6397665e+00   2.3939440e+00  -6.5030176e+00  -1.1586549e+00   2.4185829e+00  -6.6737444e+00  -8.9707934e+00  -1.1580636e+01  -2.7648335e+00   1.8094785e+00  -1.5579962e+01  -1.0288789e+01  -3.1150375e+00   0.0000000e+00   0.0000000e+00   0.0000000e+00   0.0000000e+00
   2.1731755e-01  -9.4972689e+00  -6.4708773e+00   1.8841008e+01  -4.7605180e+00  -1.1734883e+01  -1.0520972e+01  -4.5678560e+00   2.7044177e+00  -5.9546409e+00  -1.1724085e+00   2.1072565e+00  -6.4810828e+00  -8.6388565e+00  -1.1810581e+01  -2.4211840e+00   3.1856497e+00  -1.5123115e+01  -1.0258656e+01  -2.8283750e+00   0.0000000e+00   0.0000000e+00   0.0000000e+00   0.0000000e+00
  -3.8719776e-01  -1.0239139e+01  -6.5493071e+00   1.8978570e+01  -4.7750080e+00  -1.1792492e+01  -1.0678311e+01  -4.5609725e+00   3.0629770e+00  -5.3212966e+00  -1.3931155e+00   2.0786566e+00  -6.2038695e+00  -8.7903371e+00  -1.2342978e+01  -2.2329698e+00   4.4449363e+00  -1.4865463e+01  -1.0444552e+01  -2.4951118e+00   0.0000000e+00   0.0000000e+00   0.0000000e+00   0.0000000e+00
  -8.9154000e-01  -1.0593602e+01  -6.2698788e+00   1.9152593e+01  -4.9061157e+00  -1.1424050e+01  -1.0545674e+01  -4.4276653e+00   3.3197271e+00  -4.5850538e+00  -1.3016700e+00   2.1261553e+00  -5.7928666e+00  -8.7165469e+00  -1.2498325e+01  -2.0252721e+00   5.4425873e+00  -1.4597007e+01  -1.0186957e+01  -1.8865515e+00   0.0000000e+00   0.0000000e+00   0.0000000e+00   0.0000000e+00
  -1.2325893e+00  -1.0556618e+01  -5.7272144e+00   1.9252065e+01  -4.9460307e+00  -1.0616198e+01  -9.8915277e+00  -3.9287891e+00   3.4141683e+00  -3.7046564e+00  -5.2077055e-01   2.0759788e+00  -5.1913969e+00  -7.7920170e+00  -1.1838616e+01  -1.6166460e+00   6.0972831e+00  -1.4006790e+01  -9.1241001e+00  -9.9384666e-01   0.0000000e+00   0.0000000e+00   0.0000000e+00   0.0000000e+00
  -1.6537819e+00  -1.0651016e+01  -5.4973141e+00   1.9010003e+01  -5.0038086e+00  -9.8802856e+00  -9.0739915e+00  -3.2396512e+00   3.2124789e+00  -2.7481771e+00   6.9322106e-01   1.6452587e+00  -4.6547228e+00  -6.3055870e+00  -1.0502310e+01  -1.1578750e+00   6.2564713e+00  -1.3502316e+01  -7.5973210e+00   4.2587319e-02   0.0000000e+00   0.0000000e+00   0.0000000e+00   0.0000000e+00
  -2.1879361e+00  -1.0997498e+01  -5.7435261e+00   1.8331229e+01  -5.2912661e+00  -9.4105654e+00  -8.4466745e+00  -2.6775818e+00   2.5964880e+00  -2.1199112e+00   1.9179572e+00   7.8831404e-01  -4.4132564e+00  -4.9790717e+00  -8.9224575e+00  -8.4537316e-01   5.8609428e+00  -1.3593560e+01  -6.1597037e+00   1.0885201e+00   0.0000000e+00   0.0000000e+00   0.0000000e+00   0.0000000e+00
  -2.6648356e+00  -1.1137205e+01  -6.1526504e+00   1.7365025e+01  -5.8553072e+00  -9.0775055e+00  -8.0496102e+00  -2.3345314e+00   1.6329915e+00  -2.0164588e+00   2.9453044e+00  -2.9163495e-01  -4.5011051e+00  -4.3269708e+00  -7.6099129e+00  -4.8447072e-01   4.9538294e+00  -1.4125477e+01  -5.1377627e+00   2.0911938e+00   0.0000000e+00   0.0000000e+00   0.0000000e+00   0.0000000e+00
  -3.1983358e+00  -1.1046141e+01  -6.7204379e+00   1.6214675e+01  -6.8328127e+00  -9.2690146e+00  -7.9907025e+00  -2.3110883e+00   4.7339748e-01  -2.4258805e+00   3.4374612e+00  -1.5301910e+00  -5.0691003e+00  -4.7148035e+00  -7.0624787e+00  -7.4847792e-02   3.4153357e+00  -1.4969764e+01  -4.9038238e+00   2.7113107e+00   0.0000000e+00   0.0000000e+00   0.0000000e+00   0.0000000e+00
  -3.8018750e+00  -1.1071099e+01  -7.5658591e+00   1.5139312e+01  -8.0532280e+00  -1.0181764e+01  -8.3241816e+00  -2.6587575e+00  -5.9807245e-01  -3.1819932e+00   3.2207424e+00  -2.8563935e+00  -6.1857179e+00  -5.8653298e+00  -7.2186485e+00   4.6152101e-02   1.3738478e+00  -1.6293741e+01  -5.5991649e+00   2.6469254e+00   0.0000000e+00   0.0000000e+00   0.0000000e+00   0.0000000e+00
  -4.2152770e+00  -1.1265940e+01  -8.5603593e+00   1.4293291e+01  -8.9758018e+00  -1.1283737e+01  -8.8603651e+00  -3.2297728e+00  -1.3276534e+00  -3.9825966e+00   2.5632579e+00  -3.9043930e+00  -7.4409719e+00  -6.9681968e+00  -7.5907415e+00  -1.5354820e-01  -5.4175837e-01  -1.7983215e+01  -6.7751322e+00   1.9777635e+00   0.0000000e+00   0.0000000e+00   0.0000000e+00   0.0000000e+00
  -4.2677576e+00  -1.1187932e+01  -9.2443819e+00   1.3850038e+01  -9.1485861e+00  -1.1999695e+01  -9.0900678e+00  -3.5187213e+00  -1.5864755e+00  -4.5436608e+00   2.0063750e+00  -4.1372879e+00  -8.1459693e+00  -7.3427172e+00  -7.7746562e+00  -2.8922129e-01  -1.5844924e+00  -1.9356380e+01  -7.7131729e+00   1.2435857e+00   0.0000000e+00   0.0000000e+00   0.0000000e+00   0.0000000e+00
  -3.9183183e+00  -1.0669472e+01  -9.4295017e+00   1.3934136e+01  -8.5758565e+00  -1.2380586e+01  -9.0086066e+00  -3.4827964e+00  -1.6594889e+00  -4.9344283e+00   1.6663539e+00  -3.6522667e+00  -8.2150197e+00  -7.0974348e+00  -7.8688635e+00  -3.3254835e-01  -1.6754242e+00  -2.0199309e+01  -8.2577419e+00   6.8874228e-01   0.0000000e+00   0.0000000e+00   0.0000000e+00   0.0000000e+00
  -3.2237007e+00  -9.9879169e+00  -9.3010226e+00   1.4423060e+01  -7.3795606e+00  -1.2610952e+01  -8.9623198e+00  -3.5237876e+00  -1.8436385e+00  -5.3116669e+00   1.3499611e+00  -2.9922699e+00  -7.9973043e+00  -6.8417558e+00  -8.0785449e+00  -5.0845048e-01  -1.2113385e+00  -2.0917167e+01  -8.6511809e+00   1.2980147e-01   0.0000000e+00   0.0000000e+00   0.0000000e+00   0.0000000e+00
  -2.3747520e+00  -9.3975983e+00  -9.1873583e+00   1.5218474e+01  -5.7109227e+00  -1.2622408e+01  -8.9670280e+00  -3.6865552e+00  -2.3012711e+00  -5.7030220e+00   9.8061889e-01  -2.3944229e+00  -7.8087864e+00  -6.9583549e+00  -8.4007089e+00  -8.9452636e-01  -5.4318220e-01  -2.1747856e+01  -9.0355300e+00  -4.1036579e-01   0.0000000e+00   0.0000000e+00   0.0000000e+00   0.0000000e+00
  -1.7570895e+00  -9.0941039e+00  -9.3874125e+00   1.6032531e+01  -4.1132837e+00  -1.2436365e+01  -8.9294037e+00  -3.7756349e+00  -3.0935016e+00  -6.1450620e+00   6.4371799e-01  -1.9046608e+00  -7.7469852e+00  -7.2814448e+00  -8.7515268e+00  -1.4811453e+00  -1.1564077e-02  -2.2590865e+01  -9.4232482e+00  -8.1466577e-01   0.0000000e+00   0.0000000e+00   0.0000000e+00   0.0000000e+00
  -1.5789455e+00  -9.0387940e+00  -9.9210109e+00   1.6474772e+01  -3.0515625e+00  -1.2129187e+01  -8.8007347e+00  -3.7223328e+00  -4.0501822e+00  -6.7103433e+00   4.4801688e-01  -1.7023122e+00  -7.7395872e+00  -7.5279212e+00  -9.0255168e+00  -2.3671364e+00   2.0998546e-01  -2.3324389e+01  -9.7448028e+00  -1.1738083e+00   0.0000000e+00   0.0000000e+00   0.0000000e+00   0.0000000e+00
  -1.7005407e+00  -9.0007055e+00  -1.0517087e+01   1.6711390e+01  -2.4972327e+00  -1.1654174e+01  -8.5763589e+00  -3.7294386e+00  -4.7674585e+00  -7.3054468e+00   4.4019839e-01  -1.8175201e+00  -7.7219441e+00  -7.6470847e+00  -9.2061020e+00  -3.4797934e+00   2.5596783e-01  -2.3884392e+01  -9.9623281e+00  -1.5645596e+00   0.0000000e+00   0.0000000e+00   0.0000000e+00   0.0000000e+00
  -2.0102418e+00  -9.0141359e+00  -1.0956610e+01   1.6678142e+01  -2.4069443e+00  -1.1318174e+01  -8.3301471e+00  -3.9966300e+00  -5.1918273e+00  -7.8586805e+00   4.8295327e-01  -2.1157899e+00  -7.7466979e+00  -7.7815903e+00  -9.3431680e+00  -4.5188182e+00   1.0906891e-01  -2.4435111e+01  -1.0179600e+01  -1.9879008e+00   0.0000000e+00   0.0000000e+00   0.0000000e+00   0.0000000e+00
  -2.4708849e+00  -9.0409716e+00  -1.1038522e+01   1.6366416e+01  -2.6298266e+00  -1.1300399e+01  -7.8730254e+00  -4.0062502e+00  -5.4114720e+00  -8.2460178e+00   6.1773718e-01  -2.2645007e+00  -7.6685547e+00  -7.9331587e+00  -9.4031740e+00  -4.9721067e+00  -1.3118884e-01  -2.4913759e+01  -1.0430587e+01  -2.0903935e+00   0.0000000e+00   0.0000000e+00   0.0000000e+00   0.0000000e+00
  -3.0072923e+00  -9.1023757e+00  -1.0779828e+01   1.6103965e+01  -2.9827315e+00  -1.1447615e+01  -7.1871733e+00  -3.5256099e+00  -5.3992632e+00  -8.1862330e+00   9.3772734e-01  -2.1297973e+00  -7.4163873e+00  -8.0503748e+00  -9.4076363e+00  -4.7489310e+00  -3.6330597e-01  -2.5100782e+01  -1.0664716e+01  -1.7179995e+00   0.0000000e+00   0.0000000e+00   0.0000000e+00   0.0000000e+00
  -3.8139104e+00  -9.3516756e+00  -1.0394963e+01   1.5770928e+01  -3.6876370e+00  -1.1706689e+01  -6.5010105e+00  -2.9695237e+00  -5.2249387e+00  -7.6327544e+00   1.3595175e+00  -1.8971894e+00  -7.0569932e+00  -7.9286884e+00  -9.3867014e+00  -4.2798956e+00  -8.1641809e-01  -2.5063499e+01  -1.0732856e+01  -1.1775578e+00   0.0000000e+00   0.0000000e+00   0.0000000e+00   0.0000000e+00
  -4.9346003e+00  -9.8075386e+00  -1.0090392e+01   1.4989964e+01  -4.9781901e+00  -1.2097994e+01  -6.0480898e+00  -2.7119796e+00  -5.2847933e+00  -7.0250338e+00   1.5468209e+00  -1.8626473e+00  -6.7713982e+00  -7.5312509e+00  -9.4005587e+00  -3.9888238e+00  -1.7117503e+00  -2.5135111e+01  -1.0569847e+01  -8.3404881e-01   0.0000000e+00   0.0000000e+00   0.0000000e+00   0.0000000e+00
  -5.8319974e+00  -1.0175870e+01  -9.8569508e+00   1.4342211e+01  -6.1606817e+00  -1.2296549e+01  -5.8607104e+00  -2.6800377e+00  -5.5633065e+00  -6.6507711e+00   1.3633864e+00  -1.7114396e+00  -6.2908374e+00  -6.7823533e+00  -9.4986300e+00  -3.8730399e+00  -2.5253547e+00  -2.5179471e+01  -1.0247748e+01  -7.0066347e-01   0.0000000e+00   0.0000000e+00   0.0000000e+00   0.0000000e+00
  -5.8283582e+00  -1.0127276e+01  -9.6589463e+00   1.4736013e+01  -6.1941501e+00  -1.1989543e+01  -5.7961316e+00  -2.6548878e+00  -5.5796732e+00  -6.2899419e+00   1.0567333e+00  -9.6129454e-01  -5.2407748e+00  -5.5919398e+00  -9.6613906e+00  -3.7787852e+00  -2.4763145e+00  -2.4834396e+01  -9.8415519e+00  -6.2772671e-01   0.0000000e+00   0.0000000e+00   0.0000000e+00   0.0000000e+00
  -5.0365782e+00  -9.7898226e+00  -9.6302180e+00   1.6017350e+01  -5.0653542e+00  -1.1293584e+01  -5.7787254e+00  -2.7073159e+00  -5.1270787e+00  -5.8152235e+00   9.2002957e-01   2.9227585e-01  -3.8524393e+00  -4.3351813e+00  -9.7938429e+00  -3.6291077e+00  -1.6243557e+00  -2.4229448e+01  -9.4741702e+00  -6.6652575e-01   0.0000000e+00   0.0000000e+00   0.0000000e+00   0.0000000e+00
  -4.1265935e+00  -9.4890456e+00  -9.9278400e+00   1.7285920e+01  -3.8028026e+00  -1.0541219e+01  -5.9498729e+00  -3.0963697e+00  -4.6703942e+00  -5.6865996e+00   7.7544185e-01   1.3946809e+00  -2.8020875e+00  -3.7657417e+00  -9.9927728e+00  -3.6380815e+00  -7.8942318e-01  -2.3948431e+01  -9.4080114e+00  -1.1891911e+00   0.0000000e+00   0.0000000e+00   0.0000000e+00   0.0000000e+00
  -3.2959446e+00  -9.1350866e+00  -1.0390311e+01   1.8058979e+01  -2.8177917e+00  -9.6953846e+00  -6.2602119e+00  -3.6653698e+00  -4.6602060e+00  -6.2047371e+00   3.9694217e-01   1.8570876e+00  -2.4738037e+00  -4.1817426e+00  -1.0424655e+01  -3.9488212e+00  -3.7271499e-01  -2.4078183e+01  -9.6855338e+00  -2.1138893e+00   0.0000000e+00   0.0000000e+00   0.0000000e+00   0.0000000e+00
  -2.4856605e+00  -8.7346737e+00  -1.0676675e+01   1.8111359e+01  -2.0484192e+00  -8.7414750e+00  -6.5826430e+00  -4.1262096e+00  -5.3532909e+00  -7.3506742e+00  -2.3410223e-01   1.3932349e+00  -2.9981855e+00  -5.3426495e+00  -1.1123324e+01  -4.4306894e+00  -3.6804397e-01  -2.4360782e+01  -1.0131308e+01  -2.8994014e+00   0.0000000e+00   0.0000000e+00   0.0000000e+00   0.0000000e+00
  -1.9867822e+00  -8.6137419e+00  -1.0619442e+01   1.7478222e+01  -1.8155799e+00  -8.0068612e+00  -6.8589722e+00  -4.3328137e+00  -6.6282631e+00  -8.6160207e+00  -9.2509410e-01  -1.9579778e-04  -4.2574165e+00  -6.6655828e+00  -1.1842811e+01  -4.8534682e+00  -7.9917274e-01  -2.4742077e+01  -1.0580192e+01  -3.3795631e+00   0.0000000e+00   0.0000000e+00   0.0000000e+00   0.0000000e+00
  -2.1499029e+00  -8.8957185e+00  -1.0406916e+01   1.6342386e+01  -2.5127551e+00  -7.8294047e+00  -7.0462490e+00  -4.1992849e+00  -8.0369460e+00  -9.4486546e+00  -1.3252723e+00  -1.9601464e+00  -5.8707919e+00  -7.6924466e+00  -1.2151955e+01  -5.1309362e+00  -1.8590101e+00  -2.5257366e+01  -1.0853024e+01  -3.3997514e+00   0.0000000e+00   0.0000000e+00   0.0000000e+00   0.0000000e+00
  -2.7673118e+00  -9.2814380e+00  -1.0246304e+01   1.5081140e+01  -3.8261346e+00  -8.0502966e+00  -6.9999519e+00  -3.7400333e+00  -9.1217775e+00  -9.6939926e+00  -1.2415504e+00  -3.9870717e+00  -7.3463057e+00  -8.2764221e+00  -1.1868291e+01  -5.2867542e+00  -3.4433179e+00  -2.5706082e+01  -1.0749101e+01  -2.9550570e+00   0.0000000e+00   0.0000000e+00   0.0000000e+00   0.0000000e+00
  -3.0887746e+00  -9.4229794e+00  -1.0194084e+01   1.4362160e+01  -4.6802271e+00  -7.9567548e+00  -6.6085115e+00  -3.3213687e+00  -9.5596733e+00  -9.2825220e+00  -8.4241619e-01  -5.4763418e+00  -8.1561656e+00  -8.3244132e+00  -1.1133029e+01  -5.3179546e+00  -4.7510391e+00  -2.5709614e+01  -1.0098156e+01  -2.3321492e+00   0.0000000e+00   0.0000000e+00   0.0000000e+00   0.0000000e+00
  -2.6634677e+00  -9.1083677e+00  -1.0189633e+01   1.4729018e+01  -4.1609096e+00  -6.9300638e+00  -5.8402254e+00  -3.1184785e+00  -9.2310398e+00  -8.2337458e+00  -3.0894218e-01  -5.7525197e+00  -7.7323723e+00  -7.6060027e+00  -1.0104503e+01  -5.0854435e+00  -4.7798831e+00  -2.4907319e+01  -8.8206958e+00  -1.8198471e+00   0.0000000e+00   0.0000000e+00   0.0000000e+00   0.0000000e+00
  -1.8881016e+00  -8.5478458e+00  -1.0268472e+01   1.5859929e+01  -2.5338868e+00  -5.3214072e+00  -4.9642022e+00  -3.0702610e+00  -8.3923210e+00  -6.8871371e+00   1.4467104e-01  -4.8699006e+00  -6.2130735e+00  -6.1940290e+00  -9.0891189e+00  -4.6995001e+00  -3.4361222e+00  -2.3346420e+01  -7.1969198e+00  -1.5037940e+00   0.0000000e+00   0.0000000e+00   0.0000000e+00   0.0000000e+00
  -1.3514129e+00  -7.9949410e+00  -1.0367062e+01   1.7071898e+01  -7.7765044e-01  -4.0089411e+00  -4.2745989e+00  -2.8956761e+00  -7.3315090e+00  -5.6835329e+00   3.9116303e-01  -3.4536314e+00  -4.4350048e+00  -4.5196992e+00  -8.4796306e+00  -4.3468543e+00  -1.6086010e+00  -2.1382314e+01  -5.8362135e+00  -1.2000493e+00   0.0000000e+00   0.0000000e+00   0.0000000e+00   0.0000000e+00
  -1.1258066e+00  -7.4616381e+00  -1.0310683e+01   1.7960871e+01   5.2095414e-01  -3.4934596e+00  -4.0385447e+00  -2.5703248e+00  -6.3388671e+00  -4.7266556e+00   4.4752327e-01  -2.0270916e+00  -3.0542110e+00  -3.0297226e+00  -8.4550275e+00  -4.1230170e+00  -1.7744421e-01  -1.9456494e+01  -5.2347970e+00  -8.6748496e-01   0.0000000e+00   0.0000000e+00   0.0000000e+00   0.0000000e+00
  -7.3579653e-01  -6.7808955e+00  -9.9261026e+00   1.8691455e+01   1.6114866e+00  -3.4198655e+00  -4.2319654e+00  -2.3663696e+00  -5.4947273e+00  -3.8770562e+00   4.4787743e-01  -5.4356796e-01  -1.9822783e+00  -1.8316031e+00  -8.8001870e+00  -3.9708579e+00   1.0101493e+00  -1.7841897e+01  -5.3069419e+00  -7.1640074e-01   0.0000000e+00   0.0000000e+00   0.0000000e+00   0.0000000e+00
   9.2346996e-02  -5.9801776e+00  -9.2574340e+00   1.9372988e+01   2.8658350e+00  -3.2747514e+00  -4.5135588e+00  -2.4379531e+00  -4.8678933e+00  -3.3490147e+00   4.3543934e-01   1.1027434e+00  -9.2878247e-01  -8.8785493e-01  -9.2093584e+00  -3.9035651e+00   2.4401108e+00  -1.6676396e+01  -5.6014111e+00  -8.5421950e-01   0.0000000e+00   0.0000000e+00   0.0000000e+00   0.0000000e+00
   8.3972178e-01  -5.2119995e+00  -8.4986701e+00   1.9619348e+01   3.9630643e+00  -2.9731249e+00  -4.6367870e+00  -2.6349480e+00  -4.6703666e+00  -3.4146960e+00   3.6178092e-01   2.4074622e+00  -2.0149501e-01  -2.4833464e-01  -9.4920125e+00  -3.9275913e+00   3.7163372e+00  -1.6128368e+01  -5.8246253e+00  -1.1553771e+00   1.0000000e+03   0.0000000e+00   0.0000000e+00   0.0000000e+00
   9.9544443e-01  -4.5871332e+00  -7.9448106e+00   1.8997779e+01   4.2818318e+00  -2.8041574e+00  -4.8318686e+00  -2.8220958e+00  -5.2340623e+00  -4.0015787e+00   1.7582414e-01   2.6680490e+00  -4.3803158e-01  -3.0117388e-01  -9.8038536e+00  -4.0026201e+00   4.0371319e+00  -1.6294206e+01  -6.1806843e+00  -1.5531688e+00   1.0000000e+03   0.0000000e+00   0.0000000e+00   0.0000000e+00
   7.0255422e-01  -4.2255437e+00  -7.8342245e+00   1.7644271e+01   3.6691181e+00  -3.1222834e+00  -5.3652433e+00  -2.9984592e+00  -6.6908823e+00  -4.7049462e+00  -1.9818062e-01   1.8385156e+00  -1.7172142e+00  -1.2686989e+00  -1.0346938e+01  -4.1019781e+00   3.2759630e+00  -1.7182691e+01  -6.9376319e+00  -2.1283697e+00   1.0000000e+03   3.0000000e+01   0.0000000e+00   0.0000000e+00
   4.2072246e-01  -4.0092203e+00  -7.9356232e+00   1.6194417e+01   2.6502511e+00  -3.7136396e+00  -5.8441046e+00  -3.0039006e+00  -8.5225841e+00  -5.1410174e+00  -6.2581209e-01   5.9483787e-01  -3.3680301e+00  -2.4632714e+00  -1.0802228e+01  -3.9662752e+00   2.1254301e+00  -1.8369153e+01  -7.6650904e+00  -2.6036514e+00   1.0000000e+03   3.0000000e+01   0.0000000e+00   0.0000000e+00
   3.3499083e-01  -3.7385327e+00  -7.8462686e+00   1.5173396e+01   1.8990076e+00  -3.9284601e+00  -5.7785314e+00  -2.7752936e+00  -9.9250787e+00  -5.3193118e+00  -8.7521335e-01  -4.3289157e-01  -4.6283113e+00  -3.0084258e+00  -1.0745210e+01  -3.3525305e+00   1.3143398e+00  -1.9120838e+01  -7.7053051e+00  -2.6763013e+00   1.0000000e+03   3.0000000e+01   0.0000000e+00   0.0000000e+00
   2.3136917e-01  -3.5036458e+00  -7.6174985e+00   1.4731490e+01   1.5713128e+00  -3.7040914e+00  -5.1209330e+00  -2.4464156e+00  -1.0592336e+01  -5.3508454e+00  -1.0218490e+00  -1.0294078e+00  -5.1671257e+00  -2.8344224e+00  -1.0341447e+01  -2.4763545e+00   9.7802481e-01  -1.9018077e+01  -6.9943692e+00  -2.4555725e+00   0.0000000e+00   3.0000000e+01   0.0000000e+00   0.0000000e+00
  -5.4822890e-02  -3.3761802e+00  -7.4470168e+00   1.4614221e+01   1.3938626e+00  -3.5875773e+00  -4.1263878e+00  -2.0573161e+00  -1.0655111e+01  -5.2724409e+00  -1.3777851e+00  -1.2580661e+00  -5.1864284e+00  -2.5098540e+00  -1.0131154e+01  -1.8424023e+00   8.0923111e-01  -1.8305332e+01  -6.0911482e+00  -2.1280922e+00   0.0000000e+00   3.0000000e+01   0.0000000e+00   0.0000000e+00
  -6.1635725e-01  -3.4400477e+00  -7.5309606e+00   1.4281196e+01   9.0806756e-01  -4.1161378e+00  -3.5211109e+00  -1.8225126e+00  -1.0479338e+01  -5.3474052e+00  -2.1973555e+00  -1.4498040e+00  -5.2869573e+00  -2.7909064e+00  -1.0533760e+01  -1.8003706e+00   2.8944144e-01  -1.7661253e+01  -5.7683049e+00  -1.9824232e+00   0.0000000e+00   3.0000000e+01   0.0000000e+00   0.0000000e+00
  -1.2290324e+00  -3.6888182e+00  -7.9523706e+00   1.3663418e+01  -4.7122892e-02  -5.3543217e+00  -3.8095898e+00  -1.9890643e+00  -1.0281849e+01  -5.4826474e+00  -3.2828676e+00  -1.8484481e+00  -5.7040622e+00  -3.8074523e+00  -1.1440201e+01  -2.1290189e+00  -8.1977441e-01  -1.7371446e+01  -6.3574574e+00  -2.2211358e+00   0.0000000e+00   3.0000000e+01   0.0000000e+00   0.0000000e+00
  -1.5747954e+00  -3.9271042e+00  -8.5308109e+00   1.3035427e+01  -1.2069323e+00  -7.0087212e+00  -4.6960972e+00  -2.4575686e+00  -9.9288183e+00  -5.0902321e+00  -4.1413919e+00  -2.3708935e+00  -6.1244632e+00  -4.9137700e+00  -1.2220189e+01  -2.3229235e+00  -2.1925204e+00  -1.7153369e+01  -7.4570131e+00  -2.6870984e+00   0.0000000e+00   3.0000000e+01   0.0000000e+00   0.0000000e+00
  -1.7175755e+00  -4.0604363e+00  -8.9685883e+00   1.2538108e+01  -2.1503621e+00  -8.5056669e+00  -5.5103828e+00  -2.9921867e+00  -9.2166532e+00  -4.1897140e+00  -4.5381872e+00  -2.6996084e+00  -6.0212668e+00  -5.4497218e+00  -1.2373304e+01  -2.1515441e+00  -3.1857333e+00  -1.6745366e+01  -8.3254020e+00  -3.0349381e+00   0.0000000e+00   3.0000000e+01   0.0000000e+00   0.0000000e+00
  -1.8572595e+00  -4.1795994e+00  -9.1326465e+00   1.2229996e+01  -2.7053810e+00  -9.2494465e+00  -5.7778925e+00  -3.3590054e+00  -8.1005634e+00  -3.3093219e+00  -4.6299679e+00  -2.5003134e+00  -5.1150206e+00  -5.2899795e+00  -1.1852193e+01  -1.7025558e+00  -3.4554145e+00  -1.6156105e+01  -8.4545161e+00  -2.9347119e+00   0.0000000e+00   3.0000000e+01   0.0000000e+00   0.0000000e+00
  -1.9595124e+00  -4.2837180e+00  -9.1111046e+00   1.2355382e+01  -2.8679738e+00  -9.0540961e+00  -5.3252210e+00  -3.1795200e+00  -6.6525158e+00  -2.5156771e+00  -4.5041579e+00  -1.7068783e+00  -3.6711842e+00  -4.5838420e+00  -1.0786889e+01  -9.8242378e-01  -3.0733926e+00  -1.5363224e+01  -7.8002815e+00  -2.1366345e+00   0.0000000e+00   3.0000000e+01   0.0000000e+00   0.0000000e+00
  -1.9011612e+00  -4.4723852e+00  -9.1899597e+00   1.2756522e+01  -2.8803145e+00  -8.3772597e+00  -4.6039905e+00  -2.6362037e+00  -5.3315354e+00  -2.1074297e+00  -4.3180744e+00  -9.4386981e-01  -2.5660947e+00  -3.8271030e+00  -9.6319376e+00  -1.9027619e-01  -2.5197351e+00  -1.4639575e+01  -6.8658229e+00  -1.0380194e+00   0.0000000e+00   3.0000000e+01   0.0000000e+00   0.0000000e+00
  -1.8234032e+00  -4.8375943e+00  -9.4487779e+00   1.3071843e+01  -3.0419901e+00  -7.8040003e+00  -4.2559247e+00  -2.2851674e+00  -4.6221553e+00  -2.2755418e+00  -4.2242462e+00  -6.9382653e-01  -2.3614123e+00  -3.4556781e+00  -8.8728625e+00   4.5329815e-01  -2.1388559e+00  -1.4268800e+01  -6.2672898e+00  -2.9298969e-01   0.0000000e+00   3.0000000e+01   0.0000000e+00   0.0000000e+00
  -1.9325603e+00  -5.2316163e+00  -9.8117351e+00   1.3127862e+01  -3.5303815e+00  -7.6539903e+00  -4.3787702e+00  -2.2429627e+00  -4.6978032e+00  -2.5970143e+00  -4.2790660e+00  -1.0469062e+00  -3.0236589e+00  -3.6499955e+00  -8.6011578e+00   8.1085896e-01  -2.0098285e+00  -1.4116135e+01  -6.2455144e+00  -1.2583825e-01   0.0000000e+00   3.0000000e+01   0.0000000e+00   0.0000000e+00
  -2.1372205e+00  -5.1971284e+00  -1.0113461e+01   1.3104952e+01  -4.1444121e+00  -7.6721390e+00  -4.4059920e+00  -2.0554153e+00  -5.1584803e+00  -2.5170546e+00  -4.2687722e+00  -1.7246612e+00  -4.0034172e+00  -4.0182307e+00  -8.3700967e+00   9.8098458e-01  -2.0431733e+00  -1.3686408e+01  -6.3479341e+00  -5.4522490e-02   0.0000000e+00   3.0000000e+01   0.0000000e+00   0.0000000e+00
  -2.2779987e+00  -4.8132504e+00  -1.0435973e+01   1.3098072e+01  -4.5836809e+00  -7.4578161e+00  -4.1626442e+00  -1.8892779e+00  -5.4261029e+00  -1.8461533e+00  -4.0087262e+00  -2.3673977e+00  -4.7177353e+00  -3.9415330e+00  -7.7512758e+00   1.0198929e+00  -2.1437302e+00  -1.2846940e+01  -6.0589096e+00   1.5531568e-01   0.0000000e+00   3.0000000e+01   0.0000000e+00   0.0000000e+00
  -2.3325216e+00  -4.6058911e+00  -1.0985624e+01   1.3223420e+01  -4.5412658e+00  -6.7307120e+00  -3.7493467e+00  -2.2944354e+00  -4.9633046e+00  -5.8903307e-01  -3.4812320e+00  -2.5780399e+00  -4.6400339e+00  -3.1105479e+00  -6.6632505e+00   8.2944703e-01  -1.9013293e+00  -1.1779375e+01  -5.1905673e+00   2.3115913e-01   0.0000000e+00   3.0000000e+01   0.0000000e+00   0.0000000e+00
  -2.0749581e+00  -4.5749567e+00  -1.1479082e+01   1.3868419e+01  -3.6057946e+00  -5.3829811e+00  -2.8762263e+00  -2.9199811e+00  -3.5875864e+00   1.0603211e+00  -2.6809321e+00  -2.0833843e+00  -3.3963708e+00  -1.4941181e+00  -5.2237525e+00   5.3713331e-01  -7.0536746e-01  -1.0430598e+01  -3.6806722e+00   2.5158712e-01   0.0000000e+00   3.0000000e+01   0.0000000e+00   0.0000000e+00
  -1.3630585e+00  -4.3314376e+00  -1.1387503e+01   1.5132447e+01  -1.7915258e+00  -3.6781589e+00  -1.4875664e+00  -3.0851813e+00  -1.9244001e+00   2.6088703e+00  -1.6852212e+00  -1.0648527e+00  -1.4307878e+00   6.0852333e-01  -3.6427455e+00   4.5905334e-01   1.3191896e+00  -8.7778829e+00  -1.8359897e+00   5.1015050e-01   0.0000000e+00   3.0000000e+01   0.0000000e+00   0.0000000e+00
  -5.2589062e-01  -3.7705549e+00  -1.0515549e+01   1.6415186e+01   9.5284812e-02  -2.2235964e+00  -5.2364885e-02  -2.5542887e+00  -9.7460543e-01   3.5407198e+00  -8.8132337e-01  -2.8799236e-01   8.9405708e-02   2.3790892e+00  -2.2237798e+00   6.2167169e-01   3.1160257e+00  -7.2221876e+00  -2.6760753e-01   1.0670841e+00   0.0000000e+00   3.0000000e+01   0.0000000e+00   0.0000000e+00
   1.4886672e-02  -3.0672751e+00  -8.9862723e+00   1.7017084e+01   1.3129152e+00  -1.4720270e+00   1.0981766e+00  -1.3707573e+00  -9.6903765e-01   3.7786745e+00  -4.9646637e-01  -3.5045423e-01   5.0434217e-01   3.2322710e+00  -1.2200275e+00   8.9892769e-01   3.8980299e+00  -6.2486861e+00   6.3084237e-01   1.9101804e+00   0.0000000e+00   3.0000000e+01   0.0000000e+00   0.0000000e+00
  -1.0917802e-01  -2.6207910e+00  -7.3055510e+00   1.6696914e+01   1.5565095e+00  -1.6584212e+00   1.7864358e+00  -7.4141797e-02  -1.5022771e+00   3.4943188e+00  -3.8560016e-01  -1.1235375e+00   3.7586383e-02   3.2467486e+00  -6.9000366e-01   1.1847451e+00   3.6710144e+00  -6.1279274e+00   8.0384987e-01   2.7653459e+00   0.0000000e+00   3.0000000e+01   0.0000000e+00   0.0000000e+00
  -9.4174261e-01  -2.5670372e+00  -5.9032460e+00   1.5971155e+01   1.0538350e+00  -2.5091780e+00   2.1886478e+00   9.8295371e-01  -2.1104870e+00   2.9323273e+00  -2.3651149e-01  -1.9956944e+00  -7.8393426e-01   2.9419028e+00  -4.2472282e-01   1.5665456e+00   2.9963778e+00  -6.6237431e+00   5.8511625e-01   3.4990502e+00   0.0000000e+00   3.0000000e+01   0.0000000e+00   0.0000000e+00
  -2.0069033e+00  -2.6496522e+00  -4.8963016e+00   1.5538625e+01   4.1652853e-01  -3.3022292e+00   2.6124740e+00   1.8793226e+00  -2.5899663e+00   2.5189895e+00   1.7680465e-01  -2.4598025e+00  -1.4466331e+00   2.7820200e+00  -2.2116048e-01   2.2671981e+00   2.5420712e+00  -6.9347783e+00   5.1727358e-01   4.2536810e+00   0.0000000e+00   3.0000000e+01   0.0000000e+00   0.0000000e+00
  -2.9278078e+00  -2.6491285e+00  -4.2921589e+00   1.5281579e+01  -7.2021970e-02  -3.5705668e+00   3.1200372e+00   2.6215057e+00  -3.1485935e+00   2.3197071e+00   7.5425131e-01  -2.7156087e+00  -1.8861550e+00   2.7825925e+00  -8.1169576e-02   3.1559530e+00   2.3830326e+00  -6.7509982e+00   6.9075374e-01   4.9579545e+00   0.0000000e+00   3.0000000e+01   0.0000000e+00   0.0000000e+00
  -3.6200937e+00  -2.5645763e+00  -4.0629021e+00   1.4731689e+01  -4.7661166e-01  -3.4160828e+00   3.5228553e+00   3.0918026e+00  -4.0031771e+00   1.9497231e+00   1.2554750e+00  -3.2440971e+00  -2.4263527e+00   2.7272585e+00  -1.6425246e-01   3.8811544e+00   2.1697720e+00  -6.4502143e+00   7.2214943e-01   5.2709099e+00   0.0000000e+00   3.0000000e+01   0.0000000e+00   0.0000000e+00
  -4.3221930e+00  -2.5608796e+00  -4.0356569e+00   1.3901131e+01  -9.9272738e-01  -3.3109455e+00   3.6124996e+00   3.3897717e+00  -4.9334515e+00   1.5125565e+00   1.6767654e+00  -3.9923896e+00  -3.1752793e+00   2.4886336e+00  -5.5217056e-01   4.4107900e+00   1.6144800e+00  -6.1925647e+00   4.1553877e-01   5.1420430e+00   0.0000000e+00   3.0000000e+01   0.0000000e+00   0.0000000e+00
  -5.1897347e+00  -2.7499952e+00  -3.9863280e+00   1.2819339e+01  -1.8328187e+00  -3.6822347e+00   3.3021500e+00   3.5400302e+00  -5.7885210e+00   1.3577385e+00   2.0078253e+00  -4.6379157e+00  -4.1180445e+00   1.9225153e+00  -1.3196382e+00   4.7909321e+00   5.0916291e-01  -5.8888974e+00  -1.5621278e-01   4.7158505e+00   0.0000000e+00   3.0000000e+01   0.0000000e+00   0.0000000e+00
  -5.9156546e+00  -2.9871663e+00  -3.8101018e+00   1.1467478e+01  -2.8770297e+00  -4.4601475e+00   2.8645295e+00   3.4554013e+00  -6.4790343e+00   1.2373132e+00   2.0405694e+00  -4.9178931e+00  -5.2861401e+00   9.3453685e-01  -2.4342847e+00   4.8827373e+00  -1.1071869e+00  -5.7228836e+00  -8.6701303e-01   3.9820089e+00   0.0000000e+00   3.0000000e+01   0.0000000e+00   0.0000000e+00
  -6.0856349e+00  -3.0483535e+00  -3.4858541e+00   1.0209923e+01  -3.5404153e+00  -5.1650445e+00   2.6970492e+00   3.1917055e+00  -6.8192382e+00   1.0707179e+00   1.7805304e+00  -4.6198509e+00  -6.4838576e+00  -3.6331710e-01  -3.4589691e+00   4.6160590e+00  -2.7387421e+00  -5.8827108e+00  -1.4608068e+00   3.0321261e+00   0.0000000e+00   3.0000000e+01   0.0000000e+00   0.0000000e+00
  -5.6865220e+00  -2.8171442e+00  -2.9972474e+00   9.7579495e+00  -3.3332184e+00  -5.1862045e+00   2.9584780e+00   3.0312940e+00  -6.6836455e+00   1.3796357e+00   1.5989442e+00  -3.5624159e+00  -7.1807493e+00  -1.5439543e+00  -3.9741979e+00   4.2668773e+00  -3.6333449e+00  -6.0263711e+00  -1.6198921e+00   2.2366803e+00   0.0000000e+00   3.0000000e+01   0.0000000e+00   0.0000000e+00
  -5.3780728e+00  -2.5290306e+00  -2.6176138e+00   1.0010330e+01  -2.8073082e+00  -4.6373786e+00   3.3203557e+00   3.1188376e+00  -6.2568108e+00   2.1217909e+00   1.6508345e+00  -2.2961938e+00  -7.4439773e+00  -2.2053203e+00  -4.0441931e+00   4.0594909e+00  -4.0077759e+00  -5.8837366e+00  -1.4187277e+00   1.7390595e+00   0.0000000e+00   3.0000000e+01   0.0000000e+00   0.0000000e+00
  -5.5125312e+00  -2.4113461e+00  -2.6440740e+00   1.0267027e+01  -2.6946271e+00  -4.2635170e+00   3.3701259e+00   3.2620259e+00  -5.7076393e+00   2.8145971e+00   1.7521297e+00  -1.7039823e+00  -7.6672899e+00  -2.1610699e+00  -3.8189000e+00   4.0165980e+00  -4.6168064e+00  -5.7266066e+00  -1.1534276e+00   1.4166210e+00   0.0000000e+00   3.0000000e+01   0.0000000e+00   0.0000000e+00
  -5.8201149e+00  -2.4774641e+00  -3.2646122e+00   1.0165569e+01  -2.9691142e+00  -4.4478711e+00   2.9345215e+00   3.0442986e+00  -5.1507635e+00   3.2316487e+00   1.5226578e+00  -1.9113111e+00  -7.9093364e+00  -1.9096259e+00  -3.7494708e+00   3.9407273e+00  -5.4863834e+00  -5.9354174e+00  -1.1032371e+00   9.7665106e-01   0.0000000e+00   3.0000000e+01   0.0000000e+00   0.0000000e+00
  -6.0262207e+00  -2.7151042e+00  -4.4719328e+00   9.9201695e+00  -3.1991933e+00  -4.9789344e+00   2.0925112e+00   2.3363234e+00  -4.7503960e+00   3.1845094e+00   6.4669179e-01  -2.4664201e+00  -7.9904046e+00  -2.1363151e+00  -4.3777115e+00   3.5497156e+00  -6.0800618e+00  -6.4850270e+00  -1.5113333e+00   1.2773494e-01   0.0000000e+00   3.0000000e+01   0.0000000e+00   0.0000000e+00
  -5.9308630e+00  -3.1334523e+00  -5.9922358e+00   9.9093365e+00  -3.1282319e+00  -5.5857269e+00   1.0647437e+00   1.4805362e+00  -4.5113407e+00   2.4457895e+00  -9.0969237e-01  -2.9373628e+00  -7.7760584e+00  -3.0507523e+00  -5.6961345e+00   2.7113559e+00  -6.1067348e+00  -6.9743306e+00  -2.3450313e+00  -1.0367561e+00   0.0000000e+00   3.0000000e+01   0.0000000e+00   0.0000000e+00
  -5.5054017e+00  -3.6604901e+00  -7.5197761e+00   1.0210300e+01  -2.9053931e+00  -6.0938413e+00   1.0429959e-01   8.5968271e-01  -4.1704221e+00   9.9975278e-01  -2.9336512e+00  -3.0184153e+00  -7.3335374e+00  -4.2767779e+00  -7.2709692e+00   1.5302103e+00  -5.9059476e+00  -7.2500365e+00  -3.2622360e+00  -2.1763141e+00   0.0000000e+00   3.0000000e+01   0.0000000e+00   0.0000000e+00
  -5.0515975e+00  -4.2827179e+00  -8.9497471e+00   1.0565637e+01  -2.9344546e+00  -6.5138023e+00  -7.7595234e-01   4.7896415e-01  -3.7906907e+00  -8.7671127e-01  -5.2484871e+00  -2.8750044e+00  -6.9909999e+00  -5.3714974e+00  -8.8645699e+00   3.2404358e-01  -6.0957780e+00  -7.4652795e+00  -4.0826332e+00  -3.1371914e+00   0.0000000e+00   3.0000000e+01   0.0000000e+00   0.0000000e+00
  -4.8512994e+00  -5.0399689e+00  -1.0237224e+01   1.0714007e+01  -3.3906573e+00  -6.8247356e+00  -1.7433591e+00   6.1393397e-02  -3.8885836e+00  -2.9696331e+00  -7.6975190e+00  -2.9186576e+00  -6.9837490e+00  -6.2169425e+00  -1.0441687e+01  -6.7707897e-01  -6.8776387e+00  -7.6760988e+00  -4.8528132e+00  -3.9744747e+00   0.0000000e+00   3.0000000e+01   0.0000000e+00   0.0000000e+00
  -4.7894305e+00  -5.9191038e+00  -1.1420823e+01   1.0672915e+01  -3.9689329e+00  -7.0147410e+00  -2.8852514e+00  -5.2705680e-01  -4.6396637e+00  -5.1400485e+00  -1.0036933e+01  -3.1217075e+00  -7.3167201e+00  -6.9310142e+00  -1.1920621e+01  -1.4780296e+00  -7.8938812e+00  -7.8784284e+00  -5.6456696e+00  -4.7581864e+00   0.0000000e+00   3.0000000e+01   0.0000000e+00   0.0000000e+00
  -4.6307533e+00  -6.8694513e+00  -1.2638117e+01   1.0736268e+01  -4.3513419e+00  -7.4626340e+00  -4.2221693e+00  -1.1902706e+00  -5.4600383e+00  -7.1302042e+00  -1.2016026e+01  -3.0970889e+00  -7.9154007e+00  -7.6933293e+00  -1.3234409e+01  -2.2026665e+00  -8.6458883e+00  -8.2191051e+00  -6.5659070e+00  -5.4957773e+00   0.0000000e+00   3.0000000e+01   0.0000000e+00   0.0000000e+00
  -4.3548179e+00  -7.7897255e+00  -1.3915518e+01   1.1080883e+01  -4.4927702e+00  -8.4825935e+00  -5.6861468e+00  -1.8825447e+00  -5.9564461e+00  -8.7679460e+00  -1.3558151e+01  -2.7879200e+00  -8.5940589e+00  -8.5414989e+00  -1.4433516e+01  -3.0410255e+00  -8.8171705e+00  -8.8314257e+00  -7.6036157e+00  -6.2399703e+00   0.0000000e+00   3.0000000e+01   0.0000000e+00   0.0000000e+00
  -3.9812221e+00  -8.4516781e+00  -1.4951096e+01   1.1706835e+01  -4.3281291e+00  -9.6843856e+00  -6.9739267e+00  -2.5344946e+00  -6.1710852e+00  -9.9768433e+00  -1.4626284e+01  -2.4114590e+00  -9.0067726e+00  -9.1815786e+00  -1.5564481e+01  -3.9037869e+00  -8.2525579e+00  -9.5219695e+00  -8.6006307e+00  -6.9622171e+00   0.0000000e+00   3.0000000e+01   0.0000000e+00   0.0000000e+00
  -3.4719680e+00  -8.8192251e+00  -1.5424904e+01   1.2462766e+01  -3.8014257e+00  -1.0610051e+01  -7.8541280e+00  -2.9988463e+00  -6.2853829e+00  -1.0671081e+01  -1.5173635e+01  -2.1199892e+00  -8.9686553e+00  -9.3840583e+00  -1.6555194e+01  -4.5674438e+00  -7.0678606e+00  -9.9704056e+00  -9.4661577e+00  -7.5495805e+00   0.0000000e+00   3.0000000e+01   0.0000000e+00   0.0000000e+00
  -2.9082789e+00  -9.1340278e+00  -1.5363341e+01   1.2986804e+01  -3.0723888e+00  -1.1198985e+01  -8.3628555e+00  -3.2781963e+00  -6.4686894e+00  -1.0804371e+01  -1.5274151e+01  -1.9526040e+00  -8.6348033e+00  -9.1137717e+00  -1.7261970e+01  -5.0397865e+00  -5.7631872e+00  -1.0277310e+01  -1.0202056e+01  -7.9263914e+00   0.0000000e+00   3.0000000e+01   0.0000000e+00   0.0000000e+00
  -2.5992804e+00  -9.6590392e+00  -1.5173342e+01   1.3014449e+01  -2.5107394e+00  -1.1629021e+01  -8.7337619e+00  -3.5646929e+00  -6.7649344e+00  -1.0607561e+01  -1.4975373e+01  -1.8983853e+00  -8.3354018e+00  -8.5723131e+00  -1.7662429e+01  -5.4498666e+00  -4.9721571e+00  -1.0650224e+01  -1.0829716e+01  -8.1834635e+00   0.0000000e+00   3.0000000e+01   0.0000000e+00   0.0000000e+00
  -2.8108279e+00  -1.0342488e+01  -1.5151147e+01   1.2658574e+01  -2.2937699e+00  -1.1816391e+01  -9.0048583e+00  -3.9221766e+00  -7.1030440e+00  -1.0392025e+01  -1.4298997e+01  -1.8509978e+00  -8.2537081e+00  -8.2047711e+00  -1.7753167e+01  -5.7371880e+00  -4.8291907e+00  -1.0975597e+01  -1.1270665e+01  -8.4257268e+00   0.0000000e+00   3.0000000e+01   0.0000000e+00   0.0000000e+00
  -3.5436749e+00  -1.1010339e+01  -1.5281210e+01   1.2057997e+01  -2.4627576e+00  -1.1752289e+01  -9.1867966e+00  -4.3178408e+00  -7.2388769e+00  -1.0310970e+01  -1.3513083e+01  -1.8139366e+00  -8.2765255e+00  -8.3682985e+00  -1.7676636e+01  -5.8331124e+00  -5.0244860e+00  -1.1069683e+01  -1.1529537e+01  -8.7475452e+00   0.0000000e+00   3.0000000e+01   0.0000000e+00   0.0000000e+00
  -4.3943379e+00  -1.1440762e+01  -1.5384556e+01   1.1429149e+01  -2.8526765e+00  -1.1634834e+01  -9.2745272e+00  -4.5623464e+00  -6.9796455e+00  -1.0288550e+01  -1.2851221e+01  -1.7181578e+00  -7.8909411e+00  -8.8140373e+00  -1.7587340e+01  -5.8130358e+00  -5.0375197e+00  -1.0874064e+01  -1.1695647e+01  -9.0889712e+00   0.0000000e+00   3.0000000e+01   0.0000000e+00   0.0000000e+00
  -4.6889665e+00  -1.1491604e+01  -1.5324957e+01   1.1138770e+01  -3.0046310e+00  -1.1425152e+01  -9.2308356e+00  -4.5255841e+00  -6.3859530e+00  -1.0068608e+01  -1.2333709e+01  -1.2393885e+00  -6.7234923e+00  -8.9161645e+00  -1.7462562e+01  -5.8049083e+00  -4.4663578e+00  -1.0327107e+01  -1.1766063e+01  -9.3724013e+00   0.0000000e+00   3.0000000e+01   0.0000000e+00   0.0000000e+00
  -4.3475802e+00  -1.1316787e+01  -1.5166958e+01   1.1182057e+01  -2.7037243e+00  -1.1075233e+01  -9.1289189e+00  -4.5905847e+00  -5.6008376e+00  -9.6071684e+00  -1.1976228e+01  -4.2030805e-01  -5.2478496e+00  -8.4487897e+00  -1.7297368e+01  -5.9910366e+00  -3.6352075e+00  -9.5514103e+00  -1.1825816e+01  -9.7810354e+00   0.0000000e+00   3.0000000e+01   0.0000000e+00   0.0000000e+00
  -3.9476422e+00  -1.1228767e+01  -1.5090443e+01   1.1128664e+01  -2.3765801e+00  -1.0759521e+01  -9.0364419e+00  -5.0122251e+00  -5.1348042e+00  -9.0569738e+00  -1.1844583e+01   6.4319790e-03  -4.3857945e+00  -7.8505193e+00  -1.7261069e+01  -6.4746350e+00  -3.3938637e+00  -8.8485926e+00  -1.2033562e+01  -1.0344341e+01   0.0000000e+00   3.0000000e+01   0.0000000e+00   0.0000000e+00
  -3.9334896e+00  -1.1405161e+01  -1.5145843e+01   1.0604915e+01  -2.5215339e+00  -1.0714744e+01  -8.9816565e+00  -5.5548413e+00  -5.3694306e+00  -8.5757074e+00  -1.1877257e+01  -4.7804444e-01  -4.5687591e+00  -7.4864509e+00  -1.7428556e+01  -7.1049074e+00  -4.0826697e+00  -8.5162710e+00  -1.2378063e+01  -1.0758610e+01   0.0000000e+00   3.0000000e+01   0.0000000e+00   0.0000000e+00
  -4.3557986e+00  -1.1858912e+01  -1.5321071e+01   9.6877906e+00  -3.1099563e+00  -1.1092829e+01  -9.1024478e+00  -6.0469290e+00  -5.9294384e+00  -8.2323407e+00  -1.2036097e+01  -1.4630797e+00  -5.4946642e+00  -7.3351185e+00  -1.7715623e+01  -7.7736575e+00  -5.2496636e+00  -8.5452674e+00  -1.2739129e+01  -1.0974428e+01   0.0000000e+00   3.0000000e+01   0.0000000e+00   0.0000000e+00
  -5.1247811e+00  -1.2432428e+01  -1.5534548e+01   8.6727199e+00  -3.8373800e+00  -1.1787094e+01  -9.3936617e+00  -6.4572405e+00  -6.1063761e+00  -7.7632584e+00  -1.2247341e+01  -2.2552056e+00  -6.5946625e+00  -7.1527154e+00  -1.7855194e+01  -8.4221290e+00  -6.4023464e+00  -8.5937523e+00  -1.2996024e+01  -1.1132642e+01   0.0000000e+00   3.0000000e+01   0.0000000e+00   0.0000000e+00
  -6.0331029e+00  -1.2983507e+01  -1.5778762e+01   7.6296541e+00  -4.5427386e+00  -1.2559375e+01  -9.7360271e+00  -6.7375125e+00  -5.7879013e+00  -7.0291521e+00  -1.2348741e+01  -2.7927777e+00  -7.6181317e+00  -6.9316536e+00  -1.7695975e+01  -8.8759204e+00  -7.4440552e+00  -8.3592765e+00  -1.3103688e+01  -1.1212102e+01   0.0000000e+00   3.0000000e+01   0.0000000e+00   0.0000000e+00
  -6.7246001e+00  -1.3420123e+01  -1.5969884e+01   6.6307714e+00  -5.0917373e+00  -1.3051287e+01  -9.8494115e+00  -6.7501550e+00  -5.4035655e+00  -6.3737390e+00  -1.2237502e+01  -3.4260905e+00  -8.6759481e+00  -6.7970462e+00  -1.7275372e+01  -8.9163365e+00  -8.3991047e+00  -7.8869034e+00  -1.2996680e+01  -1.1005921e+01   0.0000000e+00   3.0000000e+01   0.0000000e+00   0.0000000e+00
  -6.9925327e+00  -1.3531670e+01  -1.5888657e+01   5.8960242e+00  -5.3266866e+00  -1.3025418e+01  -9.5240975e+00  -6.4031846e+00  -5.2687911e+00  -5.9410738e+00  -1.1809167e+01  -4.3531319e+00  -9.8494387e+00  -6.7897294e+00  -1.6602945e+01  -8.4595218e+00  -9.2289783e+00  -7.2794922e+00  -1.2559879e+01  -1.0340417e+01   0.0000000e+00   3.0000000e+01   0.0000000e+00   0.0000000e+00
  -6.9046658e+00  -1.3135962e+01  -1.5365896e+01   5.5022862e+00  -5.0745460e+00  -1.2437944e+01  -8.7569750e+00  -5.6497935e+00  -5.2281801e+00  -5.4253303e+00  -1.0897166e+01  -5.1001662e+00  -1.0701615e+01  -6.6287268e+00  -1.5523882e+01  -7.4554806e+00  -9.6257237e+00  -6.4306828e+00  -1.1664263e+01  -9.1529592e+00   0.0000000e+00   3.0000000e+01   0.0000000e+00   0.0000000e+00
  -6.7828524e+00  -1.2371782e+01  -1.4462507e+01   5.1165791e+00  -4.4258841e+00  -1.1487333e+01  -7.6690854e+00  -4.5164177e+00  -4.8973803e+00  -4.5797246e+00  -9.5159273e+00  -5.1829168e+00  -1.0778151e+01  -5.8627589e+00  -1.3883948e+01  -5.9467715e+00  -9.4014521e+00  -5.1195770e+00  -1.0213458e+01  -7.4930871e+00   0.0000000e+00   3.0000000e+01   0.0000000e+00   0.0000000e+00
  -6.7226206e+00  -1.1410006e+01  -1.3405951e+01   4.5743065e+00  -3.6233203e+00  -1.0332243e+01  -6.3936918e+00  -3.1530879e+00  -4.2043596e+00  -3.8090779e+00  -8.1819869e+00  -4.7351938e+00  -1.0180919e+01  -4.5183860e+00  -1.2055784e+01  -4.3988646e+00  -8.7065512e+00  -3.5244817e+00  -8.4950076e+00  -5.6444607e+00   0.0000000e+00   3.0000000e+01   0.0000000e+00   0.0000000e+00
  -6.4588096e+00  -1.0278369e+01  -1.2298576e+01   4.2198579e+00  -2.7367883e+00  -8.9344601e+00  -5.2270037e+00  -1.9819888e+00  -3.5447207e+00  -3.7835900e+00  -7.5046000e+00  -4.1846724e+00  -9.3538234e+00  -3.2646810e+00  -1.0858587e+01  -3.4311305e+00  -7.6539655e+00  -2.1211883e+00  -7.1689064e+00  -4.2104665e+00   0.0000000e+00   3.0000000e+01   0.0000000e+00   0.0000000e+00
  -5.8883366e+00  -9.0430163e+00  -1.1136598e+01   4.3581170e+00  -1.7564267e+00  -7.4375700e+00  -4.4410930e+00  -1.4036022e+00  -3.1670004e+00  -4.4039548e+00  -7.5194213e+00  -3.7957913e+00  -8.7066206e+00  -2.5837315e+00  -1.0562226e+01  -3.1962913e+00  -6.3563968e+00  -1.1796483e+00  -6.5581559e+00  -3.6358525e+00   0.0000000e+00   3.0000000e+01   0.0000000e+00   0.0000000e+00
  -5.2935664e+00  -7.8879025e+00  -1.0111919e+01   4.7817294e+00  -7.9131907e-01  -6.3701212e+00  -3.9923734e+00  -1.2925065e+00  -2.9273555e+00  -4.7968186e+00  -7.8233288e+00  -3.5948148e+00  -8.2824324e+00  -2.2404732e+00  -1.0735607e+01  -3.4076430e+00  -5.1123786e+00  -5.5379218e-01  -6.3717692e+00  -3.7270754e+00   0.0000000e+00   3.0000000e+01   0.0000000e+00   0.0000000e+00
  -4.9026028e+00  -7.1385123e+00  -9.3731828e+00   5.1271064e+00  -6.9405488e-02  -6.0162818e+00  -3.7307088e+00  -1.3581641e+00  -2.6458356e+00  -4.5935005e+00  -8.0682081e+00  -3.4623306e+00  -7.9016336e+00  -1.7924906e+00  -1.0856587e+01  -3.7658709e+00  -4.1863809e+00  -1.1227378e-01  -6.2098878e+00  -3.9939586e+00   0.0000000e+00   3.0000000e+01   0.0000000e+00   0.0000000e+00
  -4.6895583e+00  -6.9363256e+00  -8.9747137e+00   5.3426499e+00   3.1719319e-01  -6.0270179e+00  -3.4747993e+00  -1.3744512e+00  -2.1814173e+00  -4.0715808e+00  -8.1172667e+00  -3.1091188e+00  -7.4192941e+00  -1.2509627e+00  -1.0855492e+01  -3.9978883e+00  -3.5825470e+00   2.4899174e-01  -5.9380673e+00  -4.1102447e+00   0.0000000e+00   3.0000000e+01   0.0000000e+00   0.0000000e+00
  -4.4751416e+00  -7.0590249e+00  -8.9404187e+00   5.7481218e+00   6.5165250e-01  -5.8680135e+00  -3.1215076e+00  -1.1639972e+00  -1.5108390e+00  -3.4970026e+00  -7.9338699e+00  -2.2159282e+00  -6.7506597e+00  -8.7872486e-01  -1.0890147e+01  -3.8458141e+00  -3.1267268e+00   7.9114984e-01  -5.7033673e+00  -3.9453025e+00   0.0000000e+00   3.0000000e+01   0.0000000e+00   0.0000000e+00
  -4.1549630e+00  -7.3535162e+00  -9.1352760e+00   6.5130638e+00   1.2635849e+00  -5.4083470e+00  -2.7581435e+00  -7.6701585e-01  -9.9737256e-01  -2.9135555e+00  -7.5299051e+00  -1.0247853e+00  -6.0658841e+00  -6.7790515e-01  -1.0879908e+01  -3.2813304e+00  -2.7840452e+00   1.7814342e+00  -5.5574777e+00  -3.5123876e+00   0.0000000e+00   3.0000000e+01   0.0000000e+00   0.0000000e+00
  -3.7936840e+00  -7.7017768e+00  -9.3544810e+00   7.2651655e+00   2.1185372e+00  -4.8491664e+00  -2.4240385e+00  -3.6889505e-01  -9.8644340e-01  -2.2491221e+00  -7.1371315e+00  -6.0826270e-02  -5.6017737e+00  -4.5974207e-01  -1.0634267e+01  -2.6340364e+00  -2.6787709e+00   3.0526888e+00  -5.3227947e+00  -3.0132410e+00   0.0000000e+00   3.0000000e+01   0.0000000e+00   0.0000000e+00
  -3.4560535e+00  -7.9664360e+00  -9.5172083e+00   7.6844268e+00   2.9284295e+00  -4.3866099e+00  -2.0737501e+00  -1.1947696e-01  -1.3191127e+00  -1.4110370e+00  -6.9692179e+00   6.5155801e-01  -5.1863528e+00  -1.1446982e-01  -1.0176105e+01  -2.2438301e+00  -2.6875216e+00   4.3041601e+00  -4.8716934e+00  -2.7188088e+00   0.0000000e+00   3.0000000e+01   0.0000000e+00   0.0000000e+00
  -3.1355623e+00  -7.9531361e+00  -9.4524388e+00   8.0376330e+00   3.6568264e+00  -3.8136953e+00  -1.5002579e+00   5.0769284e-02  -1.6065936e+00  -6.1273088e-01  -6.9439227e+00   1.3464702e+00  -4.5378098e+00   2.2392905e-01  -9.6356888e+00  -2.1440935e+00  -2.4654560e+00   5.4732069e+00  -4.2223179e+00  -2.7125374e+00   0.0000000e+00   3.0000000e+01   0.0000000e+00   0.0000000e+00
  -2.7455996e+00  -7.5768259e+00  -8.9352638e+00   8.6837513e+00   4.4553807e+00  -2.9519958e+00  -6.7040436e-01   2.5862061e-01  -1.8475245e+00  -3.2040160e-01  -7.0065266e+00   1.9823231e+00  -3.9785022e+00   7.0175822e-02  -9.2796120e+00  -2.4309365e+00  -1.9844580e+00   6.4452100e+00  -3.6440538e+00  -2.9896041e+00   0.0000000e+00   3.0000000e+01   0.0000000e+00   0.0000000e+00
  -2.0753632e+00  -6.8248276e+00  -7.9612793e+00   9.6713490e+00   5.3695632e+00  -2.0299755e+00   3.1739813e-01   6.3254317e-01  -2.5108445e+00  -7.0526028e-01  -7.2969146e+00   2.3657153e+00  -4.0090100e+00  -6.8160812e-01  -9.3321200e+00  -3.2396336e+00  -1.4765115e+00   6.8140753e+00  -3.4181189e+00  -3.3779013e+00   0.0000000e+00   3.0000000e+01   0.0000000e+00   0.0000000e+00
  -1.0743103e+00  -5.6389756e+00  -6.7214807e+00   1.0838711e+01   6.3307091e+00  -1.2553372e+00   1.3051892e+00   1.2487670e+00  -3.7654334e+00  -1.5259441e+00  -7.7215950e+00   2.5037601e+00  -4.5608001e+00  -1.6065934e+00  -9.7329243e+00  -4.2072224e+00  -1.0680901e+00   6.6122424e+00  -3.4890445e+00  -3.5693422e+00   0.0000000e+00   3.0000000e+01   0.0000000e+00   0.0000000e+00
  -1.7877485e-02  -4.2435732e+00  -5.4884617e+00   1.1948360e+01   7.2086002e+00  -6.7181491e-01   1.9811326e+00   1.8475930e+00  -5.1633322e+00  -2.2866150e+00  -7.9911336e+00   2.6142367e+00  -5.1022078e+00  -2.3453021e+00  -1.0319481e+01  -4.7846859e+00  -7.8010427e-01   6.3819100e+00  -3.7987294e+00  -3.6696409e+00   0.0000000e+00   3.0000000e+01   0.0000000e+00   0.0000000e+00
   8.1789183e-01  -2.9995546e+00  -4.4402654e+00   1.2660902e+01   7.7711044e+00  -4.1632857e-01   2.2146702e+00   2.2547735e+00  -6.3942529e+00  -2.9182241e+00  -8.1227041e+00   2.7095303e+00  -5.4450770e+00  -3.0501666e+00  -1.0957279e+01  -4.8225647e+00  -7.3839214e-01   6.4238706e+00  -4.3594726e+00  -3.9144277e+00   0.0000000e+00   3.0000000e+01   0.0000000e+00   0.0000000e+00
   1.5152252e+00  -2.0143872e+00  -3.5207232e+00   1.2863999e+01   8.0520497e+00  -3.7781743e-01   2.2020747e+00   2.5362377e+00  -7.3719188e+00  -3.6365363e+00  -8.3546010e+00   2.7671612e+00  -5.7567348e+00  -3.8004036e+00  -1.1419671e+01  -4.6193966e+00  -9.8652639e-01   6.4848698e+00  -4.9704359e+00  -4.3069457e+00   0.0000000e+00   3.0000000e+01   0.0000000e+00   0.0000000e+00
   2.3559525e+00  -1.1637984e+00  -2.6909532e+00   1.3097997e+01   8.5298851e+00  -1.9587201e-01   2.1397608e+00   2.7394103e+00  -7.8483633e+00  -4.3735907e+00  -8.6597401e+00   2.9842687e+00  -5.8874543e+00  -4.3437161e+00  -1.1534368e+01  -4.4418087e+00  -1.1665541e+00   6.5629979e+00  -5.3668547e+00  -4.7896881e+00   0.0000000e+00   3.0000000e+01   0.0000000e+00   0.0000000e+00
   3.4665618e+00  -2.2111850e-01  -2.0001873e+00   1.4129690e+01   9.6005485e+00   2.9229602e-01   2.1998060e+00   2.9685255e+00  -7.6503154e+00  -4.8018054e+00  -8.7264614e+00   3.5010751e+00  -5.5277261e+00  -4.4536716e+00  -1.1198082e+01  -4.2598639e+00  -8.7809600e-01   7.0458945e+00  -5.4894518e+00  -5.1997654e+00   0.0000000e+00   3.0000000e+01   0.0000000e+00   0.0000000e+00
   4.7432563e+00   8.2138974e-01  -1.5224824e+00   1.5931496e+01   1.0941770e+01   8.2335316e-01   2.4013644e+00   3.3274289e+00  -6.9404793e+00  -4.6104549e+00  -8.3831431e+00   4.1449247e+00  -4.8908378e+00  -4.2855166e+00  -1.0392222e+01  -4.0175083e+00  -3.0043337e-01   8.0204263e+00  -5.5187668e+00  -5.3531966e+00   0.0000000e+00   3.0000000e+01   0.0000000e+00   0.0000000e+00
   5.7555111e+00   1.5313830e+00  -1.2934489e+00   1.7400130e+01   1.1578748e+01   9.3019797e-01   2.5322616e+00   3.6244709e+00  -6.1293753e+00  -3.8683611e+00  -7.7520584e+00   4.3800032e+00  -4.5929487e+00  -4.1446607e+00  -9.1886977e+00  -3.8031431e+00  -1.9726904e-01   8.8745530e+00  -5.6883868e+00  -5.3054170e+00   0.0000000e+00   3.0000000e+01   0.0000000e+00   0.0000000e+00
   6.0336022e+00   1.6237266e+00  -1.2753226e+00   1.7747787e+01   1.0946108e+01   4.9255619e-01   2.4629259e+00   3.7119073e+00  -5.5531898e+00  -2.8401088e+00  -7.0306754e+00   3.9253833e+00  -4.8558873e+00  -4.2486431e+00  -7.9189261e+00  -3.6759282e+00  -1.1069469e+00   9.1664345e+00  -6.0030305e+00  -5.2018961e+00   0.0000000e+00   3.0000000e+01   5.0000000e+01   0.0000000e+00
   5.6807077e+00   1.3790083e+00  -1.2900177e+00   1.7232663e+01   9.6431112e+00  -9.4424797e-02   2.4092230e+00   3.6280031e+00  -5.2121559e+00  -2.1112648e+00  -6.4422512e+00   3.2650114e+00  -5.3598044e+00  -4.7050794e+00  -6.9887690e+00  -3.6515759e+00  -2.7582979e+00   9.0324334e+00  -6.1884819e+00  -5.1115993e+00   0.0000000e+00   3.0000000e+01   5.0000000e+01   0.0000000e+00
   5.2261432e+00   1.2463912e+00  -1.1577600e+00   1.6476451e+01   8.6004895e+00  -4.0204371e-01   2.6934791e+00   3.5121731e+00  -4.9633434e+00  -1.8766609e+00  -6.1588249e+00   2.9873094e+00  -5.6921852e+00  -5.3723082e+00  -6.4642204e+00  -3.7542082e+00  -4.4012563e+00   8.8185874e+00  -5.9417259e+00  -5.0889786e+00   0.0000000e+00   3.0000000e+01   5.0000000e+01   0.0000000e+00
   5.0427934e+00   1.3925875e+00  -8.1777771e-01   1.5939360e+01   7.9789666e+00  -4.1735152e-01   3.2540322e+00   3.5587549e+00  -4.6960980e+00  -1.8494190e+00  -6.1264075e+00   3.2090849e+00  -5.6277892e+00  -5.7887034e+00  -6.0913138e+00  -3.9594362e+00  -5.5025857e+00   8.5844268e+00  -5.2632068e+00  -5.0511805e+00   0.0000000e+00   3.0000000e+01   5.0000000e+01   0.0000000e+00
   4.9696913e+00   1.4822362e+00  -3.1428659e-01   1.5656015e+01   7.3314544e+00  -5.8894169e-01   3.4734399e+00   3.7221716e+00  -4.4468852e+00  -1.7946397e+00  -6.2358837e+00   3.6577069e+00  -5.2593878e+00  -5.7579326e+00  -5.7772388e+00  -4.2103467e+00  -6.0553753e+00   8.0807872e+00  -4.5908381e+00  -5.0705969e+00   0.0000000e+00   3.0000000e+01   5.0000000e+01   0.0000000e+00
   4.6653484e+00   9.8928527e-01   4.8848859e-02   1.5394128e+01   6.4294220e+00  -1.4483363e+00   2.7291649e+00   3.6669623e+00  -4.3293656e+00  -1.5443256e+00  -6.4174696e+00   4.0524275e+00  -4.8037713e+00  -5.5792263e+00  -5.6785977e+00  -4.4733964e+00  -6.2601345e+00   7.0933488e+00  -4.5767333e+00  -5.3187841e+00   0.0000000e+00   3.0000000e+01   5.0000000e+01   0.0000000e+00
   4.1317130e+00  -1.3766530e-01  -7.0705010e-02   1.5236276e+01   5.6418482e+00  -3.2058761e+00   1.0943892e+00   3.4179189e+00  -4.4051290e+00  -1.0914197e+00  -6.5693801e+00   4.5336034e+00  -4.2692401e+00  -5.6374919e+00  -5.9310416e+00  -4.7003450e+00  -6.1055778e+00   5.9135574e+00  -5.4694425e+00  -5.8831303e+00   0.0000000e+00   3.0000000e+01   5.0000000e+01   0.0000000e+00
   3.6506939e+00  -1.4322463e+00  -5.8136293e-01   1.5459252e+01   5.3169193e+00  -5.4071039e+00  -7.0839488e-01   3.2191135e+00  -4.6101608e+00  -6.5505751e-01  -6.6180838e+00   5.2057642e+00  -3.7645761e+00  -6.0949284e+00  -6.4139413e+00  -4.9242031e+00  -5.5408765e+00   4.8774157e+00  -6.8702086e+00  -6.5521315e+00   0.0000000e+00   3.0000000e+01   5.0000000e+01   0.0000000e+00
   3.2613281e+00  -2.4794598e+00  -1.1135859e+00   1.5854391e+01   5.2916895e+00  -7.2399432e+00  -2.0257725e+00   3.2352963e+00  -4.6639287e+00  -3.6922003e-01  -6.3568916e+00   5.7997595e+00  -3.3790216e+00  -6.6053609e+00  -6.6613199e+00  -5.0626305e+00  -4.7577674e+00   4.1557478e+00  -8.0550924e+00  -6.8766081e+00   0.0000000e+00   3.0000000e+01   5.0000000e+01   0.0000000e+00
   2.7145384e+00  -3.1645736e+00  -1.4578584e+00   1.5996306e+01   5.2109390e+00  -8.1060530e+00  -2.6942219e+00   3.3808683e+00  -4.5810543e+00  -6.1885141e-02  -5.5532751e+00   5.9946249e+00  -2.9156560e+00  -6.5020389e+00  -6.1378088e+00  -4.9161531e+00  -4.0569587e+00   3.7908063e+00  -8.4328590e+00  -6.6515863e+00   0.0000000e+00   3.0000000e+01   5.0000000e+01   0.0000000e+00
   1.8999066e+00  -3.4856430e+00  -1.6200864e+00   1.5630308e+01   4.7899895e+00  -7.9699979e+00  -2.6946002e+00   3.6469997e+00  -4.7203088e+00   2.3964028e-01  -4.2626623e+00   5.5677745e+00  -2.5245149e+00  -5.5881154e+00  -4.7787005e+00  -4.5081445e+00  -3.6863923e+00   3.7472003e+00  -7.9259154e+00  -6.0480905e+00   0.0000000e+00   3.0000000e+01   5.0000000e+01   0.0000000e+00
   1.0526573e+00  -3.4309388e+00  -1.6438883e+00   1.4957908e+01   4.1872257e+00  -7.2422274e+00  -1.9836717e+00   4.1434516e+00  -5.1852313e+00   3.8022447e-01  -2.8504704e+00   4.7580383e+00  -2.4886782e+00  -4.3007656e+00  -3.0351573e+00  -4.0569527e+00  -3.5774542e+00   3.7879931e+00  -6.9226561e+00  -5.3073495e+00   0.0000000e+00   3.0000000e+01   5.0000000e+01   0.0000000e+00
   4.6406848e-01  -3.0741697e+00  -1.6035443e+00   1.4491676e+01   3.7545987e+00  -6.3116092e+00  -7.6139615e-01   4.9143314e+00  -5.6538672e+00   5.8783930e-01  -1.6067848e+00   3.9930856e+00  -2.6461672e+00  -3.1580867e+00  -1.4854167e+00  -3.6046914e+00  -3.4181252e+00   3.8226811e+00  -5.7859453e+00  -4.5595471e+00   0.0000000e+00   3.0000000e+01   5.0000000e+01   0.0000000e+00
   1.0472119e-01  -2.6091939e+00  -1.5663192e+00   1.4239583e+01   3.5073278e+00  -5.2208276e+00   5.8700742e-01   5.7837281e+00  -5.7306469e+00   1.1077412e+00  -5.3487413e-01   3.3272684e+00  -2.6449957e+00  -2.1532590e+00  -3.7693069e-01  -3.0625110e+00  -2.9944690e+00   4.0025979e+00  -4.6102277e+00  -3.9397124e+00   0.0000000e+00   3.0000000e+01   5.0000000e+01   0.0000000e+00
  -2.2841690e-01  -2.2310060e+00  -1.5862869e+00   1.4034310e+01   3.3453776e+00  -3.9562341e+00   1.7811893e+00   6.5241165e+00  -5.3532484e+00   1.8163128e+00   4.6199556e-01   2.6415424e+00  -2.3272229e+00  -1.1403096e+00   3.1836195e-01  -2.4244692e+00  -2.3230969e+00   4.5222165e+00  -3.4727916e+00  -3.4888242e+00   0.0000000e+00   3.0000000e+01   5.0000000e+01   0.0000000e+00
  -4.0476345e-01  -1.8599558e+00  -1.5016441e+00   1.3871766e+01   3.4386462e+00  -2.5227757e+00   2.7172448e+00   7.0186872e+00  -4.8535364e+00   2.2598013e+00   1.2194726e+00   1.8629790e+00  -1.9577960e+00  -3.5650098e-01   5.8300283e-01  -1.9505764e+00  -1.5692360e+00   5.1489333e+00  -2.6501513e+00  -3.2166214e+00   0.0000000e+00   3.0000000e+01   5.0000000e+01   0.0000000e+00
  -2.3337937e-01  -1.3566775e+00  -1.1665618e+00   1.3796572e+01   3.9345268e+00  -1.1053841e+00   3.3539281e+00   7.2561307e+00  -4.6467588e+00   2.2045718e+00   1.5124505e+00   1.1056400e+00  -1.7963350e+00  -2.2388216e-01   3.7500585e-01  -1.9004428e+00  -8.5616867e-01   5.5495705e+00  -2.3791456e+00  -3.2028349e+00   0.0000000e+00   3.0000000e+01   5.0000000e+01   0.0000000e+00
   7.0322673e-02  -8.1260515e-01  -6.3847343e-01   1.3618808e+01   4.5733947e+00  -1.1647825e-01   3.8094054e+00   7.4487361e+00  -4.7523461e+00   1.9171988e+00   1.5060443e+00   6.5068348e-01  -1.6624968e+00  -6.1437263e-01   6.0085422e-02  -2.1254876e+00  -2.2130092e-01   5.6942535e+00  -2.4950300e+00  -3.2575865e+00   0.0000000e+00   3.0000000e+01   5.0000000e+01   0.0000000e+00
   2.8632570e-01  -4.1325910e-01  -9.3341715e-02   1.3260810e+01   5.1948801e+00   2.9449365e-01   4.0984483e+00   7.7465545e+00  -4.6610071e+00   1.8950478e+00   1.6077161e+00   7.0116241e-01  -1.1688251e+00  -8.4839862e-01   1.3862348e-01  -2.2152859e+00   4.8886305e-01   5.9175736e+00  -2.5680012e+00  -3.1039534e+00   0.0000000e+00   3.0000000e+01   5.0000000e+01   0.0000000e+00
   5.8247591e-01  -2.1608862e-01   1.9709326e-01   1.3063593e+01   5.9217583e+00   4.0872142e-01   4.2650057e+00   7.9624776e+00  -4.0147501e+00   2.3152815e+00   1.9590614e+00   1.2405360e+00  -1.5767112e-01  -4.6082174e-01   7.1808373e-01  -2.0572018e+00   1.4497688e+00   6.3988934e+00  -2.3954994e+00  -2.8331252e+00   0.0000000e+00   3.0000000e+01   5.0000000e+01   0.0000000e+00
   1.2201941e+00   1.0255294e-01   2.3960997e-01   1.3360832e+01   6.7887612e+00   6.8143719e-01   4.6201258e+00   8.0246468e+00  -3.0599175e+00   3.0567609e+00   2.4364808e+00   2.0867625e+00   1.0700619e+00   3.3734048e-01   1.5322435e+00  -1.8312395e+00   2.5993488e+00   7.0280244e+00  -2.0086937e+00  -2.5910735e+00   0.0000000e+00   3.0000000e+01   5.0000000e+01   0.0000000e+00
   2.1878751e+00   7.6866818e-01   3.1897818e-01   1.4152148e+01   7.6535305e+00   1.3414554e+00   5.2245698e+00   7.8621944e+00  -2.2584425e+00   3.6135063e+00   2.8520293e+00   3.0055814e+00   1.8684004e+00   9.9154977e-01   2.1751763e+00  -1.7092077e+00   3.5108415e+00   7.5058973e+00  -1.5555801e+00  -2.5318792e+00   0.0000000e+00   3.0000000e+01   5.0000000e+01   0.0000000e+00
   3.0552199e+00   1.6633393e+00   5.5622332e-01   1.4881203e+01   8.1647898e+00   2.1851185e+00   6.0473405e+00   7.6866298e+00  -1.8752439e+00   3.6702887e+00   3.2206003e+00   3.6563201e+00   2.0038138e+00   1.2359730e+00   2.4149704e+00  -1.6692201e+00   3.7203226e+00   7.7677812e+00  -1.0922770e+00  -2.6408639e+00   0.0000000e+00   3.0000000e+01   5.0000000e+01   0.0000000e+00
   3.3167372e+00   2.4881097e+00   8.4858830e-01   1.5007278e+01   7.8630464e+00   2.8653665e+00   7.0845245e+00   7.8327669e+00  -1.8670064e+00   3.4496353e+00   3.6052127e+00   3.8263910e+00   1.7628143e+00   1.2622885e+00   2.4154148e+00  -1.6951477e+00   3.1202979e+00   7.7958193e+00  -5.0984580e-01  -2.6935976e+00   0.0000000e+00   3.0000000e+01   5.0000000e+01   0.0000000e+00
   2.7981164e+00   2.8685455e+00   1.0393234e+00   1.4570760e+01   6.6462272e+00   3.0065065e+00   8.0712368e+00   8.1121228e+00  -1.9943159e+00   3.1314534e+00   3.9374951e+00   3.7142818e+00   1.5118306e+00   1.3359810e+00   2.3780372e+00  -1.8946181e+00   1.9440584e+00   7.4843231e+00   1.3889545e-01  -2.7789943e+00   0.0000000e+00   3.0000000e+01   5.0000000e+01   0.0000000e+00
   1.8245835e+00   2.8115176e+00   1.0860788e+00   1.3969031e+01   5.0645255e+00   2.5253690e+00   8.7604803e+00   8.2095741e+00  -2.0265908e+00   2.6173378e+00   4.1459494e+00   3.6274758e+00   1.4801810e+00   1.4361832e+00   2.2643955e+00  -2.2629705e+00   7.0003028e-01   6.8655474e+00   6.0147885e-01  -3.0930250e+00   0.0000000e+00   3.0000000e+01   5.0000000e+01   0.0000000e+00
   8.3796252e-01   2.6171842e+00   1.0700590e+00   1.3503800e+01   3.7492251e+00   1.8368621e+00   9.1100453e+00   7.9920495e+00  -1.9257308e+00   2.0427708e+00   4.2061820e+00   3.5629902e+00   1.6534904e+00   1.3729022e+00   1.9381926e+00  -2.5483759e+00  -2.2376717e-01   6.2820961e+00   7.5882309e-01  -3.6038261e+00   0.0000000e+00   3.0000000e+01   5.0000000e+01   0.0000000e+00
   5.7822515e-02   2.4955268e+00   1.1218278e+00   1.2948406e+01   2.7637828e+00   1.3839731e+00   9.3826066e+00   7.5863085e+00  -1.8577559e+00   1.7382720e+00   4.0660393e+00   3.1146560e+00   1.8560429e+00   1.2373399e+00   1.5715672e+00  -2.4871547e+00  -9.3621116e-01   5.7909011e+00   7.3714981e-01  -4.1384072e+00   0.0000000e+00   3.0000000e+01   5.0000000e+01   0.0000000e+00
  -4.5434043e-01   2.5433230e+00   1.3915355e+00   1.2093535e+01   1.8745457e+00   1.3534106e+00   9.8214996e+00   7.3360624e+00  -1.8467092e+00   2.0359401e+00   3.8754815e+00   2.2306404e+00   2.0499175e+00   1.2627637e+00   1.4459426e+00  -1.9887547e+00  -1.5174139e+00   5.5028332e+00   7.4659167e-01  -4.3883988e+00   0.0000000e+00   3.0000000e+01   5.0000000e+01   0.0000000e+00
  -6.7719764e-01   2.7898086e+00   1.8574527e+00   1.1077830e+01   1.0436089e+00   1.6428658e+00   1.0413459e+01   7.3890102e+00  -1.8579003e+00   2.7168802e+00   3.7703961e+00   1.3055652e+00   2.2052226e+00   1.4609926e+00   1.5584072e+00  -1.2904869e+00  -1.8904411e+00   5.5819545e+00   8.5892343e-01  -4.1612648e+00   0.0000000e+00   3.0000000e+01   5.0000000e+01   0.0000000e+00
  -6.8264074e-01   3.0707470e+00   2.2366779e+00   1.0136705e+01   5.1650508e-01   1.8706347e+00   1.0852794e+01   7.5712292e+00  -1.9704983e+00   3.3021707e+00   3.6584650e+00   6.1935511e-01   2.2482560e+00   1.6683225e+00   1.7182021e+00  -6.5601608e-01  -1.9800336e+00   5.9345855e+00   1.0160811e+00  -3.6222996e+00   0.0000000e+00   3.0000000e+01   5.0000000e+01   0.0000000e+00
  -6.7915988e-01   3.0729412e+00   2.2403918e+00   9.3568862e+00   3.6999515e-01   1.8019334e+00   1.0871202e+01   7.5151416e+00  -2.2066391e+00   3.7916631e+00   3.4543343e+00   1.2008143e-01   2.2120209e+00   1.9556012e+00   1.9052065e+00  -2.2008953e-01  -1.8173130e+00   6.2551405e+00   1.1968446e+00  -3.1018281e+00   0.0000000e+00   3.0000000e+01   5.0000000e+01   0.0000000e+00
  -8.9603629e-01   2.8044072e+00   1.8675811e+00   8.6051836e+00   4.0582496e-01   1.6845937e+00   1.0778701e+01   7.1598920e+00  -2.5272240e+00   4.3928709e+00   3.2936062e+00  -3.8595460e-01   2.1963371e+00   2.5943896e+00   2.3354228e+00   4.4787995e-02  -1.4798487e+00   6.5933787e+00   1.5083553e+00  -2.7037835e+00   0.0000000e+00   3.0000000e+01   5.0000000e+01   0.0000000e+00
  -1.4865197e+00   2.6082570e+00   1.2622899e+00   7.6383900e+00   3.3671281e-01   1.7114326e+00   1.1017179e+01   6.8310800e+00  -2.9843430e+00   4.9661654e+00   3.2566243e+00  -9.8442715e-01   2.0020478e+00   3.4043300e+00   3.0412566e+00   1.6983869e-01  -1.1531699e+00   7.0501049e+00   1.9213037e+00  -2.2385236e+00   0.0000000e+00   3.0000000e+01   5.0000000e+01   0.0000000e+00
  -2.3973321e+00   2.6356040e+00   4.7792422e-01   6.5910682e+00   2.5624197e-02   1.5925755e+00   1.1335851e+01   6.6844861e+00  -3.5475925e+00   5.1786075e+00   3.1899013e+00  -1.4956210e+00   1.4584159e+00   3.8102789e+00   3.5164390e+00   9.3878980e-02  -1.0697733e+00   7.6026175e+00   2.1599543e+00  -1.5211103e+00   0.0000000e+00   3.0000000e+01   5.0000000e+01   0.0000000e+00
  -3.4158528e+00   2.5892199e+00  -5.6363961e-01   5.7529010e+00  -5.7616554e-01   1.0409378e+00   1.1067569e+01   6.2757089e+00  -4.0707366e+00   4.9422635e+00   2.6815726e+00  -1.8027881e+00   8.0550646e-01   3.5264766e+00   3.1880242e+00  -3.6181253e-01  -1.2547086e+00   7.9665861e+00   1.8119090e+00  -1.0787234e+00   0.0000000e+00   3.0000000e+01   5.0000000e+01   0.0000000e+00
  -4.2857247e+00   2.3640055e+00  -1.8156481e+00   5.3774489e+00  -1.3404298e+00   2.0235885e-01   1.0167027e+01   5.4210095e+00  -4.3398079e+00   4.6212621e+00   1.7074428e+00  -1.8065358e+00   4.7952206e-01   2.8880609e+00   2.0733377e+00  -1.1095808e+00  -1.4288717e+00   8.1162017e+00   8.6236437e-01  -1.1688452e+00   0.0000000e+00   3.0000000e+01   5.0000000e+01   0.0000000e+00
  -4.6283710e+00   2.3872319e+00  -2.8912426e+00   5.6160578e+00  -1.8615983e+00  -5.1301824e-01   9.2374737e+00   4.5655065e+00  -4.1243169e+00   4.6351877e+00   7.3460251e-01  -1.2786018e+00   7.9734332e-01   2.5092000e+00   8.5286512e-01  -1.6697226e+00  -1.2526763e+00   8.4915720e+00  -8.7479879e-02  -1.3170232e+00   0.0000000e+00   3.0000000e+01   5.0000000e+01   0.0000000e+00
  -4.3589725e+00   2.9028603e+00  -3.4371371e+00   6.2903694e+00  -1.9006919e+00  -9.2573471e-01   8.7913427e+00   4.0508663e+00  -3.3638007e+00   5.0024599e+00   4.4645910e-02  -2.5798730e-01   1.6779205e+00   2.5119578e+00   8.3657496e-02  -1.7262797e+00  -6.6989997e-01   9.3817020e+00  -4.5110444e-01  -1.2012136e+00   0.0000000e+00   3.0000000e+01   5.0000000e+01   0.0000000e+00
  -3.8851392e+00   3.5488771e+00  -3.4880294e+00   6.7883273e+00  -1.7404071e+00  -1.1909051e+00   8.8385005e+00   3.8301510e+00  -2.3020217e+00   5.2746275e+00  -5.6121715e-01   8.1545050e-01   2.6875798e+00   2.5709163e+00  -3.0237390e-01  -1.5331715e+00  -4.4452510e-02   1.0245101e+01  -2.7448335e-01  -9.3712481e-01   0.0000000e+00   0.0000000e+00   5.0000000e+01   0.0000000e+00
  -3.6329328e+00   3.8712900e+00  -3.3610103e+00   6.8176213e+00  -1.7672077e+00  -1.4125206e+00   8.9799264e+00   3.6477750e+00  -1.1936858e+00   5.1780114e+00  -1.2402857e+00   1.6398145e+00   3.4091640e+00   2.3092113e+00  -7.3223043e-01  -1.4799796e+00   3.1231014e-01   1.0596674e+01  -6.5137821e-02  -8.4398995e-01   0.0000000e+00   0.0000000e+00   5.0000000e+01   0.0000000e+00
  -3.5518881e+00   3.9151038e+00  -3.3178696e+00   6.8012802e+00  -1.9131331e+00  -1.5655109e+00   8.9651766e+00   3.4560527e+00  -2.2459242e-01   4.7694270e+00  -1.9073076e+00   2.3169027e+00   3.6221327e+00   1.5709825e+00  -1.4718871e+00  -1.6797338e+00   4.1045325e-01   1.0629720e+01  -1.9652776e-01  -9.5975615e-01   0.0000000e+00   0.0000000e+00   5.0000000e+01   0.0000000e+00
  -3.3270257e+00   3.9327849e+00  -3.4604778e+00   7.0911187e+00  -2.0508848e+00  -1.8971143e+00   8.5208432e+00   3.3254028e+00   3.7030638e-01   4.2933809e+00  -2.5439968e+00   2.9882377e+00   3.2907357e+00   5.6588049e-01  -2.4879198e+00  -2.1011186e+00   1.8775771e-01   1.0671585e+01  -7.4129510e-01  -1.1857417e+00   0.0000000e+00   0.0000000e+00   5.0000000e+01   0.0000000e+00
  -2.9793649e+00   3.7402073e+00  -3.8769213e+00   7.3232121e+00  -2.5216834e+00  -2.9577249e+00   7.3090719e+00   3.0014654e+00   3.8950224e-01   3.9281394e+00  -3.3249917e+00   3.4203868e+00   2.3047323e+00  -6.3387508e-01  -3.7177486e+00  -2.7990842e+00  -7.6342772e-01   1.0382850e+01  -1.8117538e+00  -1.7188779e+00   0.0000000e+00   0.0000000e+00   5.0000000e+01   0.0000000e+00
  -2.8566504e+00   3.1373076e+00  -4.6123272e+00   7.2732057e+00  -3.4893635e+00  -4.8928269e+00   5.4925289e+00   2.3698613e+00  -4.6932316e-03   3.6060181e+00  -4.2343379e+00   3.5050625e+00   8.9602402e-01  -2.0099535e+00  -5.0848359e+00  -3.6341913e+00  -2.4946886e+00   9.5561108e+00  -3.3759073e+00  -2.6357407e+00   0.0000000e+00   0.0000000e+00   5.0000000e+01   0.0000000e+00
  -2.8979543e+00   2.4180676e+00  -5.4534682e+00   7.1375743e+00  -4.4656584e+00  -7.0115905e+00   3.7257880e+00   1.7626835e+00  -4.8701934e-01   3.3980181e+00  -5.0451038e+00   3.4437655e+00  -3.4345475e-01  -3.2472389e+00  -6.3713088e+00  -4.3865991e+00  -4.3633829e+00   8.5265847e+00  -4.9933478e+00  -3.5940814e+00   0.0000000e+00   0.0000000e+00   5.0000000e+01   0.0000000e+00
  -2.6973572e+00   2.0143900e+00  -6.0039845e+00   6.9959337e+00  -4.8165753e+00  -8.4023212e+00   2.7281375e+00   1.5089555e+00  -9.5690377e-01   3.1870874e+00  -5.5712539e+00   3.2337656e+00  -1.0933100e+00  -3.9929725e+00  -7.3055815e+00  -4.8257387e+00  -5.6074451e+00   7.8863062e+00  -5.9918880e+00  -4.1769096e+00   0.0000000e+00   0.0000000e+00   5.0000000e+01   0.0000000e+00
  -2.2252963e+00   1.9682590e+00  -6.2498102e+00   6.6862442e+00  -4.4971369e+00  -8.8304827e+00   2.7014009e+00   1.4550723e+00  -1.6276965e+00   2.6231658e+00  -5.9795106e+00   2.6782050e+00  -1.4986179e+00  -4.0255167e+00  -7.6918557e+00  -5.0112439e+00  -6.0960962e+00   7.6693556e+00  -6.0921450e+00  -4.3928714e+00   0.0000000e+00   0.0000000e+00   5.0000000e+01   0.0000000e+00
  -1.7768396e+00   2.1073889e+00  -6.4782288e+00   6.0959969e+00  -3.9070323e+00  -8.7726823e+00   3.2097987e+00   1.2633873e+00  -2.4395648e+00   2.0103859e+00  -6.4502091e+00   1.8831877e+00  -1.7294600e+00  -3.3905582e+00  -7.5853890e+00  -5.1657215e+00  -6.1999693e+00   7.6003335e+00  -5.6719615e+00  -4.5359188e+00   0.0000000e+00   0.0000000e+00   5.0000000e+01   0.0000000e+00
  -1.3581665e+00   2.4074909e+00  -6.6324328e+00   5.4816564e+00  -3.2654403e+00  -8.6034131e+00   3.7022247e+00   8.8693437e-01  -2.9728883e+00   1.7859751e+00  -6.9871482e+00   1.2189489e+00  -1.7271858e+00  -2.5538462e+00  -7.3596407e+00  -5.4350836e+00  -6.1137024e+00   7.6456350e+00  -5.3712763e+00  -4.8642025e+00   0.0000000e+00   0.0000000e+00   5.0000000e+01   0.0000000e+00
  -6.9853062e-01   2.9107255e+00  -6.4893760e+00   5.2279765e+00  -2.6262240e+00  -8.3254502e+00   3.7814035e+00   4.8736159e-01  -3.2369855e+00   1.6229842e+00  -7.7734909e+00   8.4091396e-01  -1.6333403e+00  -2.4044972e+00  -7.6265257e+00  -5.9971943e+00  -5.9211392e+00   7.8930348e+00  -5.6733466e+00  -5.4860936e+00   0.0000000e+00   0.0000000e+00   5.0000000e+01   0.0000000e+00
   4.5491225e-01   3.6333857e+00  -5.9305458e+00   5.5307451e+00  -1.9967286e+00  -7.7834665e+00   3.6004353e+00   1.8245460e-01  -3.4730367e+00   9.7782549e-01  -8.9315661e+00   7.5107311e-01  -1.7305955e+00  -3.1802056e+00  -8.4693628e+00  -6.8963235e+00  -5.7287389e+00   8.1352832e+00  -6.4374719e+00  -6.2264300e+00   0.0000000e+00   0.0000000e+00   5.0000000e+01   0.0000000e+00
   1.7368000e+00   4.4386797e+00  -5.0336993e+00   6.4528538e+00  -1.3782445e+00  -6.8639865e+00   3.6321702e+00   1.5111706e-01  -3.5247592e+00   3.6794458e-01  -9.9335446e+00   9.1938006e-01  -1.7847342e+00  -3.9550325e+00  -9.1955040e+00  -7.6927233e+00  -5.4143386e+00   8.4757196e+00  -6.9042524e+00  -6.7350080e+00   0.0000000e+00   0.0000000e+00   5.0000000e+01   0.0000000e+00
   2.3696190e+00   4.8874765e+00  -4.2456792e+00   7.3071052e+00  -1.0079496e+00  -5.8951409e+00   3.8525582e+00   4.5464721e-01  -3.4158337e+00   2.9191596e-01  -1.0377445e+01   1.0217817e+00  -1.5998736e+00  -4.1272531e+00  -9.3295603e+00  -8.1479799e+00  -5.0692737e+00   8.9154845e+00  -6.7762209e+00  -6.9973117e+00   0.0000000e+00   0.0000000e+00   5.0000000e+01   0.0000000e+00
   2.2008684e+00   4.8351176e+00  -3.8016901e+00   7.6995410e+00  -9.1375215e-01  -5.4000658e+00   3.8581728e+00   1.0609544e+00  -3.2787291e+00   5.1929106e-01  -1.0384900e+01   1.0136948e+00  -1.1824137e+00  -3.9981805e+00  -9.0902780e+00  -8.3316765e+00  -4.7727637e+00   9.3687571e+00  -6.4079208e+00  -7.0773676e+00   0.0000000e+00   0.0000000e+00   5.0000000e+01   0.0000000e+00
   1.7575437e+00   4.4758191e+00  -3.6239274e+00   7.8511917e+00  -8.8003086e-01  -5.5210046e+00   3.4119029e+00   1.5033519e+00  -3.1926960e+00   7.6947998e-01  -1.0338383e+01   1.1260681e+00  -6.4353243e-01  -4.0987086e+00  -8.9083280e+00  -8.4677986e+00  -4.4120555e+00   9.6004944e+00  -6.1167533e+00  -7.2296139e+00   0.0000000e+00   0.0000000e+00   5.0000000e+01   0.0000000e+00
   1.3916360e+00   4.1003190e+00  -3.5890860e+00   7.9252766e+00  -7.3537439e-01  -5.8186262e+00   2.9615769e+00   1.4978634e+00  -3.0457885e+00   1.0448684e+00  -1.0394487e+01   1.4383516e+00  -5.8784841e-03  -4.4349128e+00  -8.8036593e+00  -8.6909865e+00  -3.8756295e+00   9.4894158e+00  -5.7689968e+00  -7.4997297e+00   0.0000000e+00   0.0000000e+00   5.0000000e+01   0.0000000e+00
   9.9303397e-01   3.9224230e+00  -3.4686764e+00   7.9888517e+00  -6.2217013e-01  -5.9142314e+00   3.0537478e+00   1.2776531e+00  -2.7187812e+00   1.5097813e+00  -1.0340374e+01   1.7866591e+00   7.4063956e-01  -4.5782129e+00  -8.4704532e+00  -8.7518170e+00  -3.2525927e+00   9.2183176e+00  -5.1007831e+00  -7.6016719e+00   0.0000000e+00   0.0000000e+00   5.0000000e+01   0.0000000e+00
   3.4549629e-01   3.9505014e+00  -3.0920388e+00   8.0461326e+00  -8.5789658e-01  -5.8250818e+00   3.7149885e+00   1.1506587e+00  -2.3143185e+00   2.3702097e+00  -9.8090371e+00   1.9762476e+00   1.4001367e+00  -4.2791942e+00  -7.7074699e+00  -8.3012047e+00  -2.8387110e+00   9.1607418e+00  -4.1030368e+00  -7.3363817e+00   0.0000000e+00   0.0000000e+00   5.0000000e+01   0.0000000e+00
  -4.6298291e-01   4.0300654e+00  -2.6314229e+00   8.0170793e+00  -1.5092217e+00  -5.8048030e+00   4.5478361e+00   1.3238959e+00  -2.0960529e+00   3.1500914e+00  -8.7251929e+00   1.9444468e+00   1.6551606e+00  -3.6710563e+00  -6.6031717e+00  -7.4543585e+00  -2.9508595e+00   9.2584017e+00  -3.0898429e+00  -6.6926744e+00   0.0000000e+00   0.0000000e+00   5.0000000e+01   0.0000000e+00
  -1.2655764e+00   3.8809874e+00  -2.4988803e+00   7.9301129e+00  -2.4418126e+00  -6.1990014e+00   4.9484225e+00   1.6354155e+00  -2.0228125e+00   3.5321650e+00  -7.3404755e+00   1.9397789e+00   1.4783302e+00  -3.1359266e+00  -5.4957906e+00  -6.5381794e+00  -3.6609206e+00   9.1468873e+00  -2.5024520e+00  -5.9122660e+00   0.0000000e+00   0.0000000e+00   5.0000000e+01   0.0000000e+00
  -1.7888093e+00   3.4356974e+00  -2.9082919e+00   8.2113302e+00  -3.2144134e+00  -6.8661722e+00   4.8188861e+00   1.7186629e+00  -1.4441632e+00   4.0087296e+00  -5.8870300e+00   2.5891655e+00   1.4062298e+00  -2.7164091e+00  -4.5808285e+00  -5.6917474e+00  -4.4189264e+00   8.8483207e+00  -2.4404842e+00  -5.2895600e+00   0.0000000e+00   0.0000000e+00   5.0000000e+01   0.0000000e+00
  -1.6452652e+00   3.0563616e+00  -3.5762243e+00   9.4957560e+00  -3.1690527e+00  -7.1610792e+00   4.6525133e+00   1.6735775e+00   4.0585132e-02   4.8396608e+00  -4.5541042e+00   4.3110683e+00   1.9793398e+00  -2.2724083e+00  -3.9046082e+00  -4.8973286e+00  -4.4014670e+00   8.9635909e+00  -2.6073992e+00  -4.8041692e+00   0.0000000e+00   0.0000000e+00   5.0000000e+01   0.0000000e+00
  -7.9033122e-01   3.0218178e+00  -4.0281805e+00   1.1576283e+01  -2.2948774e+00  -6.7342504e+00   4.6724897e+00   1.6273532e+00   1.6574189e+00   5.4556126e+00  -3.8375818e+00   6.5957247e+00   2.9594574e+00  -1.9673525e+00  -3.5367450e+00  -4.3249610e+00  -3.5670414e+00   9.4582141e+00  -2.8349738e+00  -4.4912789e+00   0.0000000e+00   0.0000000e+00   5.0000000e+01   0.0000000e+00
   4.3862949e-01   3.2903286e+00  -4.0564629e+00   1.3595133e+01  -1.1734716e+00  -5.9765651e+00   4.8020416e+00   1.7226889e+00   2.5712901e+00   5.3040053e+00  -4.0559284e+00   8.6176121e+00   3.8473738e+00  -1.9866916e+00  -3.6386177e+00  -4.1705392e+00  -2.5371989e+00   9.8368791e+00  -3.1214361e+00  -4.4771920e+00   0.0000000e+00   0.0000000e+00   5.0000000e+01   0.0000000e+00
   1.6833037e+00   3.7212749e+00  -3.7886543e+00   1.4956687e+01  -3.8330462e-01  -5.5566500e+00   4.8922447e+00   2.1419544e+00   2.8888111e+00   4.3771259e+00  -5.0027071e+00   9.9587622e+00   4.3474880e+00  -2.3059260e+00  -4.2536854e+00  -4.4271894e+00  -1.9833581e+00   9.8546789e+00  -3.5615338e+00  -4.6707830e+00   0.0000000e+00   0.0000000e+00   5.0000000e+01   0.0000000e+00
   2.7549795e+00   4.1498222e+00  -3.5969907e+00   1.5738023e+01  -5.4056275e-02  -5.6622685e+00   4.7249358e+00   2.6115952e+00   3.0695934e+00   3.3279569e+00  -6.0725581e+00   1.0594226e+01   4.4636242e+00  -2.7576663e+00  -5.1652633e+00  -4.8012016e+00  -2.0670306e+00   9.7600936e+00  -4.2156839e+00  -5.0387294e+00   0.0000000e+00   0.0000000e+00   5.0000000e+01   0.0000000e+00
   3.6958360e+00   4.5583143e+00  -3.6383292e+00   1.6231474e+01   1.5537683e-01  -5.7940435e+00   4.5381496e+00   2.9721743e+00   3.2565341e+00   2.6907776e+00  -6.6472125e+00   1.0634754e+01   4.4016417e+00  -3.0249224e+00  -5.8997655e+00  -4.9858628e+00  -2.3102319e+00   9.7978631e+00  -4.8585868e+00  -5.3771237e+00   0.0000000e+00   0.0000000e+00   5.0000000e+01   0.0000000e+00
   4.5630049e+00   4.9679112e+00  -3.7163848e+00   1.6647189e+01   6.8999879e-01  -5.3552629e+00   4.6566237e+00   3.3276250e+00   3.3764428e+00   2.3183849e+00  -6.4096395e+00   1.0534185e+01   4.3572977e+00  -2.8535555e+00  -6.1191364e+00  -4.9125946e+00  -2.1593281e+00   1.0086476e+01  -5.2007858e+00  -5.4102407e+00   0.0000000e+00   0.0000000e+00   5.0000000e+01   0.0000000e+00
   5.1883982e+00   5.2929505e+00  -3.7302173e+00   1.6947929e+01   1.5652664e+00  -4.3499495e+00   5.1713868e+00   3.7832013e+00   3.2987676e+00   2.0268845e+00  -5.5774024e+00   1.0667916e+01   4.3204683e+00  -2.3844915e+00  -5.9302256e+00  -4.7566955e+00  -1.7292614e+00   1.0523620e+01  -5.1394424e+00  -5.0775910e+00   0.0000000e+00   0.0000000e+00   5.0000000e+01   0.0000000e+00
   5.1701097e+00   5.2499702e+00  -3.8048221e+00   1.7090123e+01   2.2858509e+00  -3.4090993e+00   5.9232568e+00   4.2522312e+00   3.1324763e+00   2.1579060e+00  -4.4426204e+00   1.0755837e+01   4.1897724e+00  -1.7615202e+00  -5.4330514e+00  -4.4619659e+00  -1.6764699e+00   1.1100366e+01  -4.6421207e+00  -4.4530083e+00   0.0000000e+00   0.0000000e+00   5.0000000e+01   0.0000000e+00
   4.3967469e+00   4.5099042e+00  -4.1496907e+00   1.6892772e+01   2.3602854e+00  -3.1970307e+00   6.5373426e+00   4.3697795e+00   2.9128162e+00   2.9062065e+00  -3.3122964e+00   1.0300806e+01   3.9297054e+00  -9.8434617e-01  -4.6319125e+00  -4.0957126e+00  -2.3320383e+00   1.1592772e+01  -3.9275307e+00  -3.8024650e+00   0.0000000e+00   0.0000000e+00   5.0000000e+01   0.0000000e+00
   3.3966839e+00   3.5528094e+00  -4.6083399e+00   1.6311266e+01   2.0965992e+00  -3.5497579e+00   6.8629922e+00   4.0955029e+00   2.7582780e+00   4.0898362e+00  -2.3760580e+00   9.7525485e+00   3.8640220e+00  -1.3998616e-01  -3.6981073e+00  -3.7669807e+00  -3.0474650e+00   1.1986157e+01  -3.2483733e+00  -3.1850872e+00   0.0000000e+00   0.0000000e+00   5.0000000e+01   0.0000000e+00
   2.7827145e+00   3.2443485e+00  -4.6779295e+00   1.5774667e+01   2.2114873e+00  -3.7947573e+00   7.1127424e+00   3.9392257e+00   2.7319743e+00   5.0785816e+00  -1.6771081e+00   9.7735250e+00   4.0136360e+00   5.2663582e-01  -2.9247370e+00  -3.3987954e+00  -3.1450527e+00   1.2491091e+01  -2.7359649e+00  -2.3705313e+00   0.0000000e+00   0.0000000e+00   5.0000000e+01   0.0000000e+00
   2.6219086e+00   3.5300690e+00  -4.1301900e+00   1.5575028e+01   2.7404744e+00  -3.8062952e+00   7.1986480e+00   4.1917372e+00   2.3380188e+00   5.1235066e+00  -1.2837530e+00   9.9741532e+00   3.7626640e+00   5.9942068e-01  -2.7164607e+00  -3.0551997e+00  -2.9105879e+00   1.3111981e+01  -2.6887625e+00  -1.4009699e+00   0.0000000e+00   0.0000000e+00   5.0000000e+01   0.0000000e+00
   2.6478127e+00   3.7844516e+00  -3.2983991e+00   1.5401136e+01   3.0056179e+00  -3.9762041e+00   6.8551973e+00   4.6111181e+00   1.2853603e+00   4.2211576e+00  -1.2983716e+00   9.6978703e+00   2.6768756e+00  -1.0578017e-01  -3.2322261e+00  -3.0090486e+00  -3.1333496e+00   1.3413737e+01  -3.2950394e+00  -5.5583174e-01   0.0000000e+00   0.0000000e+00   5.0000000e+01   0.0000000e+00
   2.5250361e+00   3.6739381e+00  -2.6476984e+00   1.5014992e+01   2.4687901e+00  -4.5408964e+00   6.1443079e+00   4.9669761e+00   1.0107237e-01   2.8863637e+00  -1.6031332e+00   9.0984295e+00   1.0557868e+00  -1.2526090e+00  -4.1199378e+00  -3.1259847e+00  -4.1573695e+00   1.3138660e+01  -4.3319164e+00   1.2649453e-01   0.0000000e+00   0.0000000e+00   5.0000000e+01   0.0000000e+00
   2.2864492e+00   3.2910830e+00  -2.3163882e+00   1.4552781e+01   1.4646435e+00  -5.2413462e+00   5.4147505e+00   5.1758399e+00  -5.3437433e-01   1.6482238e+00  -1.9822485e+00   8.7764231e+00  -3.4793378e-01  -2.1273179e+00  -4.7914409e+00  -3.0499242e+00  -5.4955926e+00   1.2392740e+01  -5.3006632e+00   8.4829953e-01   0.0000000e+00   0.0000000e+00   5.0000000e+01   0.0000000e+00
   2.3591341e+00   3.0709103e+00  -2.1542257e+00   1.4600764e+01   1.0851645e+00  -5.5208830e+00   5.1065924e+00   5.2259160e+00  -2.9309561e-01   1.0381721e+00  -2.2549783e+00   9.1861697e+00  -7.9687973e-01  -2.1056130e+00  -4.9380571e+00  -2.6622923e+00  -6.1574998e+00   1.1743774e+01  -5.7153113e+00   1.8795388e+00   0.0000000e+00   0.0000000e+00   5.0000000e+01   0.0000000e+00
   3.1626149e+00   3.2598875e+00  -2.0337611e+00   1.5295685e+01   2.0242713e+00  -5.1633871e+00   5.4251872e+00   4.9339548e+00   6.4314731e-01   9.4921260e-01  -2.4059385e+00   1.0289955e+01  -1.0424363e-01  -1.1442643e+00  -4.5235784e+00  -2.1676875e+00  -5.6309085e+00   1.1430525e+01  -5.4864461e+00   3.3135537e+00   0.0000000e+00   0.0000000e+00   5.0000000e+01   0.0000000e+00
   4.6394941e+00   3.7978670e+00  -1.8964658e+00   1.6447383e+01   4.0641270e+00  -4.3282452e+00   6.3364522e+00   4.2923177e+00   2.1404899e+00   1.2942392e+00  -2.3332978e+00   1.2102225e+01   1.6307246e+00   4.6927283e-01  -3.5429177e+00  -1.7643521e+00  -3.9452143e+00   1.1464715e+01  -4.7015879e+00   5.3122364e+00   0.0000000e+00   0.0000000e+00   5.0000000e+01   0.0000000e+00
   6.0639317e+00   4.4070933e+00  -1.7529959e+00   1.7683997e+01   6.3094778e+00  -3.3682489e+00   7.4940078e+00   3.4985982e+00   4.1135004e+00   1.9834037e+00  -1.9807481e+00   1.4317732e+01   3.9796436e+00   2.3124466e+00  -2.1567556e+00  -1.5732077e+00  -1.7280872e+00   1.1774555e+01  -3.5757583e+00   8.2187071e+00   0.0000000e+00   0.0000000e+00   5.0000000e+01   0.0000000e+00
   6.5354778e+00   4.6779719e+00  -1.5630012e+00   1.8392603e+01   7.7294395e+00  -2.7758135e+00   8.3388207e+00   2.7868397e+00   6.1797207e+00   2.6940683e+00  -1.3926692e+00   1.6070768e+01   6.2922931e+00   4.0408004e+00  -6.8992762e-01  -1.5021542e+00   1.1006580e-01   1.2313787e+01  -2.5129539e+00   1.2724770e+01   0.0000000e+00   0.0000000e+00   5.0000000e+01   0.0000000e+00
   5.9947012e+00   4.3470499e+00  -1.3495163e+00   1.8354359e+01   7.8201328e+00  -3.0213451e+00   8.4461245e+00   2.2185305e+00   7.6673402e+00   3.1367475e+00  -8.5757715e-01   1.6923662e+01   8.0130963e+00   5.2969327e+00   4.3006987e-01  -1.5348935e+00   1.0711188e+00   1.2784033e+01  -1.9928181e+00   1.9470120e+01   0.0000000e+00   0.0000000e+00   5.0000000e+01   0.0000000e+00
   5.0138270e+00   3.6159501e+00  -1.2317375e+00   1.7798711e+01   6.8912788e+00  -4.0699298e+00   7.8636510e+00   1.7660877e+00   8.2646138e+00   3.2875111e+00  -6.6160960e-01   1.7113562e+01   8.7349996e+00   5.6274804e+00   7.8821615e-01  -1.7216245e+00   1.1872432e+00   1.2850862e+01  -2.1954863e+00   2.7762778e+01   0.0000000e+00   0.0000000e+00   5.0000000e+01   0.0000000e+00
   3.9504596e+00   2.9676026e+00  -1.2772008e+00   1.6723931e+01   5.5041318e+00  -5.3048076e+00   7.1720857e+00   1.4731005e+00   8.1347167e+00   3.2780563e+00  -7.7705621e-01   1.6790993e+01   8.3889888e+00   5.0424097e+00   4.2226686e-01  -2.0215895e+00   5.7213450e-01   1.2337185e+01  -2.7141870e+00   3.5373109e+01   0.0000000e+00   0.0000000e+00   5.0000000e+01   0.0000000e+00
   2.8416051e+00   2.6148994e+00  -1.4621182e+00   1.5148659e+01   4.0215557e+00  -6.1772813e+00   6.7852467e+00   1.4261377e+00   7.6556421e+00   3.1889531e+00  -9.8588593e-01   1.5959782e+01   7.4664453e+00   4.0365428e+00  -3.2358043e-01  -2.2600104e+00  -5.0771738e-01   1.1450855e+01  -3.0331959e+00   4.0809962e+01   0.0000000e+00   0.0000000e+00   5.0000000e+01   0.0000000e+00
   1.9248951e+00   2.3528083e+00  -1.7616106e+00   1.3602680e+01   2.7063115e+00  -6.6828004e+00   6.4441221e+00   1.4151006e+00   7.2827791e+00   3.0261917e+00  -1.2715397e+00   1.5030959e+01   6.7100755e+00   3.1392988e+00  -1.1931785e+00  -2.4430159e+00  -1.4208643e+00   1.0367167e+01  -3.1878848e+00   4.3729843e+01   0.0000000e+00   0.0000000e+00   5.0000000e+01   0.0000000e+00
   1.7642061e+00   2.1054691e+00  -2.1020056e+00   1.3014659e+01   2.1814744e+00  -6.9456843e+00   5.8388782e+00   1.2950272e+00   7.5089613e+00   3.1058239e+00  -1.6361105e+00   1.4859709e+01   6.8067712e+00   2.6534607e+00  -2.0443309e+00  -2.5912279e+00  -1.4039867e+00   9.3610955e+00  -3.4169747e+00   4.3989047e+01   0.0000000e+00   0.0000000e+00   5.0000000e+01   0.0000000e+00
   2.4907079e+00   1.8333013e+00  -2.4863151e+00   1.3465558e+01   2.8339940e+00  -6.9787633e+00   4.9590037e+00   9.5208854e-01   8.0300681e+00   3.4191892e+00  -2.0983745e+00   1.5524478e+01   7.6795413e+00   2.3029057e+00  -2.8942126e+00  -2.8215824e+00  -3.7113600e-01   8.4455685e+00  -3.9309783e+00   4.1246362e+01   0.0000000e+00   0.0000000e+00   5.0000000e+01   0.0000000e+00
   3.6226389e+00   1.5451088e+00  -2.8476311e+00   1.4293790e+01   4.3642986e+00  -6.7374092e+00   4.0468700e+00   4.6676468e-01   8.2770001e+00   3.7356479e+00  -2.4319507e+00   1.6345016e+01   8.8374276e+00   1.6944754e+00  -3.7491358e+00  -3.0349995e+00   1.1910671e+00   7.7374168e+00  -4.7450357e+00   3.5268315e+01   0.0000000e+00   0.0000000e+00   5.0000000e+01   0.0000000e+00
   4.5807290e+00   1.2953894e+00  -3.0274069e+00   1.4882161e+01   5.7764211e+00  -6.6205344e+00   3.2951904e+00   7.7339830e-02   8.1151617e+00   3.7752322e+00  -2.5695092e+00   1.6685504e+01   9.6608616e+00   6.5279913e-01  -4.5302298e+00  -3.2205300e+00   2.3954866e+00   7.0995242e+00  -5.7428996e+00   2.7133112e+01   0.0000000e+00   0.0000000e+00   5.0000000e+01   0.0000000e+00
   4.9987352e+00   1.1461702e+00  -2.8375534e+00   1.5141530e+01   6.2425153e+00  -7.0629934e+00   2.8005031e+00  -4.0714362e-02   7.5877536e+00   3.5264180e+00  -2.5612214e+00   1.6377531e+01   9.6743423e+00  -7.6772595e-01  -5.1230184e+00  -3.4456176e+00   2.5172577e+00   6.2387222e+00  -6.6655669e+00   1.9263720e+01   0.0000000e+00   0.0000000e+00   5.0000000e+01   0.0000000e+00
   4.9433961e+00   9.8252022e-01  -2.3237533e+00   1.5537788e+01   6.0588895e+00  -7.8196440e+00   2.5258847e+00  -1.1277145e-01   6.8397867e+00   3.3234304e+00  -2.3257460e+00   1.5808171e+01   9.0867967e+00  -2.3219088e+00  -5.4588120e+00  -3.5849408e+00   1.8450814e+00   5.3275061e+00  -7.2223356e+00   1.3138587e+01   0.0000000e+00   0.0000000e+00   5.0000000e+01   0.0000000e+00
   4.8376340e+00   8.8435196e-01  -1.8301723e+00   1.6544318e+01   6.1608675e+00  -8.2460204e+00   2.4408618e+00  -1.5449750e-01   6.0280981e+00   3.0258143e+00  -1.9914916e+00   1.5493943e+01   8.5311358e+00  -3.7805266e+00  -5.7477668e+00  -3.5449837e+00   1.3240176e+00   4.8833199e+00  -7.4176128e+00   8.7715480e+00   0.0000000e+00   0.0000000e+00   5.0000000e+01   0.0000000e+00
   4.9701866e+00   1.0501949e+00  -1.5512195e+00   1.7906197e+01   6.8693430e+00  -7.9553541e+00   2.3502379e+00  -4.2121050e-01   5.0869276e+00   2.3721505e+00  -1.8293585e+00   1.5367985e+01   8.1932593e+00  -4.9880615e+00  -6.1791362e+00  -3.4059761e+00   1.2165137e+00   4.8681246e+00  -7.4622791e+00   5.5623674e+00   0.0000000e+00   0.0000000e+00   5.0000000e+01   0.0000000e+00
   5.1418960e+00   1.5099590e+00  -1.3073822e+00   1.8961382e+01   7.5401530e+00  -7.2344710e+00   2.4314345e+00  -8.0465537e-01   4.0579118e+00   1.8684463e+00  -1.7043965e+00   1.5046811e+01   7.9754881e+00  -5.7066877e+00  -6.4489237e+00  -2.9959268e+00   1.1289994e+00   5.1366056e+00  -7.3157410e+00   3.2217265e+00   0.0000000e+00   0.0000000e+00   5.0000000e+01   0.0000000e+00
   5.1367674e+00   2.1545972e+00  -9.6324843e-01   1.9289311e+01   7.5586824e+00  -6.5284642e+00   3.1045478e+00  -7.4889284e-01   3.0463784e+00   1.7797491e+00  -1.3940341e+00   1.4291471e+01   7.7778316e+00  -5.8149002e+00  -6.1126384e+00  -2.1454968e+00   7.6420928e-01   5.6256676e+00  -6.7058067e+00   1.8619953e+00   0.0000000e+00   0.0000000e+00   5.0000000e+01   0.0000000e+00
   4.9122920e+00   2.7610768e+00  -5.8316038e-01   1.9007012e+01   7.0268690e+00  -5.8355799e+00   4.3020480e+00  -1.6410863e-01   2.1267961e+00   1.9849092e+00  -8.8798730e-01   1.3274634e+01   7.4973180e+00  -5.5224822e+00  -5.2173537e+00  -9.7045557e-01   1.1416191e-01   6.3199653e+00  -5.5639022e+00   1.4847577e+00   0.0000000e+00   0.0000000e+00   5.0000000e+01   0.0000000e+00
   4.4006907e+00   2.8201918e+00  -5.0168869e-01   1.8178578e+01   6.1058760e+00  -5.3259659e+00   5.3677610e+00   2.7410784e-01   1.0423279e+00   1.9305919e+00  -6.5743576e-01   1.2050338e+01   6.9173720e+00  -5.4331785e+00  -4.3700053e+00  -6.9811391e-02  -9.9287328e-01   6.5926973e+00  -4.5273800e+00   1.4357805e+00   0.0000000e+00   0.0000000e+00   5.0000000e+01   0.0000000e+00
   3.7034197e+00   2.2546969e+00  -7.9637448e-01   1.6912597e+01   4.9218554e+00  -5.1483139e+00   6.0240558e+00   4.0600747e-01  -2.2748466e-01   1.2014993e+00  -9.8701220e-01   1.0542794e+01   5.9394624e+00  -5.9838263e+00  -4.1156418e+00   2.5437587e-01  -2.6086155e+00   6.0996868e+00  -4.1656007e+00   1.2862355e+00   0.0000000e+00   0.0000000e+00   5.0000000e+01   0.0000000e+00
   3.0145650e+00   1.3956478e+00  -1.2404677e+00   1.5342650e+01   3.7088753e+00  -5.2963913e+00   6.2007768e+00   4.1928798e-01  -1.5135439e+00  -1.6809968e-01  -1.7778176e+00   8.7811839e+00   4.5631870e+00  -7.2036306e+00  -4.5855939e+00   1.6770311e-01  -4.4875092e+00   5.1996276e+00  -4.5393416e+00   1.0095284e+00   0.0000000e+00   0.0000000e+00   5.0000000e+01   0.0000000e+00
   2.4686059e+00   5.7124351e-01  -1.7624981e+00   1.3785824e+01   2.9080625e+00  -5.8021195e+00   5.8725958e+00   4.3969693e-01  -2.8470817e+00  -1.9540067e+00  -2.9105895e+00   7.2367963e+00   3.0637019e+00  -8.9984058e+00  -5.7319587e+00  -2.2039886e-01  -6.0845885e+00   4.2905823e+00  -5.5264854e+00   6.8321599e-01   0.0000000e+00   0.0000000e+00   5.0000000e+01   0.0000000e+00
   2.2411530e+00  -1.0782449e-01  -2.4464928e+00   1.2701498e+01   2.8262289e+00  -6.6035054e+00   5.0542290e+00   3.3851004e-01  -4.2417165e+00  -3.8618960e+00  -4.3272840e+00   6.4286103e+00   1.8545454e+00  -1.1244704e+01  -7.4080746e+00  -9.3536181e-01  -6.9870734e+00   3.2783321e+00  -7.0534497e+00   3.6758144e-01   0.0000000e+00   0.0000000e+00   5.0000000e+01   0.0000000e+00
   2.2102584e+00  -7.4389095e-01  -3.2172205e+00   1.2181283e+01   3.0522398e+00  -7.6779363e+00   3.8430086e+00   4.0034666e-02  -5.6578112e+00  -5.4923444e+00  -5.8479148e+00   6.1521124e+00   9.5567670e-01  -1.3677330e+01  -9.3620498e+00  -1.7415191e+00  -7.5107632e+00   2.1580857e+00  -8.9361228e+00   2.6489144e-01   0.0000000e+00   0.0000000e+00   5.0000000e+01   0.0000000e+00
   2.1075436e+00  -1.3264354e+00  -3.8931323e+00   1.1757476e+01   2.9891241e+00  -8.8892600e+00   2.4942990e+00  -4.3269356e-01  -7.4010128e+00  -6.7296273e+00  -7.3353077e+00   5.6168567e+00  -1.7217729e-01  -1.5971401e+01  -1.1221658e+01  -2.3584115e+00  -8.3051204e+00   9.3891987e-01  -1.0838982e+01   7.0179588e-01   0.0000000e+00   0.0000000e+00   5.0000000e+01   0.0000000e+00
   1.8021367e+00  -1.6883391e+00  -4.3270494e+00   1.1117067e+01   2.6439969e+00  -9.9164697e+00   1.4660655e+00  -8.7195012e-01  -9.5023361e+00  -7.5420766e+00  -8.5625563e+00   4.4142973e+00  -1.6629651e+00  -1.7674504e+01  -1.2642259e+01  -2.6168726e+00  -9.3807296e+00  -1.7189223e-01  -1.2285407e+01   2.2115856e+00   0.0000000e+00   0.0000000e+00   5.0000000e+01   0.0000000e+00
   1.3455908e+00  -1.9153380e+00  -4.4840254e+00   1.0342237e+01   2.4121854e+00  -1.0586190e+01   9.4825267e-01  -1.2158736e+00  -1.1423893e+01  -7.7883968e+00  -9.3190589e+00   2.8618998e+00  -3.0288724e+00  -1.8367839e+01  -1.3297411e+01  -2.5175393e+00  -1.0255199e+01  -9.6024228e-01  -1.2886200e+01   5.4297428e+00   0.0000000e+00   0.0000000e+00   5.0000000e+01   0.0000000e+00
   9.4686340e-01  -2.1814804e+00  -4.4253241e+00   9.7757836e+00   2.5260358e+00  -1.0957215e+01   7.7872869e-01  -1.4820663e+00  -1.2584229e+01  -7.6375013e+00  -9.4797553e+00   1.7037222e+00  -3.7397142e+00  -1.7978449e+01  -1.3047543e+01  -2.0684618e+00  -1.0584816e+01  -1.1483313e+00  -1.2637224e+01   1.0905651e+01   0.0000000e+00   0.0000000e+00   5.0000000e+01   0.0000000e+00
   8.3144723e-01  -2.3519679e+00  -4.2249205e+00   9.4803929e+00   2.8059410e+00  -1.1181406e+01   9.1003091e-01  -1.5116578e+00  -1.2928526e+01  -7.5496560e+00  -9.2746478e+00   1.4145686e+00  -3.7227340e+00  -1.6777939e+01  -1.2255019e+01  -1.5380095e+00  -1.0525835e+01  -8.7423805e-01  -1.1882778e+01   1.8080373e+01   0.0000000e+00   0.0000000e+00   5.0000000e+01   0.0000000e+00
   1.0659540e+00  -2.0559160e+00  -3.8617231e+00   9.4050201e+00   3.2017560e+00  -1.1091372e+01   1.4027361e+00  -1.1640184e+00  -1.2775765e+01  -7.4915128e+00  -9.0045328e+00   1.8251433e+00  -3.2090853e+00  -1.5238657e+01  -1.1363812e+01  -1.2455095e+00  -1.0302521e+01  -4.4105960e-01  -1.0931496e+01   2.4725972e+01   0.0000000e+00   0.0000000e+00   5.0000000e+01   0.0000000e+00
   1.5487798e+00  -1.2988498e+00  -3.3137743e+00   9.2407827e+00   3.6312313e+00  -1.0528177e+01   2.0609839e+00  -8.3233873e-01  -1.2536092e+01  -7.2615747e+00  -8.8894082e+00   2.2972935e+00  -2.6440361e+00  -1.3901365e+01  -1.0566357e+01  -1.3875291e+00  -1.0030359e+01  -2.6646064e-01  -1.0113581e+01   2.8636209e+01   0.0000000e+00   0.0000000e+00   5.0000000e+01   0.0000000e+00
   1.8753771e+00  -4.7054449e-01  -2.6792472e+00   8.8902269e+00   3.8364052e+00  -9.9085791e+00   2.5792992e+00  -8.2583585e-01  -1.2412476e+01  -6.9981511e+00  -9.0229466e+00   2.4423614e+00  -2.3747839e+00  -1.3136664e+01  -1.0133783e+01  -2.0131690e+00  -9.7138820e+00  -6.1809478e-01  -9.8059650e+00   2.8826604e+01   0.0000000e+00   0.0000000e+00   5.0000000e+01   0.0000000e+00
