nt = 720
nc = 24
channels = F7 T3 T5 Fp1 F3 C3 P3 O1 F8 T4 T6 Fp2 F4 C4 P4 O2 Fz Cz Pz Oz TR SOn Occ RAp
ne = 20
type = N
fsmp = 120.0000000000
band = 0.1 0.2 44 58 0
orig.file = s7_bl1
orig.nt = 286880
orig.sample_range = 157476 161071
orig.fsmp = 600
orig.subject = 7
orig.run = 28
   5.9818086e+00   7.9927511e+00   5.5377155e+00   4.8058641e+01   9.4951908e+00   1.2612817e+01   7.4361275e+00  -5.9339000e-01   2.2443395e+01   3.2357183e+01   5.4384537e+00   2.4159481e+01   6.8881885e+00   2.3934340e+01   3.7367202e-01   3.9992971e+00   1.5291247e+01   1.4387041e+01   1.2650673e+01   8.0441296e+00   0.0000000e+00   0.0000000e+00   0.0000000e+00   0.0000000e+00
   8.1213514e+00   7.7159887e+00   6.5185136e+00   5.1132163e+01   1.0813410e+01   1.1725687e+01   7.9068010e+00  -1.4662969e+00   2.3931180e+01   3.5366398e+01   8.9237956e+00   3.4498215e+01   1.0088272e+01   2.6302333e+01   2.2261426e+00   4.2820844e+00   1.5615055e+01   1.6099620e+01   1.2647670e+01   1.0396776e+01   0.0000000e+00   0.0000000e+00   0.0000000e+00   0.0000000e+00
   9.0500663e+00   7.1539196e+00   6.5461620e+00   5.2478223e+01   1.1019958e+01   1.0351833e+01   7.6499016e+00  -2.1248506e+00   2.4451803e+01   3.7336568e+01   1.1316325e+01   4.0656890e+01   1.1649815e+01   2.7443549e+01   3.0280644e+00   4.4476994e+00   1.5196815e+01   1.6793733e+01   1.1889938e+01   1.1556920e+01   0.0000000e+00   0.0000000e+00   0.0000000e+00   0.0000000e+00
   9.5202182e+00   6.4114487e+00   6.0550974e+00   5.2750641e+01   1.0567256e+01   8.8656297e+00   7.0566507e+00  -2.6307774e+00   2.4219841e+01   3.8463860e+01   1.2841855e+01   4.3928536e+01   1.2093424e+01   2.7641584e+01   3.3175231e+00   4.5895402e+00   1.4432965e+01   1.6669819e+01   1.0945771e+01   1.2098577e+01   0.0000000e+00   0.0000000e+00   0.0000000e+00   0.0000000e+00
   9.8744919e+00   5.4833158e+00   5.2347117e+00   5.2408383e+01   9.6451520e+00   7.4792928e+00   6.4182467e+00  -3.1632293e+00   2.3598278e+01   3.8778939e+01   1.3646249e+01   4.5527958e+01   1.1937608e+01   2.7253027e+01   3.4310944e+00   4.6530068e+00   1.3522204e+01   1.6127202e+01   1.0315175e+01   1.2411227e+01   0.0000000e+00   0.0000000e+00   0.0000000e+00   0.0000000e+00
   1.0437352e+01   4.7476933e+00   4.5654932e+00   5.2214357e+01   8.9854710e+00   6.8004032e+00   6.3207721e+00  -3.2128028e+00   2.3451777e+01   3.8808332e+01   1.4305262e+01   4.6736640e+01   1.2137864e+01   2.7316860e+01   4.0653516e+00   4.9796942e+00   1.3178273e+01   1.6265343e+01   1.0764979e+01   1.3123774e+01   0.0000000e+00   0.0000000e+00   0.0000000e+00   0.0000000e+00
   1.1583786e+01   4.4487893e+00   4.5412139e+00   5.2747890e+01   9.3781327e+00   7.3212253e+00   7.1785956e+00  -2.3007365e+00   2.4199937e+01   3.9222016e+01   1.5385364e+01   4.8420107e+01   1.3295827e+01   2.8541328e+01   5.6376888e+00   6.0558042e+00   1.3922871e+01   1.7671544e+01   1.2459438e+01   1.4719455e+01   0.0000000e+00   0.0000000e+00   0.0000000e+00   0.0000000e+00
   1.2997439e+01   4.2372936e+00   4.9412271e+00   5.3658045e+01   1.0455585e+01   8.4483041e+00   8.4265467e+00  -1.1122379e+00   2.5229288e+01   3.9887045e+01   1.6581556e+01   5.0338333e+01   1.4849307e+01   3.0277938e+01   7.3877275e+00   7.3920190e+00   1.5136217e+01   1.9523579e+01   1.4340307e+01   1.6537116e+01   0.0000000e+00   0.0000000e+00   0.0000000e+00   0.0000000e+00
   1.4015231e+01   4.0403732e+00   5.3709689e+00   5.4302871e+01   1.1289778e+01   9.1612173e+00   9.3796069e+00  -3.5133560e-01   2.5682403e+01   4.0203666e+01   1.7228248e+01   5.1599286e+01   1.5762312e+01   3.1461958e+01   8.3358538e+00   8.2239364e+00   1.5865897e+01   2.0947402e+01   1.5276209e+01   1.7657539e+01   0.0000000e+00   0.0000000e+00   0.0000000e+00   0.0000000e+00
   1.4452782e+01   3.8044809e+00   5.6355664e+00   5.4423338e+01   1.1380687e+01   9.0114859e+00   9.7238358e+00  -4.0238920e-02   2.5224300e+01   3.9875149e+01   1.7228477e+01   5.1813136e+01   1.5569528e+01   3.1632997e+01   8.2291152e+00   8.3920891e+00   1.5655260e+01   2.1693832e+01   1.4959579e+01   1.7907690e+01   0.0000000e+00   0.0000000e+00   0.0000000e+00   0.0000000e+00
   1.4495830e+01   3.3294910e+00   5.7056388e+00   5.4051002e+01   1.0642357e+01   8.1801062e+00   9.3836837e+00  -7.3661100e-03   2.4136902e+01   3.8866451e+01   1.7045431e+01   5.1281303e+01   1.4474412e+01   3.1077665e+01   7.5150723e+00   8.0447630e+00   1.4585552e+01   2.1607266e+01   1.3762453e+01   1.7591479e+01   0.0000000e+00   0.0000000e+00   0.0000000e+00   0.0000000e+00
   1.4177993e+01   2.6871045e+00   5.7492198e+00   5.3265487e+01   9.3042969e+00   7.0839615e+00   8.7612510e+00   3.3925226e-02   2.2696003e+01   3.7303128e+01   1.7043896e+01   5.0341392e+01   1.2956255e+01   3.0450370e+01   6.8574819e+00   7.4614746e+00   1.3136920e+01   2.0643680e+01   1.2248843e+01   1.7115759e+01   0.0000000e+00   0.0000000e+00   0.0000000e+00   0.0000000e+00
   1.3599092e+01   2.3016222e+00   5.9866721e+00   5.2251693e+01   7.9730678e+00   6.1546083e+00   8.3366860e+00   3.1138119e-01   2.1101620e+01   3.5990251e+01   1.7081997e+01   4.9278497e+01   1.1520985e+01   3.0115118e+01   6.5485674e+00   6.9861520e+00   1.1902151e+01   1.9302713e+01   1.0864882e+01   1.6723426e+01   0.0000000e+00   0.0000000e+00   0.0000000e+00   0.0000000e+00
   1.3121829e+01   2.5066813e+00   6.4332175e+00   5.1250166e+01   7.3150469e+00   5.6140147e+00   8.2110804e+00   7.8832406e-01   1.9727695e+01   3.5252793e+01   1.6945062e+01   4.8223819e+01   1.0393013e+01   2.9959462e+01   6.4570501e+00   6.7388215e+00   1.1158902e+01   1.8189370e+01   9.8517044e+00   1.6430959e+01   0.0000000e+00   0.0000000e+00   0.0000000e+00   0.0000000e+00
   1.3055863e+01   3.0907996e+00   6.9202447e+00   5.0441328e+01   7.4727300e+00   5.5086288e+00   8.3677738e+00   1.3968353e+00   1.8882540e+01   3.4773757e+01   1.6674234e+01   4.7245630e+01   9.5494719e+00   2.9855027e+01   6.6004326e+00   6.6987148e+00   1.0892735e+01   1.7350195e+01   9.4231166e+00   1.6344426e+01   0.0000000e+00   0.0000000e+00   0.0000000e+00   0.0000000e+00
   1.3572579e+01   3.7907541e+00   7.4360952e+00   5.0152660e+01   8.2654731e+00   5.8816042e+00   8.9214858e+00   2.1883453e+00   1.8823162e+01   3.4673096e+01   1.6530400e+01   4.6645035e+01   9.1796126e+00   2.9893290e+01   7.2246146e+00   6.9133087e+00   1.1235555e+01   1.6698055e+01   9.8293472e+00   1.6707637e+01   0.0000000e+00   0.0000000e+00   0.0000000e+00   0.0000000e+00
   1.4334134e+01   4.4048621e+00   7.9098220e+00   5.0254188e+01   9.1958378e+00   6.4812583e+00   9.6797964e+00   2.9169684e+00   1.9337803e+01   3.4878946e+01   1.6489618e+01   4.6360181e+01   9.2441390e+00   2.9902866e+01   8.1419458e+00   7.2244670e+00   1.1953779e+01   1.6322366e+01   1.0784300e+01   1.7360198e+01   0.0000000e+00   0.0000000e+00   0.0000000e+00   0.0000000e+00
   1.4679966e+01   4.8092568e+00   8.2163440e+00   5.0156014e+01   9.6777811e+00   6.9769586e+00   1.0137870e+01   3.2984398e+00   1.9806464e+01   3.5067908e+01   1.6316363e+01   4.6128093e+01   9.3731182e+00   2.9664426e+01   8.8628946e+00   7.4294454e+00   1.2484453e+01   1.6364787e+01   1.1645118e+01   1.7902196e+01   0.0000000e+00   0.0000000e+00   0.0000000e+00   0.0000000e+00
   1.4434555e+01   4.9484988e+00   8.4370267e+00   4.9624939e+01   9.5390966e+00   7.1671803e+00   1.0071573e+01   3.3890660e+00   1.9894538e+01   3.5118951e+01   1.6006943e+01   4.5824383e+01   9.3434407e+00   2.9238096e+01   9.0102812e+00   7.5281786e+00   1.2571486e+01   1.6704138e+01   1.2018767e+01   1.8163541e+01   0.0000000e+00   0.0000000e+00   0.0000000e+00   0.0000000e+00
   1.3806518e+01   4.7132786e+00   8.6100929e+00   4.8823076e+01   8.8620476e+00   6.8289281e+00   9.5156292e+00   3.3105002e+00   1.9646219e+01   3.5032937e+01   1.5699566e+01   4.5400976e+01   9.0737353e+00   2.8734011e+01   8.5106280e+00   7.5485704e+00   1.2213156e+01   1.6892213e+01   1.1720611e+01   1.8071940e+01   0.0000000e+00   0.0000000e+00   0.0000000e+00   0.0000000e+00
   1.2862486e+01   4.2251087e+00   8.4798221e+00   4.7964463e+01   7.7758487e+00   5.7349111e+00   8.4150493e+00   2.9643759e+00   1.9188664e+01   3.4780515e+01   1.5360555e+01   4.4943079e+01   8.4736430e+00   2.8148781e+01   7.4733601e+00   7.0988118e+00   1.1400198e+01   1.6642393e+01   1.0569352e+01   1.7348951e+01   0.0000000e+00   0.0000000e+00   0.0000000e+00   0.0000000e+00
   1.1778842e+01   3.8360171e+00   7.8997733e+00   4.7184322e+01   6.6335100e+00   4.1095650e+00   7.0134937e+00   2.2811977e+00   1.8674722e+01   3.4409754e+01   1.4829286e+01   4.4609376e+01   7.6880125e+00   2.7604750e+01   6.1953643e+00   5.9542689e+00   1.0353548e+01   1.6171059e+01   8.7564719e+00   1.5966376e+01   0.0000000e+00   0.0000000e+00   0.0000000e+00   0.0000000e+00
   1.1018617e+01   3.8501527e+00   7.1373464e+00   4.6548368e+01   5.9129864e+00   2.7002815e+00   5.9301782e+00   1.3926069e+00   1.8284710e+01   3.4145515e+01   1.4150148e+01   4.4585766e+01   7.1310445e+00   2.7343413e+01   5.1102684e+00   4.6606415e+00   9.4936788e+00   1.5755125e+01   6.9592494e+00   1.4472064e+01   0.0000000e+00   0.0000000e+00   0.0000000e+00   0.0000000e+00
   1.0681338e+01   4.3009452e+00   6.5364938e+00   4.5973109e+01   5.5483623e+00   1.8739238e+00   5.3746138e+00   5.6410813e-01   1.7932252e+01   3.3957164e+01   1.3305154e+01   4.4588305e+01   6.7440446e+00   2.7242281e+01   4.3557403e+00   3.6401801e+00   8.8101774e+00   1.5240257e+01   5.5901056e+00   1.3303720e+01   0.0000000e+00   0.0000000e+00   0.0000000e+00   0.0000000e+00
   1.0344950e+01   4.8800108e+00   6.2194755e+00   4.5347965e+01   5.1633874e+00   1.5049541e+00   5.1013739e+00   4.4760925e-02   1.7476202e+01   3.3557465e+01   1.2287354e+01   4.4182681e+01   6.1684204e+00   2.7005100e+01   3.8677680e+00   2.9083316e+00   8.1116448e+00   1.4578109e+01   4.6763926e+00   1.2518622e+01   0.0000000e+00   0.0000000e+00   0.0000000e+00   0.0000000e+00
   9.7796474e+00   5.3107145e+00   6.1297024e+00   4.4759333e+01   4.7313797e+00   1.3754889e+00   4.9096767e+00  -6.3034731e-02   1.7024913e+01   3.3063765e+01   1.1476688e+01   4.3510997e+01   5.3781667e+00   2.6526777e+01   3.6216262e+00   2.6157188e+00   7.4104103e+00   1.4058150e+01   4.2615699e+00   1.2174632e+01   0.0000000e+00   0.0000000e+00   0.0000000e+00   0.0000000e+00
   9.1796780e+00   5.6302275e+00   6.1177035e+00   4.4381187e+01   4.5981843e+00   1.3194061e+00   4.8142101e+00   1.1086988e-01   1.6814445e+01   3.2774574e+01   1.1251236e+01   4.3012078e+01   4.6261734e+00   2.6031620e+01   3.7317478e+00   2.9031233e+00   6.9019217e+00   1.3748653e+01   4.4865484e+00   1.2360760e+01   0.0000000e+00   0.0000000e+00   0.0000000e+00   0.0000000e+00
   8.8513978e+00   5.8461166e+00   6.0592706e+00   4.4357025e+01   5.1538839e+00   1.4852176e+00   4.9338303e+00   2.9674848e-01   1.6950432e+01   3.2732191e+01   1.1566441e+01   4.3009099e+01   4.2574052e+00   2.5812625e+01   4.2185172e+00   3.4490609e+00   6.8940730e+00   1.3567968e+01   5.3823035e+00   1.2915300e+01   0.0000000e+00   0.0000000e+00   0.0000000e+00   0.0000000e+00
   8.8775986e+00   5.5980883e+00   5.9165363e+00   4.4633222e+01   6.3339377e+00   2.0218441e+00   5.2365264e+00   3.9407262e-01   1.7261304e+01   3.2472519e+01   1.1995079e+01   4.3565125e+01   4.5065115e+00   2.5844576e+01   4.7086638e+00   3.7520630e+00   7.4503885e+00   1.3687838e+01   6.6090580e+00   1.3502405e+01   0.0000000e+00   0.0000000e+00   0.0000000e+00   0.0000000e+00
   9.0618640e+00   4.7521661e+00   5.8606803e+00   4.4956670e+01   7.6553603e+00   2.6620192e+00   5.3774138e+00   4.9408406e-01   1.7384979e+01   3.1282774e+01   1.1948455e+01   4.4475950e+01   5.1624072e+00   2.5871306e+01   4.6677417e+00   3.6793738e+00   8.2712650e+00   1.4351955e+01   7.6203577e+00   1.3866388e+01   0.0000000e+00   0.0000000e+00   0.0000000e+00   0.0000000e+00
   9.1135027e+00   3.5036095e+00   6.0921373e+00   4.5130345e+01   8.6161298e+00   2.8708531e+00   5.0024841e+00   6.6180397e-01   1.6983074e+01   2.9587953e+01   1.1396480e+01   4.5422848e+01   5.6949589e+00   2.5567271e+01   3.9993625e+00   3.3654165e+00   8.8796075e+00   1.5231018e+01   7.9826929e+00   1.3813389e+01   0.0000000e+00   0.0000000e+00   0.0000000e+00   0.0000000e+00
   8.9706539e+00   2.3112675e+00   6.5075639e+00   4.5181475e+01   9.0532955e+00   2.4366735e+00   4.0720905e+00   7.6099032e-01   1.6131476e+01   2.8324550e+01   1.0712975e+01   4.6183422e+01   5.9147283e+00   2.4787794e+01   3.0297515e+00   2.8560516e+00   9.0321343e+00   1.5674221e+01   7.4686836e+00   1.3225919e+01   0.0000000e+00   0.0000000e+00   0.0000000e+00   0.0000000e+00
   8.8670149e+00   1.5267356e+00   6.8587601e+00   4.5160011e+01   9.0878131e+00   1.5946263e+00   2.7843507e+00   6.1010940e-01   1.5210070e+01   2.7503777e+01   9.8925840e+00   4.6567270e+01   5.8919990e+00   2.3591433e+01   1.9917595e+00   2.1589267e+00   8.7953027e+00   1.5562598e+01   6.1478718e+00   1.2220548e+01   0.0000000e+00   0.0000000e+00   0.0000000e+00   0.0000000e+00
   8.8225153e+00   9.9621245e-01   6.9019884e+00   4.4946961e+01   8.8939770e+00   6.2399786e-01   1.4850562e+00   2.0859873e-01   1.4512787e+01   2.6888370e+01   8.8403441e+00   4.6629393e+01   5.7184863e+00   2.2191215e+01   1.0209885e+00   1.3191000e+00   8.3751617e+00   1.5213964e+01   4.4461814e+00   1.1089035e+01   0.0000000e+00   0.0000000e+00   0.0000000e+00   0.0000000e+00
   8.8874800e+00   7.3247743e-01   6.6460168e+00   4.4800908e+01   8.8998000e+00  -6.6399058e-02   7.3411302e-01  -1.2628819e-02   1.4394978e+01   2.6617989e+01   7.9167530e+00   4.6881169e+01   5.8275914e+00   2.1294386e+01   5.4088439e-01   6.4436954e-01   8.2466227e+00   1.4937658e+01   3.1860955e+00   1.0406302e+01   0.0000000e+00   0.0000000e+00   0.0000000e+00   0.0000000e+00
   9.3171568e+00   9.8338942e-01   6.2364650e+00   4.5134764e+01   9.5311348e+00  -5.4001991e-03   9.1156458e-01   2.1032194e-01   1.4934439e+01   2.6880915e+01   7.5937178e+00   4.7648522e+01   6.7044011e+00   2.1493977e+01   8.9123503e-01   5.3627205e-01   8.8782387e+00   1.4907125e+01   3.0046528e+00   1.0529911e+01   0.0000000e+00   0.0000000e+00   0.0000000e+00   0.0000000e+00
   9.9256608e+00   1.6869949e+00   5.6860248e+00   4.5774249e+01   1.0730420e+01   8.4994760e-01   1.7468726e+00   6.7339701e-01   1.5737929e+01   2.7505123e+01   7.8951525e+00   4.8701101e+01   8.2649629e+00   2.2529151e+01   1.8368489e+00   9.6700565e-01   1.0215225e+01   1.5271664e+01   3.7120340e+00   1.1202670e+01   0.0000000e+00   0.0000000e+00   0.0000000e+00   0.0000000e+00
   1.0205292e+01   2.2857159e+00   4.9009178e+00   4.6146282e+01   1.1887661e+01   1.9445111e+00   2.5276895e+00   1.0693728e+00   1.6425443e+01   2.8109761e+01   8.4228317e+00   4.9513976e+01   9.8507660e+00   2.3647704e+01   2.8098125e+00   1.4919511e+00   1.1591544e+01   1.5887373e+01   4.6083417e+00   1.1976604e+01   0.0000000e+00   0.0000000e+00   0.0000000e+00   0.0000000e+00
   1.0098898e+01   2.3141509e+00   3.9906195e+00   4.6015477e+01   1.2469965e+01   2.6212447e+00   2.8663978e+00   1.3638962e+00   1.6876504e+01   2.8467202e+01   8.7875324e+00   4.9838729e+01   1.0896639e+01   2.4296515e+01   3.4609883e+00   1.8343679e+00   1.2352405e+01   1.6161468e+01   5.2427064e+00   1.2664155e+01   0.0000000e+00   0.0000000e+00   0.0000000e+00   0.0000000e+00
   9.7870098e+00   2.0947990e+00   3.4251881e+00   4.5535707e+01   1.2421667e+01   2.5635741e+00   3.0069886e+00   1.8382179e+00   1.7020833e+01   2.8465090e+01   8.9461940e+00   4.9751736e+01   1.1193795e+01   2.4301680e+01   3.8498797e+00   2.0943759e+00   1.2343733e+01   1.5678682e+01   5.6246768e+00   1.3386945e+01   0.0000000e+00   0.0000000e+00   0.0000000e+00   0.0000000e+00
   8.9790416e+00   2.0009341e+00   3.3747120e+00   4.4600994e+01   1.1791193e+01   1.7679670e+00   3.1185037e+00   2.3963547e+00   1.6572749e+01   2.7944575e+01   8.9814314e+00   4.9129833e+01   1.0659729e+01   2.3562480e+01   3.9025710e+00   2.1754351e+00   1.1670438e+01   1.4607596e+01   5.8003601e+00   1.3995783e+01   0.0000000e+00   0.0000000e+00   0.0000000e+00   0.0000000e+00
   7.6730161e+00   1.9037846e+00   3.5275474e+00   4.3212222e+01   1.0775353e+01   4.2874466e-01   2.9436709e+00   2.5965406e+00   1.5528495e+01   2.6961819e+01   8.7659983e+00   4.8024543e+01   9.5374342e+00   2.2045921e+01   3.2248590e+00   1.7788683e+00   1.0543436e+01   1.3397741e+01   5.6116995e+00   1.4015417e+01   0.0000000e+00   0.0000000e+00   0.0000000e+00   0.0000000e+00
   6.4183360e+00   1.7431287e+00   3.6652599e+00   4.1932363e+01   9.7789200e+00  -1.0487246e+00   2.3807887e+00   2.3545775e+00   1.4500281e+01   2.5547569e+01   8.2606984e+00   4.7101487e+01   8.4508613e+00   2.0162611e+01   1.8245889e+00   9.9944306e-01   9.3667379e+00   1.2241044e+01   5.0538171e+00   1.3359442e+01   0.0000000e+00   0.0000000e+00   0.0000000e+00   0.0000000e+00
   5.7132320e+00   1.6562091e+00   3.7738407e+00   4.1255718e+01   9.1397444e+00  -2.1660928e+00   1.7278717e+00   1.9621253e+00   1.3943202e+01   2.3792414e+01   7.7015139e+00   4.6831990e+01   7.9091740e+00   1.8607330e+01   2.6189889e-01   2.8496938e-01   8.5547938e+00   1.1163976e+01   4.4709710e+00   1.2447825e+01   0.0000000e+00   0.0000000e+00   0.0000000e+00   0.0000000e+00
   5.4728784e+00   1.6945334e+00   3.7531719e+00   4.1117194e+01   8.8542866e+00  -2.8591190e+00   1.1475352e+00   1.5188452e+00   1.3684640e+01   2.2345518e+01   7.1574583e+00   4.6942006e+01   7.8270301e+00   1.7472743e+01  -1.1787024e+00  -2.6186472e-01   8.1189700e+00   1.0354414e+01   3.8991287e+00   1.1502267e+01   0.0000000e+00   0.0000000e+00   0.0000000e+00   0.0000000e+00
   5.3290164e+00   1.9011422e+00   3.6654068e+00   4.1272139e+01   8.8145817e+00  -3.2090401e+00   7.2005553e-01   1.2621384e+00   1.3485495e+01   2.1393474e+01   6.6433998e+00   4.6927380e+01   7.8303945e+00   1.6512333e+01  -2.3593745e+00  -6.2846289e-01   7.8610652e+00   1.0023722e+01   3.2391248e+00   1.0690433e+01   0.0000000e+00   0.0000000e+00   0.0000000e+00   0.0000000e+00
   5.2965994e+00   2.4457320e+00   3.7784932e+00   4.1609526e+01   8.9982985e+00  -3.0190753e+00   6.6302691e-01   1.5803966e+00   1.3468493e+01   2.0809956e+01   6.3520494e+00   4.6740459e+01   7.9092199e+00   1.5856249e+01  -2.9954763e+00  -6.1685287e-01   7.7850542e+00   1.0026513e+01   2.7787809e+00   1.0393772e+01   0.0000000e+00   0.0000000e+00   0.0000000e+00   0.0000000e+00
   5.4341686e+00   3.1384555e+00   3.9849007e+00   4.1974949e+01   9.3468487e+00  -2.2263965e+00   9.6398421e-01   2.2065432e+00   1.3784132e+01   2.0567595e+01   6.2259209e+00   4.6647636e+01   8.3023059e+00   1.5732265e+01  -3.0386380e+00  -4.0543753e-01   7.9588589e+00   9.9449561e+00   2.7443405e+00   1.0594227e+01   0.0000000e+00   0.0000000e+00   0.0000000e+00   0.0000000e+00
   5.8907956e+00   3.6879712e+00   3.9892642e+00   4.2311911e+01   9.7935173e+00  -1.0481164e+00   1.4472983e+00   2.7255985e+00   1.4323188e+01   2.0620276e+01   6.1455143e+00   4.6747543e+01   9.1405784e+00   1.6268313e+01  -2.5530715e+00  -1.8983033e-01   8.3925244e+00   9.8801250e+00   3.1446399e+00   1.1049931e+01   0.0000000e+00   0.0000000e+00   0.0000000e+00   0.0000000e+00
   6.7132104e+00   4.1256337e+00   3.6126109e+00   4.2605929e+01   1.0119152e+01  -5.7462408e-03   1.9104337e+00   2.9870842e+00   1.4946065e+01   2.1041935e+01   6.1910466e+00   4.6869128e+01   1.0256551e+01   1.7281830e+01  -1.7867184e+00  -3.6225561e-02   8.8966613e+00   1.0096072e+01   3.6849935e+00   1.1516461e+01   0.0000000e+00   0.0000000e+00   0.0000000e+00   0.0000000e+00
   7.6609748e+00   4.5396866e+00   2.9323761e+00   4.2862986e+01   1.0287201e+01   5.2663283e-01   2.2096025e+00   2.9435451e+00   1.5785710e+01   2.1772913e+01   6.2989482e+00   4.6919212e+01   1.1526640e+01   1.8423002e+01  -1.1953747e+00  -2.0214479e-01   9.4127689e+00   1.0357101e+01   3.9421316e+00   1.1638396e+01   0.0000000e+00   0.0000000e+00   0.0000000e+00   0.0000000e+00
   8.7840141e+00   4.9517489e+00   2.2083752e+00   4.3244551e+01   1.0657533e+01   7.7276149e-01   2.3721171e+00   2.6590186e+00   1.6963730e+01   2.2672560e+01   6.3573100e+00   4.7007741e+01   1.3064185e+01   1.9523129e+01  -1.1020143e+00  -7.2874117e-01   1.0181612e+01   1.0462163e+01   3.7845715e+00   1.1284934e+01   0.0000000e+00   0.0000000e+00   0.0000000e+00   0.0000000e+00
   1.0390796e+01   5.4014370e+00   1.6124517e+00   4.3925462e+01   1.1503201e+01   1.0787563e+00   2.5236096e+00   2.3011837e+00   1.8211227e+01   2.3593005e+01   6.3105472e+00   4.7193616e+01   1.4833175e+01   2.0498276e+01  -1.5372908e+00  -1.3467844e+00   1.1360305e+01   1.0741625e+01   3.4252287e+00   1.0644027e+01   0.0000000e+00   0.0000000e+00   0.0000000e+00   0.0000000e+00
   1.2279967e+01   6.0072102e+00   1.3134684e+00   4.4904229e+01   1.2751283e+01   1.5361156e+00   2.9405383e+00   2.1719642e+00   1.9123527e+01   2.4452575e+01   6.3212549e+00   4.7503410e+01   1.6691195e+01   2.1421365e+01  -2.1114176e+00  -1.6622134e+00   1.2950417e+01   1.1662495e+01   3.3619663e+00   1.0172194e+01   0.0000000e+00   0.0000000e+00   0.0000000e+00   0.0000000e+00
   1.3572901e+01   6.4402153e+00   1.0618822e+00   4.5611235e+01   1.3732124e+01   1.7680057e+00   3.4497185e+00   2.1012986e+00   1.9287354e+01   2.4873420e+01   6.3841186e+00   4.7586007e+01   1.8084067e+01   2.2045772e+01  -2.6939617e+00  -1.6643731e+00   1.4391631e+01   1.2730224e+01   3.6241322e+00   9.9637938e+00   0.0000000e+00   0.0000000e+00   0.0000000e+00   0.0000000e+00
   1.3783048e+01   6.2658160e+00   6.1341618e-01   4.5487455e+01   1.3846890e+01   1.4735843e+00   3.6580420e+00   1.9646843e+00   1.8543771e+01   2.4149992e+01   6.2296513e+00   4.7001400e+01   1.8514771e+01   2.2064527e+01  -3.5171114e+00  -1.6638246e+00   1.5081336e+01   1.3136072e+01   3.8654378e+00   9.8923229e+00   0.0000000e+00   0.0000000e+00   0.0000000e+00   0.0000000e+00
   1.3526375e+01   5.7694643e+00   3.8889723e-01   4.4801377e+01   1.3444705e+01   1.0116626e+00   3.8008776e+00   2.1943707e+00   1.7322759e+01   2.2356143e+01   5.9286969e+00   4.5815404e+01   1.8259803e+01   2.1849056e+01  -4.3393334e+00  -1.6067467e+00   1.5214735e+01   1.3147410e+01   4.0764896e+00   1.0198237e+01   0.0000000e+00   0.0000000e+00   0.0000000e+00   0.0000000e+00
   1.3362948e+01   5.5924226e+00   7.2144898e-01   4.3987839e+01   1.3095265e+01   7.9268998e-01   4.1705262e+00   2.8554342e+00   1.5980117e+01   2.0670012e+01   5.7961728e+00   4.4208552e+01   1.7552099e+01   2.1644104e+01  -4.8088294e+00  -1.2558100e+00   1.5135690e+01   1.3336836e+01   4.3065331e+00   1.0905572e+01   0.0000000e+00   0.0000000e+00   0.0000000e+00   0.0000000e+00
   1.3333457e+01   6.3066627e+00   1.5251822e+00   4.3143491e+01   1.2869250e+01   8.1141180e-01   4.6757667e+00   3.6315599e+00   1.4497132e+01   1.9628578e+01   6.0523545e+00   4.2379164e+01   1.6358850e+01   2.1292691e+01  -4.9039249e+00  -6.5048795e-01   1.4844783e+01   1.3497616e+01   4.6068957e+00   1.1728621e+01   0.0000000e+00   0.0000000e+00   0.0000000e+00   0.0000000e+00
   1.3413891e+01   7.5540526e+00   2.4525839e+00   4.2125553e+01   1.2451470e+01   6.7473138e-01   5.0304139e+00   4.2621258e+00   1.2951762e+01   1.8996102e+01   6.6206578e+00   4.0591340e+01   1.4797709e+01   2.0653798e+01  -4.7425967e+00  -9.9090586e-02   1.4119942e+01   1.3012288e+01   4.8471005e+00   1.2344035e+01   0.0000000e+00   0.0000000e+00   0.0000000e+00   0.0000000e+00
   1.3571956e+01   8.6365100e+00   3.0635828e+00   4.0796537e+01   1.1444563e+01   6.2776116e-02   4.9191612e+00   4.5340794e+00   1.1747742e+01   1.8612275e+01   7.1632054e+00   3.9017487e+01   1.3144680e+01   1.9762197e+01  -4.5736735e+00   1.0244455e-01   1.2829513e+01   1.1728208e+01   4.5692484e+00   1.2407053e+01   0.0000000e+00   0.0000000e+00   0.0000000e+00   0.0000000e+00
   1.3869008e+01   9.3334241e+00   3.1475039e+00   3.9325713e+01   9.9537008e+00  -8.1271928e-01   4.2856619e+00   4.3537826e+00   1.1253901e+01   1.8549170e+01   7.3668481e+00   3.7847020e+01   1.1786998e+01   1.8836924e+01  -4.7515241e+00  -1.6565103e-01   1.1292177e+01   1.0060547e+01   3.5736103e+00   1.1804645e+01   0.0000000e+00   0.0000000e+00   0.0000000e+00   0.0000000e+00
   1.4530209e+01   9.8673882e+00   2.9511940e+00   3.8412114e+01   8.8922166e+00  -1.2043511e+00   3.5966225e+00   4.1078490e+00   1.1658070e+01   1.9111248e+01   7.3017617e+00   3.7508130e+01   1.1326134e+01   1.8378957e+01  -5.1407104e+00  -5.8500737e-01   1.0394297e+01   8.7643142e+00   2.4156569e+00   1.0972137e+01   0.0000000e+00   0.0000000e+00   0.0000000e+00   0.0000000e+00
   1.5418354e+01   1.0483453e+01   2.7468564e+00   3.8363035e+01   8.8264082e+00  -8.6081540e-01   3.1221538e+00   4.1331885e+00   1.2782861e+01   2.0094604e+01   7.1725978e+00   3.7967300e+01   1.1831072e+01   1.8587889e+01  -5.3339710e+00  -8.8738445e-01   1.0530337e+01   8.2525410e+00   1.6146927e+00   1.0335303e+01   0.0000000e+00   0.0000000e+00   0.0000000e+00   0.0000000e+00
   1.6034675e+01   1.0975402e+01   2.6382145e+00   3.8565477e+01   9.3304261e+00  -2.8848139e-01   2.8250234e+00   4.3643700e+00   1.4011370e+01   2.0918594e+01   7.0780920e+00   3.8619080e+01   1.2654679e+01   1.9012375e+01  -5.2598208e+00  -1.1076016e+00   1.1196415e+01   8.4229710e+00   1.1347766e+00   1.0002786e+01   0.0000000e+00   0.0000000e+00   0.0000000e+00   0.0000000e+00
   1.6009186e+01   1.1014161e+01   2.7070648e+00   3.8446765e+01   9.7820042e+00   1.3660886e-01   2.8492619e+00   4.7601196e+00   1.4880313e+01   2.1217054e+01   7.0813124e+00   3.9061846e+01   1.3395775e+01   1.9296877e+01  -4.8908104e+00  -1.0925555e+00   1.1922645e+01   9.0889478e+00   9.0963871e-01   1.0087669e+01   0.0000000e+00   0.0000000e+00   0.0000000e+00   0.0000000e+00
   1.5194447e+01   1.0261206e+01   2.8689774e+00   3.7966050e+01   9.9003872e+00   1.2786115e-01   3.1851987e+00   5.2977792e+00   1.5534781e+01   2.1072746e+01   7.2709066e+00   3.9222385e+01   1.4053368e+01   1.9548033e+01  -4.1616188e+00  -7.1186276e-01   1.2583015e+01   9.8306413e+00   9.9555112e-01   1.0619244e+01   0.0000000e+00   0.0000000e+00   0.0000000e+00   0.0000000e+00
   1.3788883e+01   8.6423512e+00   3.0303548e+00   3.7376955e+01   9.6591775e+00  -4.5805393e-01   3.5254055e+00   5.9736131e+00   1.6280216e+01   2.0889392e+01   7.7873551e+00   3.9141467e+01   1.4657313e+01   2.0010594e+01  -3.2348733e+00  -1.1643737e-01   1.3126651e+01   1.0162767e+01   1.3760519e+00   1.1418808e+01   0.0000000e+00   0.0000000e+00   0.0000000e+00   0.0000000e+00
   1.2202775e+01   7.0110902e+00   3.1776702e+00   3.6922651e+01   9.2233562e+00  -1.1088473e+00   3.7645485e+00   6.8248938e+00   1.7119280e+01   2.1059698e+01   8.6839590e+00   3.8920321e+01   1.5309316e+01   2.0976071e+01  -2.2281266e+00   5.3170474e-01   1.3622573e+01   1.0302428e+01   2.1009698e+00   1.2311385e+01   0.0000000e+00   0.0000000e+00   0.0000000e+00   0.0000000e+00
   1.0839527e+01   6.1483682e+00   3.0961096e+00   3.6589258e+01   8.7813530e+00  -1.2755941e+00   3.9809502e+00   7.5712679e+00   1.7910319e+01   2.1503551e+01   9.5529750e+00   3.8646950e+01   1.6080006e+01   2.2399784e+01  -1.2566134e+00   9.7159958e-01   1.4152281e+01   1.0786913e+01   2.9941203e+00   1.3033829e+01   0.0000000e+00   0.0000000e+00   0.0000000e+00   0.0000000e+00
   9.8824974e+00   5.9420309e+00   2.6500837e+00   3.6265780e+01   8.3754932e+00  -1.0137712e+00   4.0905317e+00   7.8612527e+00   1.8752727e+01   2.1732711e+01   1.0059177e+01   3.8426711e+01   1.6876445e+01   2.3963623e+01  -5.5546329e-01   9.7033452e-01   1.4603579e+01   1.1548389e+01   3.5912629e+00   1.3281178e+01   0.0000000e+00   0.0000000e+00   0.0000000e+00   0.0000000e+00
   9.3788962e+00   6.2038637e+00   1.9265890e+00   3.6090014e+01   8.0451540e+00  -5.9268345e-01   3.9114644e+00   7.5316188e+00   1.9875641e+01   2.1984447e+01   1.0386096e+01   3.8510043e+01   1.7556710e+01   2.5519347e+01  -9.5679653e-02   6.5097435e-01   1.4883970e+01   1.2230508e+01   3.8049956e+00   1.2970079e+01   0.0000000e+00   0.0000000e+00   0.0000000e+00   0.0000000e+00
   9.1800856e+00   6.7096493e+00   8.7258254e-01   3.6106490e+01   7.7621159e+00  -2.0848398e-01   3.3457837e+00   6.4929631e+00   2.1158484e+01   2.2854483e+01   1.0560565e+01   3.8807556e+01   1.7875878e+01   2.6934273e+01   1.0643937e-01   1.2143128e-01   1.4915471e+01   1.2826138e+01   3.8499014e+00   1.2086690e+01   0.0000000e+00   0.0000000e+00   0.0000000e+00   0.0000000e+00
   9.1515949e+00   7.1822541e+00  -3.8172184e-01   3.6157706e+01   7.5112094e+00   1.6321813e-01   2.5833431e+00   4.9747255e+00   2.2204157e+01   2.3871616e+01   1.0353021e+01   3.8846432e+01   1.7657071e+01   2.8044007e+01  -2.4437794e-02  -5.9247652e-01   1.4755813e+01   1.3638687e+01   3.8950090e+00   1.0806481e+01   0.0000000e+00   0.0000000e+00   0.0000000e+00   0.0000000e+00
   9.3875562e+00   7.5625241e+00  -1.1844728e+00   3.6158375e+01   7.4140608e+00   6.7175189e-01   1.9879618e+00   3.6259214e+00   2.2778541e+01   2.4555844e+01   9.8920397e+00   3.8502913e+01   1.7075212e+01   2.8743926e+01  -3.1095607e-01  -1.1924360e+00   1.4578015e+01   1.4676540e+01   3.9294322e+00   9.7812289e+00   0.0000000e+00   0.0000000e+00   0.0000000e+00   0.0000000e+00
   9.7852285e+00   7.9720249e+00  -1.0893876e+00   3.5996715e+01   7.3432802e+00   1.0085594e+00   1.7261855e+00   2.9574903e+00   2.2791673e+01   2.4751837e+01   9.4771437e+00   3.7860164e+01   1.6339860e+01   2.8850524e+01  -7.5055531e-01  -1.5150330e+00   1.4213790e+01   1.5411220e+01   3.6929639e+00   9.4408289e+00   0.0000000e+00   0.0000000e+00   0.0000000e+00   0.0000000e+00
   9.9330595e+00   7.9607488e+00  -3.2135678e-01   3.5434573e+01   6.9134100e+00   7.8223570e-01   1.7650454e+00   3.0818479e+00   2.2163070e+01   2.4317058e+01   9.1733793e+00   3.6821012e+01   1.5426259e+01   2.8209161e+01  -1.5046994e+00  -1.6248182e+00   1.3352117e+01   1.5572682e+01   3.0704186e+00   9.6026968e+00   0.0000000e+00   0.0000000e+00   0.0000000e+00   0.0000000e+00
   9.7255761e+00   7.4655684e+00   8.4006420e-01   3.4531958e+01   6.1127461e+00   1.1489063e-01   2.1593759e+00   3.9569109e+00   2.1224772e+01   2.3574793e+01   9.0189441e+00   3.5647161e+01   1.4440055e+01   2.7189629e+01  -2.4866029e+00  -1.4173378e+00   1.2160102e+01   1.5471727e+01   2.4026493e+00   1.0073595e+01   0.0000000e+00   0.0000000e+00   0.0000000e+00   0.0000000e+00
   9.1063202e+00   6.9078521e+00   1.8112538e+00   3.3456936e+01   4.9907014e+00  -9.9312500e-01   2.5380173e+00   4.8822552e+00   2.0236229e+01   2.2657500e+01   8.8385866e+00   3.4625596e+01   1.3443300e+01   2.6124504e+01  -3.6553657e+00  -1.2690294e+00   1.0906568e+01   1.4938555e+01   1.6991388e+00   1.0419017e+01   0.0000000e+00   0.0000000e+00   0.0000000e+00   0.0000000e+00
   8.2500945e+00   6.2146729e+00   2.1103557e+00   3.2748443e+01   3.9089648e+00  -2.2356996e+00   2.6303170e+00   5.2654729e+00   1.9610088e+01   2.1894693e+01   8.6465159e+00   3.4211717e+01   1.2861416e+01   2.5374564e+01  -4.6443789e+00  -1.5790765e+00   1.0131543e+01   1.3905812e+01   1.0509282e+00   1.0394020e+01   0.0000000e+00   0.0000000e+00   0.0000000e+00   0.0000000e+00
   7.8099741e+00   5.4873453e+00   1.9180458e+00   3.3015439e+01   3.4791973e+00  -2.8397538e+00   2.7134786e+00   5.2565982e+00   1.9894639e+01   2.2021823e+01   8.6294006e+00   3.4884514e+01   1.3291861e+01   2.5400427e+01  -4.9147733e+00  -2.1923011e+00   1.0394985e+01   1.3227404e+01   9.9249948e-01   1.0203673e+01   0.0000000e+00   0.0000000e+00   0.0000000e+00   0.0000000e+00
   7.8394150e+00   4.9386797e+00   1.4940284e+00   3.3931650e+01   3.6850597e+00  -2.6251586e+00   2.9067476e+00   4.9825641e+00   2.0832691e+01   2.2909176e+01   8.6844429e+00   3.6236816e+01   1.4471820e+01   2.6105598e+01  -4.4399836e+00  -2.8746794e+00   1.1383889e+01   1.3464020e+01   1.5843770e+00   9.9244192e+00   0.0000000e+00   0.0000000e+00   0.0000000e+00   0.0000000e+00
   8.0312030e+00   4.5624161e+00   9.7723842e-01   3.4910938e+01   4.2585946e+00  -1.9196689e+00   3.1565610e+00   4.4415548e+00   2.1946165e+01   2.3465943e+01   8.6068429e+00   3.7587146e+01   1.5789418e+01   2.7026050e+01  -3.5212750e+00  -3.5129697e+00   1.2496988e+01   1.4257321e+01   2.3539274e+00   9.5191084e+00   0.0000000e+00   0.0000000e+00   0.0000000e+00   0.0000000e+00
   8.2093885e+00   4.2895042e+00   3.2923670e-01   3.5654211e+01   4.9024206e+00  -1.1209270e+00   3.2497058e+00   3.5555446e+00   2.2963072e+01   2.3433489e+01   8.3282418e+00   3.8505142e+01   1.6826194e+01   2.7728374e+01  -2.6908172e+00  -4.2597539e+00   1.3357582e+01   1.4984628e+01   2.6372197e+00   8.8063159e+00   0.0000000e+00   0.0000000e+00   0.0000000e+00   0.0000000e+00
   8.2804998e+00   4.1983749e+00  -3.4592659e-01   3.6017386e+01   5.4277603e+00  -4.6068839e-01   3.0404225e+00   2.4105384e+00   2.3681714e+01   2.3465703e+01   8.0278440e+00   3.8739910e+01   1.7389425e+01   2.8064872e+01  -2.3091173e+00  -5.1456836e+00   1.3837744e+01   1.5591111e+01   2.1956510e+00   7.7505336e+00   0.0000000e+00   0.0000000e+00   0.0000000e+00   0.0000000e+00
   8.2323652e+00   4.5087531e+00  -4.9674141e-01   3.6012646e+01   5.9302488e+00   7.4303023e-02   2.8256417e+00   1.5543942e+00   2.4110921e+01   2.3755180e+01   8.0127572e+00   3.8384483e+01   1.7530814e+01   2.8244530e+01  -2.1847167e+00  -5.6722093e+00   1.4079658e+01   1.6454350e+01   1.4418828e+00   6.8666126e+00   0.0000000e+00   0.0000000e+00   0.0000000e+00   0.0000000e+00
   7.9981854e+00   4.9460986e+00  -1.2919852e-01   3.5549434e+01   6.3156097e+00   2.9441476e-01   2.6975450e+00   1.0980683e+00   2.4078039e+01   2.3904740e+01   8.1441291e+00   3.7632294e+01   1.7266794e+01   2.8122889e+01  -2.3019769e+00  -5.7861645e+00   1.3993537e+01   1.7283070e+01   5.1007838e-01   6.2963281e+00   0.0000000e+00   0.0000000e+00   0.0000000e+00   0.0000000e+00
   7.9912268e+00   5.5152529e+00   3.4974686e-01   3.4946797e+01   6.6989400e+00   2.7672708e-01   2.6420351e+00   8.8918050e-01   2.3569818e+01   2.3635600e+01   8.1032586e+00   3.6916379e+01   1.7017904e+01   2.7550326e+01  -2.7990632e+00  -5.8431207e+00   1.3807117e+01   1.7688420e+01  -6.0223703e-01   5.7845275e+00   0.0000000e+00   0.0000000e+00   0.0000000e+00   0.0000000e+00
   8.6336365e+00   6.6748792e+00   9.1761555e-01   3.4804232e+01   7.4474915e+00   4.5054254e-01   2.9205318e+00   1.0246677e+00   2.2908612e+01   2.3034634e+01   7.8271354e+00   3.6628701e+01   1.7286198e+01   2.6876649e+01  -3.5003943e+00  -5.7548418e+00   1.4068218e+01   1.7989100e+01  -1.5944140e+00   5.4575626e+00   0.0000000e+00   0.0000000e+00   0.0000000e+00   0.0000000e+00
   9.3572985e+00   8.0469271e+00   1.3955683e+00   3.4975639e+01   8.3474961e+00   6.7513947e-01   3.4116411e+00   1.2047435e+00   2.2028960e+01   2.2103166e+01   7.2319342e+00   3.6473695e+01   1.7772764e+01   2.6131842e+01  -4.4637598e+00  -5.6198644e+00   1.4593521e+01   1.8223713e+01  -2.5531549e+00   5.2273483e+00   0.0000000e+00   0.0000000e+00   0.0000000e+00   0.0000000e+00
   9.2987486e+00   8.7800686e+00   1.3843346e+00   3.4877754e+01   8.8598665e+00   4.4353778e-01   3.6136304e+00   9.3314998e-01   2.0775302e+01   2.0841478e+01   6.2494322e+00   3.6032918e+01   1.7915979e+01   2.4959991e+01  -5.9995302e+00  -5.8334512e+00   1.4840187e+01   1.7798405e+01  -3.8643977e+00   4.6940057e+00   0.0000000e+00   0.0000000e+00   0.0000000e+00   0.0000000e+00
   8.5030620e+00   8.6175865e+00   1.0325291e+00   3.4465821e+01   8.9518622e+00  -2.9960845e-01   3.2482078e+00   3.2445475e-01   1.9596411e+01   1.9690910e+01   5.0969959e+00   3.5584319e+01   1.7749112e+01   2.3468690e+01  -7.8634585e+00  -6.2490345e+00   1.4784365e+01   1.6552953e+01  -5.3643481e+00   3.9107930e+00   0.0000000e+00   0.0000000e+00   0.0000000e+00   0.0000000e+00
   7.4053819e+00   7.8254192e+00   8.3344146e-01   3.3869003e+01   8.8120912e+00  -1.2679110e+00   2.4831429e+00  -4.7617539e-02   1.9001508e+01   1.9184283e+01   4.2510858e+00   3.5404771e+01   1.7591874e+01   2.2258948e+01  -9.4065019e+00  -6.4167586e+00   1.4676876e+01   1.5145323e+01  -6.5357886e+00   3.2518913e+00   0.0000000e+00   0.0000000e+00   0.0000000e+00   0.0000000e+00
   5.9550892e+00   6.6108530e+00   7.2084198e-01   3.2860897e+01   8.2148894e+00  -2.3861255e+00   1.5431032e+00  -8.0885699e-02   1.8821242e+01   1.9339591e+01   3.8779175e+00   3.4967745e+01   1.7373264e+01   2.1514893e+01  -1.0458947e+01  -6.3588714e+00   1.4395707e+01   1.4043256e+01  -7.3036501e+00   2.7273837e+00   0.0000000e+00   0.0000000e+00   0.0000000e+00   0.0000000e+00
   4.4003730e+00   5.2738440e+00   2.3316520e-01   3.1683626e+01   7.0427493e+00  -3.7168420e+00   4.1000917e-01  -2.4004310e-01   1.8933544e+01   1.9962902e+01   3.8546068e+00   3.4203956e+01   1.6965343e+01   2.0950461e+01  -1.1260435e+01  -6.3594476e+00   1.3763498e+01   1.3001672e+01  -8.0271891e+00   2.1184865e+00   0.0000000e+00   0.0000000e+00   0.0000000e+00   0.0000000e+00
   3.2337754e+00   4.0156745e+00  -9.2801669e-01   3.0844762e+01   5.6813842e+00  -5.1664759e+00  -9.5568339e-01  -1.0868093e+00   1.9377875e+01   2.0887704e+01   4.0818151e+00   3.3616258e+01   1.6485964e+01   2.0349695e+01  -1.2019131e+01  -6.8984474e+00   1.2880616e+01   1.1648402e+01  -8.9909890e+00   1.1702649e+00   0.0000000e+00   0.0000000e+00   0.0000000e+00   0.0000000e+00
   2.9869424e+00   3.1658954e+00  -2.5218376e+00   3.0779737e+01   4.8871317e+00  -6.1404833e+00  -2.1951451e+00  -2.5607614e+00   2.0334874e+01   2.2072718e+01   4.4511069e+00   3.3675609e+01   1.6391657e+01   2.0067651e+01  -1.2455633e+01  -8.0857581e+00   1.2259738e+01   1.0492284e+01  -9.8515609e+00  -6.7861100e-02   0.0000000e+00   0.0000000e+00   0.0000000e+00   0.0000000e+00
   4.0805689e+00   3.1947956e+00  -4.0549524e+00   3.1740790e+01   5.2562296e+00  -6.0063587e+00  -2.9061594e+00  -4.2052268e+00   2.2017807e+01   2.3468516e+01   4.4968166e+00   3.4573594e+01   1.7006923e+01   2.0474571e+01  -1.2325512e+01  -9.7142336e+00   1.2402491e+01   1.0327821e+01  -1.0215746e+01  -1.3461520e+00   0.0000000e+00   0.0000000e+00   0.0000000e+00   0.0000000e+00
   6.1149028e+00   3.9947405e+00  -5.4281324e+00   3.3247166e+01   6.4469672e+00  -5.0090196e+00  -3.1813595e+00  -5.8854857e+00   2.3826957e+01   2.4535786e+01   3.7515510e+00   3.5619145e+01   1.7891611e+01   2.1138594e+01  -1.2080299e+01  -1.1761287e+01   1.3012225e+01   1.0778743e+01  -1.0387882e+01  -2.6348534e+00   0.0000000e+00   0.0000000e+00   0.0000000e+00   0.0000000e+00
   8.2027882e+00   5.0912640e+00  -6.4685386e+00   3.4295339e+01   7.6341213e+00  -3.9829649e+00  -3.2200690e+00  -7.1893927e+00   2.4736454e+01   2.4537360e+01   2.4681731e+00   3.5805423e+01   1.8301337e+01   2.1354064e+01  -1.2200554e+01  -1.3541836e+01   1.3333174e+01   1.0835316e+01  -1.0757855e+01  -3.6287720e+00   0.0000000e+00   0.0000000e+00   0.0000000e+00   0.0000000e+00
   9.6072373e+00   5.8315866e+00  -6.8833665e+00   3.4103226e+01   8.3210932e+00  -3.4586151e+00  -3.1154682e+00  -7.5065080e+00   2.4187693e+01   2.3218935e+01   1.3494510e+00   3.4585551e+01   1.7867451e+01   2.0825312e+01  -1.2756378e+01  -1.4060176e+01   1.2921617e+01   1.0247869e+01  -1.1271908e+01  -3.9013257e+00   0.0000000e+00   0.0000000e+00   0.0000000e+00   0.0000000e+00
   1.0222557e+01   5.8967005e+00  -6.7058626e+00   3.2933487e+01   8.5587170e+00  -3.3352771e+00  -2.8520160e+00  -6.8029504e+00   2.2732762e+01   2.1372599e+01   1.0016625e+00   3.2513971e+01   1.7026407e+01   1.9941912e+01  -1.3271982e+01  -1.3008980e+01   1.2083050e+01   9.6474093e+00  -1.1450868e+01  -3.3602936e+00   0.0000000e+00   0.0000000e+00   0.0000000e+00   0.0000000e+00
   1.0377198e+01   5.7927663e+00  -6.1677746e+00   3.1529646e+01   8.5613213e+00  -3.3279053e+00  -2.3720366e+00  -5.4762688e+00   2.1419976e+01   1.9969228e+01   1.5293245e+00   3.0602705e+01   1.6533990e+01   1.9367298e+01  -1.3137767e+01  -1.1002452e+01   1.1316726e+01   9.4025873e+00  -1.0905063e+01  -2.1607769e+00   0.0000000e+00   0.0000000e+00   0.0000000e+00   0.0000000e+00
   1.0080158e+01   5.6474118e+00  -5.6870663e+00   2.9871099e+01   7.9435949e+00  -3.6062436e+00  -1.8540939e+00  -4.0997661e+00   2.0370784e+01   1.8915750e+01   2.4197486e+00   2.8764327e+01   1.6261483e+01   1.9082806e+01  -1.2429666e+01  -9.0826973e+00   1.0383219e+01   9.0468662e+00  -9.9937517e+00  -7.4976835e-01   0.0000000e+00   0.0000000e+00   0.0000000e+00   0.0000000e+00
   9.2315533e+00   5.1635987e+00  -5.4458398e+00   2.7700631e+01   6.3513659e+00  -4.4504877e+00  -1.4040746e+00  -2.9706136e+00   1.9218755e+01   1.7903195e+01   3.2242263e+00   2.6538223e+01   1.5637693e+01   1.8719062e+01  -1.1576262e+01  -7.6132966e+00   8.8855692e+00   8.3133053e+00  -9.2212778e+00   5.3647332e-01   0.0000000e+00   0.0000000e+00   0.0000000e+00   0.0000000e+00
   7.9902413e+00   4.4090662e+00  -5.2809086e+00   2.5443000e+01   4.2834127e+00  -5.6751343e+00  -9.4862721e-01  -2.0307261e+00   1.7940424e+01   1.7119691e+01   3.9759272e+00   2.4217897e+01   1.4538901e+01   1.8306125e+01  -1.0828682e+01  -6.3766659e+00   7.0569586e+00   7.6022169e+00  -8.6190974e+00   1.6752027e+00   0.0000000e+00   0.0000000e+00   0.0000000e+00   0.0000000e+00
   6.5418337e+00   3.5136912e+00  -5.2227786e+00   2.3552486e+01   2.3029520e+00  -7.1136775e+00  -7.2799448e-01  -1.3813998e+00   1.6656746e+01   1.6619602e+01   4.7287178e+00   2.2191357e+01   1.2996472e+01   1.7830320e+01  -1.0510636e+01  -5.3573154e+00   5.2191565e+00   6.9282742e+00  -8.3840269e+00   2.5324750e+00   0.0000000e+00   0.0000000e+00   0.0000000e+00   0.0000000e+00
   5.3404786e+00   2.7344969e+00  -5.3580835e+00   2.2137490e+01   8.2130145e-01  -8.5195205e+00  -8.2843596e-01  -1.0014516e+00   1.5707721e+01   1.6484132e+01   5.4298255e+00   2.0760895e+01   1.1530394e+01   1.7371453e+01  -1.0692998e+01  -4.5455456e+00   3.7518125e+00   6.1342970e+00  -8.6390415e+00   3.0529708e+00   0.0000000e+00   0.0000000e+00   0.0000000e+00   0.0000000e+00
   4.8090804e+00   2.3231770e+00  -5.6980188e+00   2.1261185e+01   2.0516755e-01  -9.4282919e+00  -1.0357230e+00  -8.0051349e-01   1.5297577e+01   1.6955125e+01   6.0495016e+00   2.0112747e+01   1.0814773e+01   1.7225796e+01  -1.1100062e+01  -3.9809760e+00   3.0361179e+00   5.6420146e+00  -9.1168198e+00   3.1839739e+00   0.0000000e+00   0.0000000e+00   0.0000000e+00   0.0000000e+00
   4.6235449e+00   1.9109971e+00  -6.4156669e+00   2.0568014e+01   8.9201127e-02  -9.9544152e+00  -1.5187838e+00  -1.1627190e+00   1.4971684e+01   1.7849319e+01   6.3720068e+00   1.9867426e+01   1.0569100e+01   1.7170147e+01  -1.1850799e+01  -4.0890834e+00   2.6834324e+00   5.5417451e+00  -9.8739634e+00   2.5337539e+00   0.0000000e+00   0.0000000e+00   0.0000000e+00   0.0000000e+00
   4.3350341e+00   1.0530603e+00  -7.5077464e+00   1.9663752e+01  -1.4519792e-01  -1.0601004e+01  -2.4429076e+00  -2.3311131e+00   1.4337507e+01   1.8753913e+01   6.3946906e+00   1.9513077e+01   1.0304067e+01   1.6905081e+01  -1.3015214e+01  -5.0467590e+00   2.1452372e+00   5.2421856e+00  -1.0994222e+01   1.0706933e+00   0.0000000e+00   0.0000000e+00   0.0000000e+00   0.0000000e+00
   4.0351393e+00   2.1958422e-02  -8.3526254e+00   1.8737618e+01  -5.6490610e-01  -1.1366995e+01  -3.3154874e+00  -3.5450718e+00   1.3620291e+01   1.9238210e+01   6.4929277e+00   1.8966712e+01   1.0147108e+01   1.6665315e+01  -1.4112603e+01  -6.0473768e+00   1.4201585e+00   4.4365317e+00  -1.1986914e+01  -3.4068979e-01   0.0000000e+00   0.0000000e+00   0.0000000e+00   0.0000000e+00
   3.9938483e+00  -5.0153770e-01  -8.2988255e+00   1.8031634e+01  -8.1921065e-01  -1.1611360e+01  -3.3454728e+00  -3.7696074e+00   1.3028293e+01   1.8784166e+01   6.8470286e+00   1.8326162e+01   1.0305673e+01   1.6870214e+01  -1.4536571e+01  -6.2776991e+00   7.4924109e-01   3.7141437e+00  -1.2197605e+01  -8.1555720e-01   0.0000000e+00   0.0000000e+00   0.0000000e+00   0.0000000e+00
   4.2976032e+00  -1.9916934e-01  -7.4882207e+00   1.7384951e+01  -6.8887692e-01  -1.1056409e+01  -2.4429904e+00  -2.9651095e+00   1.2346596e+01   1.7591709e+01   7.0714601e+00   1.7504119e+01   1.0464044e+01   1.7464250e+01  -1.4248903e+01  -5.8396312e+00   1.4071487e-01   3.6974958e+00  -1.1632313e+01  -3.5067086e-01   0.0000000e+00   0.0000000e+00   0.0000000e+00   0.0000000e+00
   4.9942508e+00   5.1597767e-01  -6.2308867e+00   1.6610660e+01  -1.6940672e-01  -9.9467664e+00  -1.0207721e+00  -1.6335790e+00   1.1485764e+01   1.6329454e+01   6.8420683e+00   1.6493602e+01   1.0330337e+01   1.8036981e+01  -1.3639818e+01  -4.9884496e+00  -4.6670430e-01   4.1625735e+00  -1.0699459e+01   7.1957811e-01   1.0000000e+03   0.0000000e+00   0.0000000e+00   0.0000000e+00
   5.9632530e+00   1.1645669e+00  -4.7540585e+00   1.5739812e+01   5.6890717e-01  -8.7392434e+00   3.6210323e-01  -3.2321419e-01   1.0593193e+01   1.5056469e+01   6.3042778e+00   1.5486494e+01   1.0010187e+01   1.8281952e+01  -1.3123871e+01  -3.9960130e+00  -9.6735125e-01   4.4486551e+00  -9.8352110e+00   2.0354665e+00   1.0000000e+03   0.0000000e+00   0.0000000e+00   0.0000000e+00
   6.8167080e+00   1.6194692e+00  -3.3978919e+00   1.4732374e+01   1.0399254e+00  -7.9466373e+00   1.1771839e+00   5.1267897e-01   9.8426802e+00   1.3839050e+01   5.7375014e+00   1.4616720e+01   9.5236518e+00   1.8237040e+01  -1.2941712e+01  -3.2183759e+00  -1.5599003e+00   4.3263814e+00  -9.3513532e+00   3.2160566e+00   1.0000000e+03   3.0000000e+01   0.0000000e+00   0.0000000e+00
   7.2285600e+00   1.7706704e+00  -2.4746844e+00   1.3383818e+01   6.9888227e-01  -7.8611755e+00   1.3296169e+00   6.6977379e-01   9.1990438e+00   1.2855884e+01   5.2812754e+00   1.3726693e+01   8.6622739e+00   1.8049899e+01  -1.3201777e+01  -2.9251943e+00  -2.6133862e+00   3.9231984e+00  -9.3723858e+00   3.9481827e+00   1.0000000e+03   3.0000000e+01   0.0000000e+00   0.0000000e+00
   7.2209674e+00   1.6574438e+00  -2.0130097e+00   1.1693399e+01  -5.4436168e-01  -8.4626757e+00   1.1670308e+00   2.5284935e-01   8.4850983e+00   1.2021738e+01   4.9147874e+00   1.2564900e+01   7.4113473e+00   1.7680907e+01  -1.3960527e+01  -3.2013776e+00  -4.1249338e+00   3.1181172e+00  -1.0015304e+01   4.0121983e+00   1.0000000e+03   3.0000000e+01   0.0000000e+00   0.0000000e+00
   7.0330224e+00   1.4504913e+00  -1.6760416e+00   9.9865613e+00  -2.1865429e+00  -9.4070750e+00   1.0975640e+00  -3.2122782e-01   7.7004830e+00   1.1340995e+01   4.7209914e+00   1.1220622e+01   6.0898268e+00   1.7152640e+01  -1.4977674e+01  -3.9331766e+00  -5.7529127e+00   1.8309125e+00  -1.1244419e+01   3.4549835e+00   0.0000000e+00   3.0000000e+01   0.0000000e+00   0.0000000e+00
   6.8867658e+00   1.1884650e+00  -1.5051837e+00   8.5670010e+00  -3.5545819e+00  -1.0383974e+01   9.6486111e-01  -9.5009328e-01   7.0305197e+00   1.0830269e+01   4.7556217e+00   1.0066186e+01   5.0089792e+00   1.6535833e+01  -1.6122110e+01  -4.9941683e+00  -7.0644227e+00   4.8216207e-01  -1.2962249e+01   2.3468767e+00   0.0000000e+00   3.0000000e+01   0.0000000e+00   0.0000000e+00
   6.8707973e+00   8.7912556e-01  -1.8617868e+00   7.6451089e+00  -4.3090642e+00  -1.1253475e+01   3.6241074e-01  -1.7642179e+00   6.7790919e+00   1.0456682e+01   4.9098475e+00   9.5219789e+00   4.4397534e+00   1.5902100e+01  -1.7461297e+01  -6.0360987e+00  -7.6968021e+00  -4.2910216e-01  -1.4931661e+01   8.9884584e-01   0.0000000e+00   3.0000000e+01   0.0000000e+00   0.0000000e+00
   6.9158469e+00   4.5931577e-01  -2.7658389e+00   7.2654960e+00  -4.5691045e+00  -1.1912740e+01  -6.4013661e-01  -2.6617005e+00   6.9896134e+00   1.0344034e+01   5.0274382e+00   9.7468163e+00   4.5802379e+00   1.5403455e+01  -1.8832059e+01  -6.7525172e+00  -7.5914234e+00  -9.1873763e-01  -1.6634019e+01  -4.4931726e-01   0.0000000e+00   3.0000000e+01   0.0000000e+00   0.0000000e+00
   7.0599132e+00   3.4217200e-02  -3.8733841e+00   7.3647291e+00  -4.3690939e+00  -1.2151362e+01  -1.5086106e+00  -3.4098185e+00   7.5555516e+00   1.0580507e+01   5.0793870e+00   1.0606680e+01   5.4080847e+00   1.5361190e+01  -1.9773895e+01  -7.0929908e+00  -6.9161020e+00  -1.1454260e+00  -1.7523199e+01  -1.3361932e+00   0.0000000e+00   3.0000000e+01   0.0000000e+00   0.0000000e+00
   7.3039161e+00  -2.1751679e-01  -4.9248430e+00   7.7536507e+00  -3.7136484e+00  -1.1884648e+01  -1.8749577e+00  -3.8870345e+00   8.3961360e+00   1.1050208e+01   5.0771192e+00   1.1831916e+01   6.7089157e+00   1.5977357e+01  -1.9969435e+01  -7.1426240e+00  -5.9006299e+00  -9.2841345e-01  -1.7424927e+01  -1.7243985e+00   0.0000000e+00   3.0000000e+01   0.0000000e+00   0.0000000e+00
   7.4282916e+00  -4.2325198e-01  -5.8472379e+00   8.0851849e+00  -2.9830579e+00  -1.1405307e+01  -1.8067832e+00  -4.1190085e+00   9.2716566e+00   1.1566275e+01   5.1215274e+00   1.3027512e+01   8.1611590e+00   1.7080392e+01  -1.9492845e+01  -6.9977177e+00  -4.8798252e+00  -9.4989205e-02  -1.6615095e+01  -1.7270933e+00   0.0000000e+00   3.0000000e+01   0.0000000e+00   0.0000000e+00
   7.4554891e+00  -5.7489351e-01  -6.3340542e+00   8.5291083e+00  -2.3294939e+00  -1.0831548e+01  -1.2329736e+00  -3.8750314e+00   1.0161443e+01   1.2217089e+01   5.4682400e+00   1.4124622e+01   9.6372365e+00   1.8624197e+01  -1.8237529e+01  -6.4596374e+00  -3.8129562e+00   1.2433456e+00  -1.5247928e+01  -1.1042319e+00   0.0000000e+00   3.0000000e+01   0.0000000e+00   0.0000000e+00
   7.4478828e+00  -7.1725351e-01  -6.1841418e+00   9.2637137e+00  -1.7008370e+00  -1.0128318e+01  -1.4504263e-01  -3.0630387e+00   1.1074184e+01   1.3078820e+01   6.1175339e+00   1.5185068e+01   1.0918149e+01   2.0445035e+01  -1.6349642e+01  -5.4778644e+00  -2.6497032e+00   2.6678649e+00  -1.3509447e+01   1.8644126e-01   0.0000000e+00   3.0000000e+01   0.0000000e+00   0.0000000e+00
   7.3253052e+00  -7.7043696e-01  -5.6798851e+00   9.9064811e+00  -1.1770661e+00  -9.4471736e+00   1.0287673e+00  -2.1941090e+00   1.1620006e+01   1.3601735e+01   6.6210322e+00   1.5940331e+01   1.1599987e+01   2.1855865e+01  -1.4621581e+01  -4.4682912e+00  -1.7421947e+00   3.8445180e+00  -1.1948583e+01   1.5714904e+00   0.0000000e+00   3.0000000e+01   0.0000000e+00   0.0000000e+00
   7.2571924e+00  -1.6571534e-01  -5.0644764e+00   1.0289508e+01  -6.7262164e-01  -8.8978133e+00   1.8364259e+00  -1.6968621e+00   1.1620376e+01   1.3175283e+01   6.5732903e+00   1.6147301e+01   1.1704649e+01   2.2372261e+01  -1.3577353e+01  -3.7647433e+00  -1.1837933e+00   4.7765425e+00  -1.0907743e+01   2.5971338e+00   0.0000000e+00   3.0000000e+01   0.0000000e+00   0.0000000e+00
   7.2651304e+00   1.0065505e+00  -4.4428258e+00   1.0453689e+01  -2.2075630e-01  -8.5657327e+00   1.9611142e+00  -1.7274527e+00   1.1203267e+01   1.2278295e+01   5.9825740e+00   1.5785606e+01   1.1400095e+01   2.1981404e+01  -1.3323833e+01  -3.5822986e+00  -9.1398399e-01   5.1715418e+00  -1.0457727e+01   3.1198162e+00   0.0000000e+00   3.0000000e+01   0.0000000e+00   0.0000000e+00
   7.2210898e+00   2.0863975e+00  -3.9608302e+00   1.0362142e+01  -2.1405765e-02  -8.5519748e+00   1.2744514e+00  -2.3357734e+00   1.0559594e+01   1.1392008e+01   4.9270457e+00   1.5067729e+01   1.0702293e+01   2.0881803e+01  -1.3821075e+01  -4.0134305e+00  -9.6605023e-01   4.6402750e+00  -1.0701063e+01   3.0458669e+00   0.0000000e+00   3.0000000e+01   0.0000000e+00   0.0000000e+00
   7.2886566e+00   2.7872137e+00  -3.7601577e+00   1.0212982e+01   1.0956146e-01  -8.6918152e+00   1.0911524e-01  -3.2531671e+00   1.0105767e+01   1.0604749e+01   3.5690814e+00   1.4523571e+01   9.8943430e+00   1.9534994e+01  -1.4773048e+01  -4.7721707e+00  -1.1509764e+00   3.6479727e+00  -1.1505898e+01   2.4741299e+00   0.0000000e+00   3.0000000e+01   0.0000000e+00   0.0000000e+00
   7.5661408e+00   3.1127923e+00  -3.8826185e+00   1.0228662e+01   4.3569447e-01  -8.8059009e+00  -1.0862773e+00  -4.0682044e+00   1.0049029e+01   1.0146980e+01   2.2980114e+00   1.4588483e+01   9.3981515e+00   1.8342155e+01  -1.5699491e+01  -5.5257857e+00  -1.2028621e+00   3.0162581e+00  -1.2515902e+01   1.6973477e+00   0.0000000e+00   3.0000000e+01   0.0000000e+00   0.0000000e+00
   7.9582333e+00   3.2244893e+00  -4.1076503e+00   1.0289302e+01   9.3339990e-01  -8.8868736e+00  -2.0738652e+00  -4.5152876e+00   1.0197915e+01   9.9013024e+00   1.4031852e+00   1.5269708e+01   9.3249251e+00   1.7459748e+01  -1.6218500e+01  -5.8950113e+00  -1.0378109e+00   2.9034171e+00  -1.3444947e+01   1.1242188e+00   0.0000000e+00   3.0000000e+01   0.0000000e+00   0.0000000e+00
   8.4408384e+00   3.3208327e+00  -3.9635200e+00   1.0400418e+01   1.7874353e+00  -8.6346427e+00  -2.5718633e+00  -4.4310456e+00   1.0483836e+01   9.8645026e+00   1.0997466e+00   1.6524669e+01   9.7239426e+00   1.7133081e+01  -1.6000864e+01  -5.5560810e+00  -4.4607461e-01   3.1784136e+00  -1.4000702e+01   1.1993226e+00   0.0000000e+00   3.0000000e+01   0.0000000e+00   0.0000000e+00
   8.8952329e+00   3.2926439e+00  -3.2950655e+00   1.0632707e+01   3.0193522e+00  -7.9674791e+00  -2.6205206e+00  -3.9300528e+00   1.0869628e+01   9.9757115e+00   1.3114303e+00   1.7992178e+01   1.0488798e+01   1.7373027e+01  -1.5100630e+01  -4.7238982e+00   6.1951735e-01   3.8692216e+00  -1.4076821e+01   1.9151807e+00   0.0000000e+00   3.0000000e+01   0.0000000e+00   0.0000000e+00
   9.2481271e+00   2.9623658e+00  -2.3648060e+00   1.0795894e+01   4.1835039e+00  -7.2178900e+00  -2.4311147e+00  -3.2509773e+00   1.1236372e+01   1.0172252e+01   1.8949150e+00   1.9078698e+01   1.1360779e+01   1.8001162e+01  -1.3798252e+01  -3.7301009e+00   1.8326702e+00   4.9888703e+00  -1.3724004e+01   2.9762488e+00   0.0000000e+00   3.0000000e+01   0.0000000e+00   0.0000000e+00
   9.4898593e+00   2.3588161e+00  -1.4272917e+00   1.0593770e+01   4.8640187e+00  -6.5844216e+00  -2.0037585e+00  -2.4770481e+00   1.1477817e+01   1.0529889e+01   2.8475848e+00   1.9495236e+01   1.2081181e+01   1.8845735e+01  -1.2205950e+01  -2.6598087e+00   2.7603605e+00   6.1633561e+00  -1.3023967e+01   4.1934561e+00   0.0000000e+00   3.0000000e+01   0.0000000e+00   0.0000000e+00
   9.2832602e+00   1.5267831e+00  -6.1014252e-01   9.7147159e+00   4.7214763e+00  -6.3540410e+00  -1.5212961e+00  -1.7520134e+00   1.1394563e+01   1.0900993e+01   3.9664891e+00   1.9124721e+01   1.2244045e+01   1.9468490e+01  -1.0558001e+01  -1.6559350e+00   2.9464694e+00   6.7182895e+00  -1.2268164e+01   5.2894621e+00   0.0000000e+00   3.0000000e+01   0.0000000e+00   0.0000000e+00
   8.4933323e+00   6.6402947e-01   9.1276778e-02   8.1810057e+00   3.8252487e+00  -6.7242220e+00  -1.2119975e+00  -1.2529190e+00   1.0946673e+01   1.1154848e+01   4.9599948e+00   1.8123591e+01   1.1675751e+01   1.9610130e+01  -9.1675076e+00  -1.0342918e+00   2.3779626e+00   6.5398675e+00  -1.1859788e+01   5.9175449e+00   0.0000000e+00   3.0000000e+01   0.0000000e+00   0.0000000e+00
   7.5726191e+00   2.0488574e-01   7.3182358e-01   6.4734256e+00   2.8029472e+00  -7.4370658e+00  -1.0534774e+00  -1.0900724e+00   1.0470455e+01   1.1313448e+01   5.6823621e+00   1.6968721e+01   1.0758162e+01   1.9396214e+01  -8.2510462e+00  -1.0685999e+00   1.6408877e+00   6.1748339e+00  -1.2007752e+01   5.9484109e+00   0.0000000e+00   3.0000000e+01   0.0000000e+00   0.0000000e+00
   6.7314514e+00   2.4884024e-01   1.0840298e+00   4.8284031e+00   1.9227126e+00  -8.3230237e+00  -1.2088828e+00  -1.5044504e+00   1.0069596e+01   1.1157470e+01   6.1310070e+00   1.5800205e+01   9.7213789e+00   1.8764378e+01  -7.9238005e+00  -1.7585778e+00   9.0923060e-01   5.6676994e+00  -1.2761402e+01   5.3986949e+00   0.0000000e+00   3.0000000e+01   0.0000000e+00   0.0000000e+00
   5.9008836e+00   6.4282283e-01   1.2352843e+00   3.3092539e+00   1.1140178e+00  -9.1974923e+00  -1.5457204e+00  -2.2331157e+00   9.6488946e+00   1.0661331e+01   6.4422798e+00   1.4605560e+01   8.5507222e+00   1.7647022e+01  -8.0115384e+00  -2.6211186e+00   1.8698889e-02   4.7574342e+00  -1.3797017e+01   4.6687044e+00   0.0000000e+00   3.0000000e+01   0.0000000e+00   0.0000000e+00
   5.0469611e+00   1.2728834e+00   1.6582333e+00   2.0252836e+00   4.2501112e-01  -9.9331480e+00  -1.6298914e+00  -2.6372807e+00   9.2818667e+00   1.0079718e+01   6.6669666e+00   1.3514099e+01   7.3529791e+00   1.6277863e+01  -8.2674343e+00  -3.0953697e+00  -9.7792229e-01   3.6724848e+00  -1.4654953e+01   4.2583546e+00   0.0000000e+00   3.0000000e+01   0.0000000e+00   0.0000000e+00
   4.1044791e+00   1.8917443e+00   2.2480257e+00   9.3209801e-01  -2.2011920e-01  -1.0716664e+01  -1.5416626e+00  -2.6933727e+00   8.8244337e+00   9.4897191e+00   6.8340660e+00   1.2549032e+01   6.1325813e+00   1.4872692e+01  -8.5921542e+00  -3.1920715e+00  -2.0363969e+00   2.7083990e+00  -1.5306869e+01   4.0951485e+00   0.0000000e+00   3.0000000e+01   0.0000000e+00   0.0000000e+00
   3.1756759e+00   2.3748218e+00   2.5363168e+00  -5.1462374e-02  -8.5100663e-01  -1.1598525e+01  -1.5127571e+00  -2.7643802e+00   8.0330081e+00   8.8543943e+00   6.9558392e+00   1.1646826e+01   4.9308314e+00   1.3625633e+01  -8.8383006e+00  -3.3496543e+00  -3.1089188e+00   1.8264615e+00  -1.5836902e+01   3.8783853e+00   0.0000000e+00   3.0000000e+01   0.0000000e+00   0.0000000e+00
   2.5528023e+00   2.7639543e+00   2.4032013e+00  -7.8180924e-01  -1.2640084e+00  -1.2387402e+01  -1.4503841e+00  -2.9330253e+00   7.1240623e+00   8.1632541e+00   6.8437367e+00   1.0805773e+01   4.0492574e+00   1.2813079e+01  -8.7827457e+00  -3.6938011e+00  -3.9369102e+00   1.0027273e+00  -1.6142016e+01   3.5986123e+00   0.0000000e+00   3.0000000e+01   0.0000000e+00   0.0000000e+00
   2.5607052e+00   3.2713798e+00   2.1647299e+00  -8.6589763e-01  -1.1380456e+00  -1.2762809e+01  -1.1368234e+00  -2.9524127e+00   6.6197084e+00   7.7060448e+00   6.5248712e+00   1.0288323e+01   3.8837717e+00   1.2652293e+01  -8.1741761e+00  -4.0070905e+00  -4.0843547e+00   6.9502952e-01  -1.5962164e+01   3.4778970e+00   0.0000000e+00   3.0000000e+01   0.0000000e+00   0.0000000e+00
   3.1614993e+00   3.9109910e+00   1.9161619e+00  -2.5216851e-01  -3.7386738e-01  -1.2722392e+01  -7.4188505e-01  -2.8734587e+00   6.7968933e+00   7.6632833e+00   6.1556756e+00   1.0371210e+01   4.4763692e+00   1.3023466e+01  -7.0955897e+00  -4.3081820e+00  -3.4427633e+00   1.2742268e+00  -1.5308385e+01   3.4788985e+00   0.0000000e+00   3.0000000e+01   0.0000000e+00   0.0000000e+00
   3.9471187e+00   4.4383385e+00   1.5378513e+00   7.0675580e-01   7.8864383e-01  -1.2503018e+01  -5.5020219e-01  -2.9120300e+00   7.4782338e+00   7.7866287e+00   5.7151158e+00   1.1049614e+01   5.4914518e+00   1.3497706e+01  -5.8687201e+00  -4.7505045e+00  -2.3213424e+00   2.3850458e+00  -1.4501784e+01   3.4160145e+00   0.0000000e+00   3.0000000e+01   0.0000000e+00   0.0000000e+00
   4.4665976e+00   4.5852771e+00   9.9869971e-01   1.6474040e+00   1.9563603e+00  -1.2260400e+01  -6.9400316e-01  -3.2508008e+00   8.2855410e+00   7.8273862e+00   5.1871780e+00   1.2017780e+01   6.5311860e+00   1.3638634e+01  -4.5603296e+00  -5.4216515e+00  -1.1715373e+00   3.2999909e+00  -1.3865642e+01   3.1609065e+00   0.0000000e+00   3.0000000e+01   0.0000000e+00   0.0000000e+00
   4.3320740e+00   3.9735815e+00   1.3202049e-01   2.1448459e+00   2.6709158e+00  -1.2173028e+01  -1.3118106e+00  -4.1260541e+00   8.8896853e+00   7.7006905e+00   4.6121781e+00   1.2658827e+01   7.2512935e+00   1.3271655e+01  -2.9805627e+00  -6.3720130e+00  -4.2971011e-01   3.7674062e+00  -1.3689227e+01   2.5412855e+00   0.0000000e+00   3.0000000e+01   0.0000000e+00   0.0000000e+00
   3.7966181e+00   2.8076256e+00  -8.9428808e-01   2.1649709e+00   3.0715381e+00  -1.2054281e+01  -2.0711229e+00  -5.2135305e+00   9.2787541e+00   7.6137638e+00   4.1751583e+00   1.2739903e+01   7.7289392e+00   1.2728591e+01  -6.9427599e-01  -7.2662961e+00   1.1415813e-02   4.2739995e+00  -1.3800598e+01   1.7947867e+00   0.0000000e+00   3.0000000e+01   0.0000000e+00   0.0000000e+00
   3.2612391e+00   1.6366644e+00  -1.6858501e+00   1.9722667e+00   3.4969697e+00  -1.1610712e+01  -2.5417622e+00  -6.0313656e+00   9.4716898e+00   7.7175401e+00   4.0200743e+00   1.2551606e+01   8.0705271e+00   1.2251272e+01   2.4692949e+00  -7.7712784e+00   4.3497438e-01   4.9469025e+00  -1.3937669e+01   1.2754573e+00   0.0000000e+00   3.0000000e+01   0.0000000e+00   0.0000000e+00
   2.7947586e+00   6.3431708e-01  -2.0630972e+00   1.5483435e+00   3.7791302e+00  -1.0972120e+01  -2.6843023e+00  -6.4653576e+00   9.3049725e+00   7.8458193e+00   4.1651563e+00   1.2180316e+01   8.1091069e+00   1.1725981e+01   6.3048379e+00  -7.9547534e+00   7.3587597e-01   5.3114910e+00  -1.4101979e+01   1.0393931e+00   0.0000000e+00   3.0000000e+01   0.0000000e+00   0.0000000e+00
   2.4034505e+00  -1.9378976e-01  -2.1097720e+00   6.4956366e-01   3.5717648e+00  -1.0576151e+01  -2.7535111e+00  -6.6060275e+00   8.5500805e+00   7.8928741e+00   4.6425919e+00   1.1330408e+01   7.6163990e+00   1.1063220e+01   1.0498030e+01  -7.9479999e+00   5.6791026e-01   5.2176954e+00  -1.4366080e+01   9.7359279e-01   0.0000000e+00   3.0000000e+01   0.0000000e+00   0.0000000e+00
   2.0107360e+00  -7.5994393e-01  -1.9736784e+00  -7.5315916e-01   2.7909557e+00  -1.0606531e+01  -2.9741179e+00  -6.6180253e+00   7.2133132e+00   7.9794633e+00   5.3981831e+00   9.9646226e+00   6.6230813e+00   1.0408550e+01   1.4641459e+01  -7.7239900e+00  -1.5643030e-01   5.0383804e+00  -1.4772050e+01   1.0146007e+00   0.0000000e+00   3.0000000e+01   0.0000000e+00   0.0000000e+00
   1.4309040e+00  -1.0629426e+00  -1.6938254e+00  -2.4854972e+00   1.6847220e+00  -1.0935482e+01  -3.3442939e+00  -6.5482742e+00   5.4616561e+00   7.9875290e+00   6.1072423e+00   8.3418790e+00   5.3521191e+00   9.8309483e+00   1.8465337e+01  -7.3255295e+00  -1.2246292e+00   4.8547925e+00  -1.5301652e+01   1.2005805e+00   0.0000000e+00   3.0000000e+01   0.0000000e+00   0.0000000e+00
   6.9559130e-01  -1.0775648e+00  -1.1796324e+00  -4.1615747e+00   8.3264600e-01  -1.1166736e+01  -3.4519362e+00  -6.1894065e+00   3.6518108e+00   7.7135284e+00   6.5962576e+00   6.8908082e+00   4.1164574e+00   9.4456976e+00   2.2098680e+01  -6.7273629e+00  -2.1889339e+00   4.6494104e+00  -1.5544920e+01   1.7105889e+00   0.0000000e+00   3.0000000e+01   0.0000000e+00   0.0000000e+00
   4.0477954e-01  -4.5978212e-01  -3.1530120e-01  -5.1980818e+00   8.4187440e-01  -1.0703675e+01  -2.6689404e+00  -5.4089585e+00   2.5005344e+00   7.4054590e+00   7.0448526e+00   6.1183366e+00   3.4820702e+00   9.7386381e+00   2.5833112e+01  -5.7767884e+00  -2.4021301e+00   5.0811341e+00  -1.4717111e+01   2.7787912e+00   0.0000000e+00   3.0000000e+01   0.0000000e+00   0.0000000e+00
   9.6694372e-01   8.2532360e-01   8.2217325e-01  -5.3905739e+00   1.7838596e+00  -9.4014978e+00  -9.4525585e-01  -4.3620509e+00   2.2615398e+00   7.2999761e+00   7.5972645e+00   6.0492813e+00   3.7619633e+00   1.0942803e+01   2.9466416e+01  -4.6652395e+00  -1.6480283e+00   6.6621291e+00  -1.2569206e+01   4.3011286e+00   0.0000000e+00   3.0000000e+01   0.0000000e+00   0.0000000e+00
   1.8797632e+00   2.1050827e+00   1.9143024e+00  -5.1806179e+00   3.0382971e+00  -7.7756545e+00   1.1056607e+00  -3.4452903e+00   2.3830006e+00   7.0922336e+00   8.2030404e+00   6.1148457e+00   4.6540405e+00   1.2545844e+01   3.2398331e+01  -3.8936169e+00  -4.2962935e-01   8.8057207e+00  -9.7519639e+00   5.7897079e+00   0.0000000e+00   3.0000000e+01   0.0000000e+00   0.0000000e+00
   2.5698323e+00   2.8723655e+00   2.7634551e+00  -4.9975954e+00   3.9981332e+00  -6.2237592e+00   2.9538207e+00  -2.9157650e+00   2.4448404e+00   6.5425527e+00   8.7988845e+00   5.9203829e+00   5.7088067e+00   1.4004938e+01   3.4440662e+01  -3.5345723e+00   7.2196832e-01   1.0634480e+01  -7.0566332e+00   6.9109487e+00   0.0000000e+00   3.0000000e+01   0.0000000e+00   0.0000000e+00
   3.1930119e+00   3.2843306e+00   3.4067740e+00  -4.7158966e+00   4.7340921e+00  -4.7236157e+00   4.4631746e+00  -2.6806094e+00   2.6856636e+00   5.8789322e+00   9.2943616e+00   5.6966471e+00   6.7271242e+00   1.5249417e+01   3.5837972e+01  -3.2046433e+00   1.6749935e+00   1.2119038e+01  -4.8711283e+00   7.6674922e+00   0.0000000e+00   3.0000000e+01   0.0000000e+00   0.0000000e+00
   4.1674583e+00   3.7811951e+00   3.9481106e+00  -4.0686763e+00   5.5649108e+00  -3.2528249e+00   5.6237607e+00  -2.5569830e+00   3.2753484e+00   5.2810050e+00   9.5299567e+00   5.6929839e+00   7.7750233e+00   1.6233940e+01   3.6837532e+01  -2.7233693e+00   2.4852965e+00   1.3604859e+01  -3.2154767e+00   8.1864529e+00   0.0000000e+00   3.0000000e+01   0.0000000e+00   0.0000000e+00
   5.4276586e+00   4.4339439e+00   4.3168058e+00  -3.0998646e+00   6.4647318e+00  -1.9599130e+00   6.3813832e+00  -2.5270566e+00   4.0155737e+00   4.6848959e+00   9.4136794e+00   5.8683957e+00   8.9723366e+00   1.6794202e+01   3.7488320e+01  -2.2595289e+00   3.2456677e+00   1.4925160e+01  -1.8858105e+00   8.5222034e+00   0.0000000e+00   3.0000000e+01   0.0000000e+00   0.0000000e+00
   6.4786966e+00   4.8783977e+00   4.1658254e+00  -2.1643019e+00   7.1073414e+00  -1.0847577e+00   6.6869496e+00  -2.7746939e+00   4.7293666e+00   4.1447324e+00   9.0658632e+00   6.1703777e+00   1.0200571e+01   1.6968166e+01   3.7787548e+01  -2.1184427e+00   3.9153426e+00   1.5684590e+01  -8.3483171e-01   8.6065278e+00   0.0000000e+00   3.0000000e+01   0.0000000e+00   0.0000000e+00
   6.8171484e+00   4.8456732e+00   3.4031279e+00  -1.6773698e+00   7.1895863e+00  -8.1032746e-01   6.6240524e+00  -3.2507437e+00   5.2817348e+00   3.9448359e+00   8.8896898e+00   6.4413377e+00   1.1122195e+01   1.6993455e+01   3.7879315e+01  -2.3106488e+00   4.3510839e+00   1.5998433e+01  -1.5162009e-01   8.4907312e+00   0.0000000e+00   3.0000000e+01   0.0000000e+00   0.0000000e+00
   6.4126436e+00   4.4364547e+00   2.4702279e+00  -1.7434892e+00   6.6886910e+00  -1.0117615e+00   6.2931266e+00  -3.6415607e+00   5.5323509e+00   4.0768622e+00   9.0327587e+00   6.4973116e+00   1.1572183e+01   1.7006838e+01   3.7840417e+01  -2.5633067e+00   4.5154375e+00   1.6305414e+01   1.4844708e-01   8.3247009e+00   0.0000000e+00   3.0000000e+01   0.0000000e+00   0.0000000e+00
   5.7602396e+00   4.0612826e+00   1.7769982e+00  -2.0505427e+00   6.0218413e+00  -1.3435011e+00   5.7963363e+00  -3.8054988e+00   5.6620691e+00   4.2685951e+00   9.3385460e+00   6.3830599e+00   1.1793225e+01   1.7041564e+01   3.7590719e+01  -2.7848766e+00   4.5832231e+00   1.6618367e+01   7.3012166e-02   8.1954023e+00   0.0000000e+00   3.0000000e+01   0.0000000e+00   0.0000000e+00
   5.0911951e+00   3.9152747e+00   1.3016100e+00  -2.5003900e+00   5.4701397e+00  -1.7861439e+00   5.0952656e+00  -3.9858754e+00   5.7346820e+00   4.1722079e+00   9.5003646e+00   5.9996033e+00   1.1743865e+01   1.6903002e+01   3.6813972e+01  -3.2383064e+00   4.5417519e+00   1.6390365e+01  -5.7815960e-01   7.9024515e+00   0.0000000e+00   3.0000000e+01   0.0000000e+00   0.0000000e+00
   4.7811596e+00   4.2550233e+00   1.2707687e+00  -2.8755451e+00   5.3370638e+00  -2.0125238e+00   4.5760602e+00  -3.9628365e+00   5.8618538e+00   3.9368069e+00   9.4974166e+00   5.6106835e+00   1.1569935e+01   1.6776837e+01   3.5725521e+01  -3.7164331e+00   4.5958603e+00   1.5804032e+01  -1.4788374e+00   7.5982077e+00   0.0000000e+00   3.0000000e+01   0.0000000e+00   0.0000000e+00
   5.2561131e+00   5.2976682e+00   1.9610072e+00  -2.7250980e+00   5.9166473e+00  -1.5510049e+00   4.7942299e+00  -3.3086378e+00   6.3335494e+00   4.1067059e+00   9.7762710e+00   5.7207676e+00   1.1815814e+01   1.7036707e+01   3.4870634e+01  -3.7111177e+00   5.1623366e+00   1.5666925e+01  -1.9152340e+00   7.7823023e+00   0.0000000e+00   3.0000000e+01   0.0000000e+00   0.0000000e+00
   5.9549201e+00   6.4258511e+00   2.9114173e+00  -2.4003622e+00   6.6865533e+00  -9.0258848e-01   5.4491501e+00  -2.4502997e+00   6.6579231e+00   4.3435387e+00   1.0222796e+01   5.8160788e+00   1.2163827e+01   1.7230879e+01   3.3974754e+01  -3.5347035e+00   5.8169230e+00   1.5598420e+01  -2.0063850e+00   8.2580070e+00   0.0000000e+00   3.0000000e+01   0.0000000e+00   0.0000000e+00
   6.0761592e+00   6.8996585e+00   3.3588150e+00  -2.6351238e+00   6.9502460e+00  -7.1823491e-01   5.9362664e+00  -2.0953624e+00   6.2750517e+00   4.1763234e+00   1.0457798e+01   5.2400662e+00   1.2040903e+01   1.6850656e+01   3.2703960e+01  -3.7358970e+00   5.8768149e+00   1.4736200e+01  -2.2391608e+00   8.4919611e+00   0.0000000e+00   3.0000000e+01   0.0000000e+00   0.0000000e+00
   5.5474975e+00   6.6707986e+00   3.1448320e+00  -3.4447261e+00   6.6323388e+00  -9.4466111e-01   6.1270309e+00  -2.2841489e+00   5.5714707e+00   3.9999728e+00   1.0543773e+01   4.3797491e+00   1.1691590e+01   1.6145128e+01   3.1242566e+01  -4.1693059e+00   5.3703299e+00   1.3363635e+01  -2.6472430e+00   8.4890199e+00   0.0000000e+00   3.0000000e+01   0.0000000e+00   0.0000000e+00
   4.6904249e+00   6.0220039e+00   2.6815344e+00  -4.3030926e+00   6.0742661e+00  -1.3084309e+00   6.0443846e+00  -2.5902064e+00   5.3194129e+00   4.1575824e+00   1.0686907e+01   3.8479292e+00   1.1561180e+01   1.5541240e+01   2.9830711e+01  -4.3978507e+00   4.6966977e+00   1.2201342e+01  -3.0641341e+00   8.4862861e+00   0.0000000e+00   3.0000000e+01   0.0000000e+00   0.0000000e+00
   3.8196231e+00   5.2856368e+00   2.1894492e+00  -4.9130106e+00   5.4938579e+00  -1.7555233e+00   5.6459194e+00  -2.9427693e+00   5.9013447e+00   4.5281855e+00   1.1000027e+01   3.7559501e+00   1.1620856e+01   1.5157009e+01   2.8588378e+01  -4.3797245e+00   4.0653895e+00   1.1213753e+01  -3.3973208e+00   8.3656006e+00   0.0000000e+00   3.0000000e+01   0.0000000e+00   0.0000000e+00
   3.0708417e+00   4.5801752e+00   1.6537335e+00  -5.4135087e+00   4.8365755e+00  -2.3227927e+00   5.0076606e+00  -3.4230253e+00   7.0357843e+00   4.9366285e+00   1.1409806e+01   3.7852827e+00   1.1521747e+01   1.4896967e+01   2.7474230e+01  -4.4726987e+00   3.3476278e+00   1.0002151e+01  -3.6381279e+00   7.9797951e+00   0.0000000e+00   3.0000000e+01   0.0000000e+00   0.0000000e+00
   2.3495625e+00   3.7981229e+00   1.1663124e+00  -6.0705021e+00   4.0027018e+00  -2.9535204e+00   4.2944197e+00  -3.8826901e+00   8.1229181e+00   5.2310666e+00   1.1764392e+01   3.5015706e+00   1.1000225e+01   1.4554402e+01   2.6246549e+01  -4.8716842e+00   2.3732876e+00   8.6815099e+00  -3.9353836e+00   7.4451291e+00   0.0000000e+00   3.0000000e+01   0.0000000e+00   0.0000000e+00
   1.6921165e+00   3.0673002e+00   8.0289272e-01  -6.8092878e+00   3.2169650e+00  -3.4320840e+00   3.7374086e+00  -4.2985868e+00   9.0163711e+00   5.3887172e+00   1.1937962e+01   2.9605365e+00   1.0286666e+01   1.4149929e+01   2.4744865e+01  -5.4143449e+00   1.4629248e+00   7.8031044e+00  -4.2727541e+00   6.9255230e+00   0.0000000e+00   3.0000000e+01   0.0000000e+00   0.0000000e+00
   1.1911676e+00   2.6183040e+00   4.7469173e-01  -7.3490447e+00   2.8536606e+00  -3.5850318e+00   3.4318885e+00  -4.7716166e+00   9.7925121e+00   5.2902773e+00   1.1808530e+01   2.4676140e+00   9.7617200e+00   1.3908144e+01   2.2975889e+01  -5.9956709e+00   9.7880949e-01   7.5023568e+00  -4.4791388e+00   6.4277339e+00   0.0000000e+00   3.0000000e+01   0.0000000e+00   0.0000000e+00
   9.7159946e-01   2.5832842e+00   2.1443575e-01  -7.5465057e+00   3.0258747e+00  -3.3004644e+00   3.5238040e+00  -5.1294181e+00   1.0377872e+01   4.8761454e+00   1.1441988e+01   2.0770669e+00   9.4540931e+00   1.3885192e+01   2.1134318e+01  -6.4992292e+00   8.7716328e-01   7.4351133e+00  -4.4782218e+00   6.0776607e+00   0.0000000e+00   3.0000000e+01   0.0000000e+00   0.0000000e+00
   1.1985278e+00   2.9542613e+00   2.6271800e-01  -7.3976564e+00   3.6604458e+00  -2.4302166e+00   4.1926996e+00  -4.9845030e+00   1.0888510e+01   4.5083671e+00   1.1152324e+01   1.7772013e+00   9.3640842e+00   1.4086305e+01   1.9667632e+01  -6.6602247e+00   1.0993669e+00   7.5968769e+00  -4.1857208e+00   6.1982898e+00   0.0000000e+00   3.0000000e+01   0.0000000e+00   0.0000000e+00
   1.6114278e+00   3.3482885e+00   6.7526845e-01  -7.2017562e+00   4.4216634e+00  -1.1745250e+00   5.2200591e+00  -4.2161379e+00   1.1608005e+01   4.3346779e+00   1.1083081e+01   1.5334923e+00   9.5069579e+00   1.4465689e+01   1.8776255e+01  -6.3485684e+00   1.5408417e+00   8.1419668e+00  -3.6773097e+00   6.9324327e+00   0.0000000e+00   3.0000000e+01   0.0000000e+00   0.0000000e+00
   1.8741296e+00   3.4739488e+00   1.3125591e+00  -7.2624825e+00   4.9392281e+00  -4.9978633e-02   6.1871140e+00  -3.1081842e+00   1.2695940e+01   4.1511023e+00   1.1120431e+01   1.2451307e+00   9.6879027e+00   1.4903378e+01   1.8225891e+01  -5.6235746e+00   2.0420397e+00   8.7693159e+00  -3.1689979e+00   8.1356474e+00   0.0000000e+00   3.0000000e+01   0.0000000e+00   0.0000000e+00
   1.9620575e+00   3.3403477e+00   1.8268781e+00  -7.7116265e+00   4.9262906e+00   4.2921661e-01   6.6646635e+00  -2.1961676e+00   1.3899417e+01   3.6030718e+00   1.1055791e+01   6.2210845e-01   9.3513302e+00   1.4977226e+01   1.7503526e+01  -4.9155789e+00   2.2556899e+00   8.7612268e+00  -3.0295991e+00   9.2464616e+00   0.0000000e+00   3.0000000e+01   0.0000000e+00   0.0000000e+00
   2.0702364e+00   3.0588794e+00   2.0208575e+00  -8.5121720e+00   4.3498782e+00   2.1030076e-01   6.6135288e+00  -1.7179027e+00   1.4955197e+01   2.7792834e+00   1.1033383e+01  -3.2893453e-01   8.3471487e+00   1.4444942e+01   1.6462751e+01  -4.4729768e+00   1.9767074e+00   8.0591651e+00  -3.4409633e+00   9.8743069e+00   0.0000000e+00   3.0000000e+01   0.0000000e+00   0.0000000e+00
   2.2211217e+00   2.7327335e+00   2.0190167e+00  -9.4198595e+00   3.4957341e+00  -3.4805147e-01   6.3013761e+00  -1.5440461e+00   1.5618296e+01   2.2252257e+00   1.1236402e+01  -1.2873239e+00   7.2375548e+00   1.3778968e+01   1.5427124e+01  -4.1846513e+00   1.4547815e+00   7.2996792e+00  -4.1581803e+00   1.0054292e+01   0.0000000e+00   3.0000000e+01   0.0000000e+00   0.0000000e+00
   2.5027793e+00   2.6107342e+00   2.0666537e+00  -1.0000535e+01   2.9088533e+00  -5.9213638e-01   6.2974558e+00  -1.4734861e+00   1.6108241e+01   2.4291037e+00   1.1629562e+01  -1.8382099e+00   6.8149571e+00   1.3793963e+01   1.4888250e+01  -3.9068331e+00   1.2680171e+00   6.9727288e+00  -4.6221055e+00   1.0109561e+01   0.0000000e+00   3.0000000e+01   0.0000000e+00   0.0000000e+00
   3.0898252e+00   2.6471609e+00   2.1148442e+00  -1.0166898e+01   2.7012902e+00  -2.6914210e-01   6.9411884e+00  -1.5425777e+00   1.6834673e+01   3.3623862e+00   1.2089555e+01  -1.7927086e+00   7.2451346e+00   1.4570218e+01   1.4924807e+01  -3.6780182e+00   1.5919525e+00   6.9957252e+00  -4.5675084e+00   1.0235078e+01   0.0000000e+00   3.0000000e+01   0.0000000e+00   0.0000000e+00
   3.8058510e+00   2.4235546e+00   1.8417441e+00  -1.0381635e+01   2.3789263e+00   3.6150835e-04   7.7021473e+00  -1.8890580e+00   1.7520195e+01   4.4589254e+00   1.2409911e+01  -1.5477414e+00   7.7962194e+00   1.5237168e+01   1.5002036e+01  -3.7678671e+00   1.8537352e+00   7.0360823e+00  -4.4224194e+00   1.0188853e+01   0.0000000e+00   3.0000000e+01   0.0000000e+00   0.0000000e+00
   4.3821196e+00   1.7418716e+00   1.1569239e+00  -1.0814207e+01   1.6863802e+00  -3.3434635e-01   7.9783149e+00  -2.4135975e+00   1.7943946e+01   5.4533840e+00   1.2660175e+01  -1.3815751e+00   8.0561388e+00   1.5330443e+01   1.4848211e+01  -4.1560938e+00   1.7203643e+00   7.1238923e+00  -4.5682564e+00   9.8586765e+00   0.0000000e+00   3.0000000e+01   0.0000000e+00   0.0000000e+00
   4.8812528e+00   7.3016941e-01   1.6147378e-01  -1.1065259e+01   8.7496828e-01  -1.1011413e+00   7.7821251e+00  -3.0334213e+00   1.8365552e+01   6.4994326e+00   1.3132822e+01  -8.8798937e-01   8.4444840e+00   1.5328383e+01   1.4642066e+01  -4.6346274e+00   1.5818327e+00   7.3529790e+00  -4.8567660e+00   9.4064580e+00   0.0000000e+00   3.0000000e+01   0.0000000e+00   0.0000000e+00
   5.8304351e+00  -2.9888478e-02  -8.6326746e-01  -1.0377955e+01   7.9509664e-01  -1.3892873e+00   7.7960828e+00  -3.6898109e+00   1.9299363e+01   7.5119906e+00   1.3967504e+01   6.1200129e-01   9.7669451e+00   1.6103362e+01   1.4793337e+01  -5.1571523e+00   2.3010251e+00   8.0140349e+00  -4.6959191e+00   9.1179369e+00   0.0000000e+00   3.0000000e+01   0.0000000e+00   0.0000000e+00
   7.4473093e+00  -9.7085127e-02  -1.7561293e+00  -8.5088013e+00   1.8639093e+00  -6.7020450e-01   8.4127151e+00  -4.4586063e+00   2.0810138e+01   8.0008933e+00   1.4613615e+01   3.0363350e+00   1.2171474e+01   1.7910514e+01   1.5394853e+01  -6.0455543e+00   4.0945161e+00   9.5202554e+00  -3.9615447e+00   9.0088420e+00   0.0000000e+00   3.0000000e+01   0.0000000e+00   0.0000000e+00
   9.0544442e+00   3.3869808e-01  -2.3298847e+00  -6.4460455e+00   3.2301802e+00   4.8931394e-01   9.3302903e+00  -5.1571334e+00   2.2036371e+01   7.9836180e+00   1.4531351e+01   5.2794120e+00   1.4581455e+01   1.9985772e+01   1.6078551e+01  -7.1970767e+00   5.9378924e+00   1.1675759e+01  -3.1477045e+00   9.1342746e+00   0.0000000e+00   3.0000000e+01   5.0000000e+01   0.0000000e+00
   9.5222322e+00   6.2237645e-01  -2.3683330e+00  -5.7653442e+00   3.5841868e+00   1.0779625e+00   9.9352828e+00  -5.3473597e+00   2.1805570e+01   7.2694884e+00   1.3927188e+01   5.9928499e+00   1.5672863e+01   2.1255997e+01   1.6442293e+01  -7.8905489e+00   6.5135949e+00   1.3346858e+01  -2.7953621e+00   9.6664943e+00   0.0000000e+00   3.0000000e+01   5.0000000e+01   0.0000000e+00
   8.2877221e+00   1.0189204e-01  -2.2395201e+00  -7.2555055e+00   2.3084564e+00   5.1688404e-01   9.6426707e+00  -5.1330822e+00   1.9803919e+01   5.4149740e+00   1.3094435e+01   4.6922036e+00   1.5054092e+01   2.1216256e+01   1.6120193e+01  -7.8848105e+00   5.4036875e+00   1.3371740e+01  -3.2914346e+00   1.0256760e+01   0.0000000e+00   3.0000000e+01   5.0000000e+01   0.0000000e+00
   6.2397222e+00  -1.0049332e+00  -2.3065958e+00  -9.9176671e+00   2.3278571e-01  -6.3020184e-01   8.6551056e+00  -4.8334139e+00   1.7147179e+01   3.1380627e+00   1.2248777e+01   2.4263928e+00   1.3739465e+01   2.0470719e+01   1.5215093e+01  -7.3926092e+00   3.5876313e+00   1.2202333e+01  -4.3844881e+00   1.0506739e+01   0.0000000e+00   3.0000000e+01   5.0000000e+01   0.0000000e+00
   4.6850487e+00  -1.8751872e+00  -2.5002371e+00  -1.2269720e+01  -1.4177109e+00  -1.4673151e+00   7.7165405e+00  -4.6404576e+00   1.5025079e+01   1.3999654e+00   1.1522053e+01   6.3238280e-01   1.2907817e+01   1.9715328e+01   1.4093135e+01  -6.7532289e+00   2.2030367e+00   1.1129070e+01  -5.5794038e+00   1.0317222e+01   0.0000000e+00   3.0000000e+01   5.0000000e+01   0.0000000e+00
   3.9565019e+00  -2.1976171e+00  -2.5915253e+00  -1.3837308e+01  -2.3436875e+00  -1.7573995e+00   7.2754982e+00  -4.6062558e+00   1.3569702e+01   2.8569211e-01   1.0996398e+01  -3.0377022e-01   1.2613477e+01   1.8883286e+01   1.2834350e+01  -6.1828252e+00   1.4513473e+00   1.0473480e+01  -6.5913804e+00   9.8408213e+00   0.0000000e+00   3.0000000e+01   5.0000000e+01   0.0000000e+00
   3.7011175e+00  -2.0897765e+00  -2.4038824e+00  -1.4788056e+01  -2.6545100e+00  -1.5368601e+00   7.5089571e+00  -4.4880948e+00   1.2414803e+01  -5.7169971e-01   1.0745950e+01  -8.6250076e-01   1.2425210e+01   1.7753762e+01   1.1565594e+01  -5.5974098e+00   1.1340344e+00   9.9625386e+00  -7.1858370e+00   9.4833798e+00   0.0000000e+00   3.0000000e+01   5.0000000e+01   0.0000000e+00
   3.5535253e+00  -1.7587719e+00  -2.0180279e+00  -1.5351390e+01  -2.4128183e+00  -9.3575106e-01   8.2532050e+00  -4.1793294e+00   1.1294441e+01  -1.3900990e+00   1.0665578e+01  -1.4459706e+00   1.2139813e+01   1.6378697e+01   1.0495537e+01  -4.9560700e+00   1.1118219e+00   9.6864625e+00  -7.3410349e+00   9.4878050e+00   0.0000000e+00   3.0000000e+01   5.0000000e+01   0.0000000e+00
   3.3594043e+00  -1.5754737e+00  -1.5570498e+00  -1.5736520e+01  -1.9570901e+00  -3.3835244e-01   9.1010264e+00  -3.7471381e+00   1.0242086e+01  -2.0851462e+00   1.0669497e+01  -2.0651602e+00   1.1812391e+01   1.5064278e+01   9.6335328e+00  -4.3646331e+00   1.2312959e+00   9.8673825e+00  -7.3201746e+00   9.8380188e+00   0.0000000e+00   3.0000000e+01   5.0000000e+01   0.0000000e+00
   2.8283059e+00  -1.9581196e+00  -1.2324952e+00  -1.6317494e+01  -1.9013140e+00  -2.3737986e-01   9.7764543e+00  -3.2074226e+00   9.2453635e+00  -2.5200053e+00   1.0793335e+01  -2.7362154e+00   1.1463697e+01   1.4046073e+01   8.9198060e+00  -3.8293148e+00   1.1491342e+00   1.0078424e+01  -7.3792745e+00   1.0458728e+01   0.0000000e+00   3.0000000e+01   5.0000000e+01   0.0000000e+00
   1.9715898e+00  -2.8492279e+00  -1.0626006e+00  -1.7133721e+01  -2.2738829e+00  -5.2089327e-01   1.0400514e+01  -2.5556660e+00   8.3377224e+00  -2.6851160e+00   1.1109020e+01  -3.3477241e+00   1.1255506e+01   1.3564780e+01   8.6252222e+00  -3.1454706e+00   8.6178242e-01   9.8833076e+00  -7.3112770e+00   1.1403625e+01   0.0000000e+00   3.0000000e+01   5.0000000e+01   0.0000000e+00
   1.4097873e+00  -3.6666118e+00  -8.0282237e-01  -1.7749132e+01  -2.4135834e+00  -6.0662424e-01   1.1367261e+01  -1.7796092e+00   7.8024646e+00  -2.7222643e+00   1.1644586e+01  -3.6487349e+00   1.1513798e+01   1.3897108e+01   9.0027521e+00  -2.1846624e+00   8.5552803e-01   9.6562875e+00  -6.8825724e+00   1.2607990e+01   0.0000000e+00   3.0000000e+01   5.0000000e+01   0.0000000e+00
   1.5932141e+00  -3.9868455e+00  -5.2664956e-01  -1.7843676e+01  -1.9625562e+00  -4.6273212e-01   1.2631163e+01  -1.1755526e+00   7.6026826e+00  -2.9207955e+00   1.2224096e+01  -3.6644921e+00   1.2075617e+01   1.4667373e+01   9.5658818e+00  -1.2713843e+00   1.2669567e+00   9.6766533e+00  -6.4980808e+00   1.3563890e+01   0.0000000e+00   3.0000000e+01   5.0000000e+01   0.0000000e+00
   2.2493191e+00  -4.0871408e+00  -6.0098396e-01  -1.7547211e+01  -1.1990141e+00  -5.0413678e-01   1.3791739e+01  -1.2529691e+00   7.4477665e+00  -3.3626282e+00   1.2507900e+01  -3.6422960e+00   1.2504212e+01   1.5188890e+01   9.6664610e+00  -9.9787742e-01   1.7653957e+00   9.5662796e+00  -6.6555806e+00   1.3732763e+01   0.0000000e+00   3.0000000e+01   5.0000000e+01   0.0000000e+00
   2.8452068e+00  -4.1823643e+00  -8.9574453e-01  -1.7197988e+01  -3.6431751e-01  -5.6644628e-01   1.4985369e+01  -1.7712785e+00   7.3692361e+00  -3.7457538e+00   1.2524203e+01  -3.7115225e+00   1.2895442e+01   1.5546135e+01   9.5700235e+00  -1.2794082e+00   2.3214890e+00   9.2329535e+00  -7.0432850e+00   1.3302224e+01   0.0000000e+00   3.0000000e+01   5.0000000e+01   0.0000000e+00
   3.3019059e+00  -4.0555407e+00  -1.0325999e+00  -1.6877407e+01   5.9316487e-01  -1.3726963e-01   1.6855217e+01  -1.9900110e+00   7.6920972e+00  -3.6808665e+00   1.2596502e+01  -3.6929806e+00   1.3697987e+01   1.6227705e+01   9.9388495e+00  -1.5035857e+00   3.2176010e+00   9.3178539e+00  -6.9717217e+00   1.2820723e+01   0.0000000e+00   3.0000000e+01   5.0000000e+01   0.0000000e+00
   3.8375343e+00  -3.8240075e+00  -1.1600748e+00  -1.6525649e+01   1.6349599e+00   6.3320722e-01   1.9819239e+01  -1.7292528e+00   8.5321845e+00  -3.1612676e+00   1.2762084e+01  -3.3181048e+00   1.4905402e+01   1.7120150e+01   1.0780009e+01  -1.5371492e+00   4.3606204e+00   1.0195443e+01  -6.4097984e+00   1.2393343e+01   0.0000000e+00   3.0000000e+01   5.0000000e+01   0.0000000e+00
   4.4334937e+00  -3.6433825e+00  -1.4192205e+00  -1.6183996e+01   2.7931958e+00   1.2917359e+00   2.4043426e+01  -1.2242104e+00   9.6033072e+00  -2.4355161e+00   1.2851692e+01  -2.6804870e+00   1.6080727e+01   1.7815200e+01   1.1804113e+01  -1.5120320e+00   5.4593329e+00   1.1460504e+01  -5.6095311e+00   1.1990651e+01   0.0000000e+00   3.0000000e+01   5.0000000e+01   0.0000000e+00
   4.9037208e+00  -3.3955963e+00  -1.6866655e+00  -1.5837474e+01   4.2054690e+00   1.7353075e+00   2.9280342e+01  -6.7537675e-01   1.0521393e+01  -1.7217015e+00   1.2753649e+01  -2.0086809e+00   1.6927422e+01   1.8128100e+01   1.2732431e+01  -1.4851993e+00   6.4689838e+00   1.2570273e+01  -4.6903602e+00   1.1684406e+01   0.0000000e+00   3.0000000e+01   5.0000000e+01   0.0000000e+00
   5.1789744e+00  -3.1125331e+00  -1.9221118e+00  -1.5549197e+01   5.7023581e+00   2.0252874e+00   3.4393263e+01  -2.9251428e-01   1.1132568e+01  -1.2935757e+00   1.2321731e+01  -1.4347868e+00   1.7574010e+01   1.8063496e+01   1.3201884e+01  -1.6478830e+00   7.4614467e+00   1.3447094e+01  -3.8974139e+00   1.1373767e+01   0.0000000e+00   3.0000000e+01   5.0000000e+01   0.0000000e+00
   5.2894760e+00  -2.9753485e+00  -2.2425319e+00  -1.5337059e+01   6.9721340e+00   2.1267948e+00   3.8171769e+01  -3.3887133e-01   1.1634540e+01  -1.3162876e+00   1.1535745e+01  -8.8303658e-01   1.8413162e+01   1.7853427e+01   1.3137244e+01  -2.0457547e+00   8.4630284e+00   1.4359450e+01  -3.3925824e+00   1.0954637e+01   0.0000000e+00   3.0000000e+01   5.0000000e+01   0.0000000e+00
   5.3756087e+00  -2.9868375e+00  -2.5507641e+00  -1.5122512e+01   7.9002539e+00   2.0131696e+00   4.0337756e+01  -8.0229520e-01   1.2140813e+01  -1.6052199e+00   1.0698535e+01  -2.4479792e-01   1.9455206e+01   1.7716300e+01   1.2849364e+01  -2.3870629e+00   9.3594834e+00   1.5244556e+01  -3.0940140e+00   1.0619492e+01   0.0000000e+00   3.0000000e+01   5.0000000e+01   0.0000000e+00
   5.5642326e+00  -3.0646484e+00  -2.6217430e+00  -1.4972670e+01   8.5154663e+00   1.8079375e+00   4.1398122e+01  -1.3933978e+00   1.2421068e+01  -1.9846406e+00   1.0072896e+01   2.4832867e-01   2.0184753e+01   1.7507588e+01   1.2615400e+01  -2.5119265e+00   9.8820049e+00   1.5726538e+01  -3.0076814e+00   1.0565986e+01   0.0000000e+00   3.0000000e+01   5.0000000e+01   0.0000000e+00
   5.9021300e+00  -3.1090650e+00  -2.4358143e+00  -1.4831787e+01   9.0110382e+00   1.7926624e+00   4.1826518e+01  -1.9044774e+00   1.2399998e+01  -2.4018103e+00   9.7675010e+00   4.9329932e-01   2.0380236e+01   1.7108893e+01   1.2480045e+01  -2.5799775e+00   9.9910232e+00   1.5876809e+01  -3.2026651e+00   1.0669108e+01   0.0000000e+00   3.0000000e+01   5.0000000e+01   0.0000000e+00
   6.4632683e+00  -3.0287099e+00  -2.1247667e+00  -1.4519420e+01   9.5948001e+00   2.2106812e+00   4.1758483e+01  -2.2654621e+00   1.2350719e+01  -2.7553138e+00   9.8386949e+00   7.0608446e-01   2.0373242e+01   1.6821398e+01   1.2446033e+01  -2.7002439e+00   1.0028626e+01   1.6194344e+01  -3.5534327e+00   1.0738255e+01   0.0000000e+00   3.0000000e+01   5.0000000e+01   0.0000000e+00
   7.0928292e+00  -3.0067828e+00  -2.0996319e+00  -1.4062635e+01   1.0133623e+01   2.8893204e+00   4.1192540e+01  -2.7148421e+00   1.2339035e+01  -3.1299657e+00   1.0096084e+01   9.5026340e-01   2.0311287e+01   1.6764686e+01   1.2392200e+01  -2.9379157e+00   1.0102872e+01   1.6690473e+01  -4.0074857e+00   1.0617414e+01   0.0000000e+00   3.0000000e+01   5.0000000e+01   0.0000000e+00
   7.4463998e+00  -3.2202742e+00  -2.6504995e+00  -1.3697306e+01   1.0309148e+01   3.4465881e+00   4.0142782e+01  -3.4489235e+00   1.2203877e+01  -3.6443214e+00   1.0259313e+01   1.1106785e+00   1.9963674e+01   1.6750257e+01   1.2114099e+01  -3.3808945e+00   9.9378500e+00   1.6897632e+01  -4.6594969e+00   1.0249799e+01   0.0000000e+00   3.0000000e+01   5.0000000e+01   0.0000000e+00
   7.4659225e+00  -3.4041716e+00  -3.2873676e+00  -1.3485181e+01   1.0116233e+01   3.8022445e+00   3.8847595e+01  -4.0456506e+00   1.2047893e+01  -4.1851305e+00   1.0283419e+01   1.2599195e+00   1.9311851e+01   1.6750272e+01   1.1636141e+01  -3.8565096e+00   9.4390827e+00   1.6823508e+01  -5.4318352e+00   9.8640870e+00   0.0000000e+00   3.0000000e+01   5.0000000e+01   0.0000000e+00
   7.2956557e+00  -3.3552063e+00  -3.4517036e+00  -1.3439677e+01   9.7302371e+00   4.0148565e+00   3.7358789e+01  -4.2679969e+00   1.1754732e+01  -4.7452763e+00   1.0183867e+01   1.3056798e+00   1.8402501e+01   1.6651545e+01   1.1044926e+01  -4.2585096e+00   8.6733933e+00   1.6665633e+01  -6.1052811e+00   9.5850908e+00   0.0000000e+00   3.0000000e+01   5.0000000e+01   0.0000000e+00
   7.0841208e+00  -3.2181613e+00  -3.1080143e+00  -1.3734130e+01   9.1734667e+00   4.1206317e+00   3.5442457e+01  -4.3079194e+00   1.0867304e+01  -5.6209660e+00   9.7011182e+00   9.2045360e-01   1.7129794e+01   1.6179859e+01   1.0196973e+01  -4.7820643e+00   7.6603574e+00   1.6146810e+01  -6.5460856e+00   9.2713975e+00   0.0000000e+00   3.0000000e+01   5.0000000e+01   0.0000000e+00
   7.0345610e+00  -2.9980270e+00  -2.2911492e+00  -1.4315426e+01   8.5410303e+00   4.2907240e+00   3.3335283e+01  -4.1547587e+00   9.5758296e+00  -6.8753244e+00   8.8553163e+00   2.7271132e-01   1.5814710e+01   1.5474152e+01   9.2539882e+00  -5.3137826e+00   6.6377687e+00   1.5192848e+01  -6.6633064e+00   9.0326372e+00   0.0000000e+00   3.0000000e+01   5.0000000e+01   0.0000000e+00
   7.3422671e+00  -2.5159587e+00  -1.1448671e+00  -1.4908975e+01   8.0351057e+00   4.6240973e+00   3.1502111e+01  -3.7027634e+00   8.4893358e+00  -8.5982456e+00   7.9773024e+00  -2.3996024e-01   1.4970906e+01   1.4794641e+01   8.6494019e+00  -5.5741855e+00   5.9234367e+00   1.4317450e+01  -6.5254814e+00   9.0779592e+00   0.0000000e+00   3.0000000e+01   5.0000000e+01   0.0000000e+00
   7.9625649e+00  -1.8726234e+00  -1.0309696e-01  -1.5382106e+01   7.6830675e+00   4.9525592e+00   2.9914885e+01  -3.0302239e+00   7.6169618e+00  -1.0774721e+01   7.1072256e+00  -5.7167736e-01   1.4605388e+01   1.3981534e+01   8.2257126e+00  -5.7376781e+00   5.5068036e+00   1.3868184e+01  -6.6019267e+00   9.1701782e+00   0.0000000e+00   3.0000000e+01   5.0000000e+01   0.0000000e+00
   8.7547278e+00  -1.4313025e+00   3.6976598e-01  -1.5715164e+01   7.4620024e+00   5.0938159e+00   2.8237153e+01  -2.5927973e+00   6.6422057e+00  -1.2826971e+01   6.1451464e+00  -7.2272637e-01   1.4457212e+01   1.2806931e+01   7.4374900e+00  -6.1338191e+00   5.3147535e+00   1.3514021e+01  -7.4065730e+00   8.7819752e+00   0.0000000e+00   3.0000000e+01   5.0000000e+01   0.0000000e+00
   9.5332649e+00  -1.3905813e+00   1.7613110e-01  -1.6071597e+01   7.2374998e+00   4.8444411e+00   2.6137220e+01  -2.7781948e+00   5.4239694e+00  -1.4639794e+01   4.9477428e+00  -7.7081015e-01   1.4352651e+01   1.1209423e+01   6.0558767e+00  -6.9903082e+00   5.3367826e+00   1.2739694e+01  -9.0153235e+00   7.6287562e+00   0.0000000e+00   3.0000000e+01   5.0000000e+01   0.0000000e+00
   9.9691923e+00  -1.6981915e+00  -2.6575022e-01  -1.6643288e+01   6.8426181e+00   4.2249990e+00   2.3636572e+01  -3.3337103e+00   4.1650722e+00  -1.6178666e+01   3.6343440e+00  -6.7439545e-01   1.4338450e+01   9.4209182e+00   4.4872996e+00  -8.1002636e+00   5.5170859e+00   1.1701639e+01  -1.0874818e+01   6.1079864e+00   0.0000000e+00   3.0000000e+01   5.0000000e+01   0.0000000e+00
   9.9231496e+00  -2.1858158e+00  -5.0335216e-01  -1.7309763e+01   6.3033991e+00   3.6328834e+00   2.1236193e+01  -3.7986895e+00   3.2640754e+00  -1.7056890e+01   2.6459459e+00  -1.6489128e-01   1.4562371e+01   7.9625600e+00   3.4371265e+00  -8.8422398e+00   5.8230447e+00   1.1100150e+01  -1.2089006e+01   4.9941804e+00   0.0000000e+00   3.0000000e+01   5.0000000e+01   0.0000000e+00
   9.1828391e+00  -2.9820999e+00  -6.1876603e-01  -1.8183424e+01   5.2924198e+00   2.9425180e+00   1.9112757e+01  -4.1923960e+00   2.4159352e+00  -1.7386140e+01   2.1156240e+00   2.0337981e-01   1.4570326e+01   6.7766260e+00   3.0032561e+00  -9.0522358e+00   5.7578527e+00   1.0830423e+01  -1.2455088e+01   4.5675074e+00   0.0000000e+00   3.0000000e+01   5.0000000e+01   0.0000000e+00
   7.5895254e+00  -4.2730650e+00  -7.9165423e-01  -1.9636603e+01   3.3808611e+00   1.6425700e+00   1.7021815e+01  -4.5775022e+00   1.0052670e+00  -1.7528161e+01   1.9759289e+00  -4.3465908e-01   1.3684673e+01   5.4698304e+00   2.8985166e+00  -8.9503725e+00   4.6804384e+00   1.0115065e+01  -1.2478845e+01   4.6124667e+00   0.0000000e+00   3.0000000e+01   5.0000000e+01   0.0000000e+00
   5.4390491e+00  -5.8531469e+00  -9.6494056e-01  -2.1691751e+01   6.6889970e-01  -3.2653114e-01   1.4858913e+01  -4.8271777e+00  -8.7155910e-01  -1.7622107e+01   2.1069630e+00  -2.0459891e+00   1.1779362e+01   3.8997347e+00   2.9018967e+00  -8.6362490e+00   2.5249140e+00   8.7497492e+00  -1.2664732e+01   4.8835418e+00   0.0000000e+00   0.0000000e+00   5.0000000e+01   0.0000000e+00
   3.0437472e+00  -7.4547431e+00  -1.2271111e+00  -2.4155411e+01  -2.4473961e+00  -2.6561444e+00   1.2414126e+01  -5.0973243e+00  -2.8280203e+00  -1.7750594e+01   2.2761349e+00  -4.2572782e+00   9.1042010e+00   1.9364085e+00   2.6202702e+00  -8.2600205e+00  -4.3039743e-01   6.9824650e+00  -1.3364721e+01   5.0255752e+00   0.0000000e+00   0.0000000e+00   5.0000000e+01   0.0000000e+00
   6.8996397e-01  -8.9335768e+00  -1.6378044e+00  -2.6607370e+01  -5.4758672e+00  -4.9733022e+00   9.5908269e+00  -5.5498868e+00  -4.6340607e+00  -1.8057226e+01   2.3674182e+00  -6.5709988e+00   6.2665199e+00  -3.3737550e-01   1.7707158e+00  -7.9859985e+00  -3.6668270e+00   4.8811849e+00  -1.4613870e+01   4.8094133e+00   0.0000000e+00   0.0000000e+00   5.0000000e+01   0.0000000e+00
  -1.2227091e+00  -1.0167145e+01  -1.9335791e+00  -2.8383991e+01  -7.7538742e+00  -6.9094595e+00   6.8327047e+00  -5.9078217e+00  -5.9450010e+00  -1.8350046e+01   2.5157758e+00  -8.1967070e+00   4.2012402e+00  -2.4406370e+00   6.5668775e-01  -7.6252931e+00  -6.3693244e+00   2.5796273e+00  -1.5939099e+01   4.5477083e+00   0.0000000e+00   0.0000000e+00   5.0000000e+01   0.0000000e+00
  -2.6471623e+00  -1.1192612e+01  -1.8261646e+00  -2.9205259e+01  -8.9432596e+00  -8.3342908e+00   4.6497981e+00  -5.8896827e+00  -6.5787320e+00  -1.8308929e+01   2.9631846e+00  -8.8389858e+00   3.3646219e+00  -3.9181760e+00  -2.2957447e-01  -7.1046521e+00  -8.0310035e+00   5.7273959e-01  -1.6803934e+01   4.5982413e+00   0.0000000e+00   0.0000000e+00   5.0000000e+01   0.0000000e+00
  -3.7662695e+00  -1.2094721e+01  -1.3809261e+00  -2.9381212e+01  -9.2616830e+00  -9.3705793e+00   3.1746999e+00  -5.5904572e+00  -6.7832919e+00  -1.8024215e+01   3.6396058e+00  -8.9890925e+00   3.3494952e+00  -4.7753662e+00  -7.4656415e-01  -6.6500815e+00  -8.7576546e+00  -7.3611775e-01  -1.7147755e+01   4.9061631e+00   0.0000000e+00   0.0000000e+00   5.0000000e+01   0.0000000e+00
  -4.7267237e+00  -1.3000958e+01  -1.0449999e+00  -2.9430098e+01  -9.0598491e+00  -1.0166819e+01   2.0903443e+00  -5.4421619e+00  -6.9323945e+00  -1.7931744e+01   4.1229072e+00  -9.1475173e+00   3.5784273e+00  -5.3963010e+00  -1.2243027e+00  -6.5660957e+00  -8.9143504e+00  -1.5653303e+00  -1.7381800e+01   5.0250290e+00   0.0000000e+00   0.0000000e+00   5.0000000e+01   0.0000000e+00
  -5.2340362e+00  -1.3664276e+01  -7.7130276e-01  -2.9160584e+01  -8.1981096e+00  -1.0436266e+01   1.5246431e+00  -5.3375995e+00  -6.8675542e+00  -1.7946676e+01   4.4121779e+00  -8.9331486e+00   4.2369277e+00  -5.6760312e+00  -1.6718094e+00  -6.6576124e+00  -8.4198339e+00  -1.9979558e+00  -1.7536008e+01   4.9758132e+00   0.0000000e+00   0.0000000e+00   5.0000000e+01   0.0000000e+00
  -4.9119711e+00  -1.3646136e+01  -3.0118093e-01  -2.8255030e+01  -6.6103148e+00  -9.9244225e+00   1.8132759e+00  -4.8976987e+00  -6.3508227e+00  -1.7683937e+01   4.6716259e+00  -8.0905982e+00   5.4202440e+00  -5.3978491e+00  -1.8297437e+00  -6.6376298e+00  -7.2414839e+00  -1.6895660e+00  -1.7395500e+01   5.0593541e+00   0.0000000e+00   0.0000000e+00   5.0000000e+01   0.0000000e+00
  -3.9288818e+00  -1.3087107e+01   1.4147858e-01  -2.7062970e+01  -4.8240761e+00  -8.9068604e+00   2.5174750e+00  -4.4015915e+00  -5.6303609e+00  -1.7131231e+01   4.7390690e+00  -7.1229887e+00   6.6520828e+00  -4.8424269e+00  -1.7788225e+00  -6.6938871e+00  -5.8878419e+00  -6.1276563e-01  -1.7120986e+01   5.1115739e+00   0.0000000e+00   0.0000000e+00   5.0000000e+01   0.0000000e+00
  -2.7470872e+00  -1.2340360e+01   4.5184787e-01  -2.6015394e+01  -3.2663537e+00  -7.6414548e+00   3.0840191e+00  -4.1308392e+00  -4.8212343e+00  -1.6712288e+01   4.5411728e+00  -6.3122226e+00   7.8427092e+00  -4.1362998e+00  -1.5711764e+00  -6.8519700e+00  -4.7258482e+00   7.9020239e-01  -1.6851418e+01   5.0248220e+00   0.0000000e+00   0.0000000e+00   5.0000000e+01   0.0000000e+00
  -1.8880465e+00  -1.1698937e+01   7.1586988e-01  -2.5467582e+01  -2.2367171e+00  -6.4000057e+00   3.4441212e+00  -4.0196376e+00  -3.9826590e+00  -1.6906922e+01   4.1747021e+00  -5.6933946e+00   8.8977594e+00  -3.3500290e+00  -1.2399286e+00  -7.0435839e+00  -3.9847821e+00   1.9029516e+00  -1.6532470e+01   4.9218482e+00   0.0000000e+00   0.0000000e+00   5.0000000e+01   0.0000000e+00
  -1.5497437e+00  -1.1224177e+01   8.9810876e-01  -2.5612596e+01  -1.8391751e+00  -5.4456044e+00   3.6062737e+00  -3.9536406e+00  -3.3989726e+00  -1.7226129e+01   3.7705689e+00  -5.4809925e+00   9.4944904e+00  -2.5713818e+00  -8.0761561e-01  -7.2332746e+00  -3.8031405e+00   2.5807726e+00  -1.6052620e+01   4.8861542e+00   0.0000000e+00   0.0000000e+00   5.0000000e+01   0.0000000e+00
  -1.2789154e+00  -1.0637136e+01   1.2147802e+00  -2.5940637e+01  -1.4355324e+00  -4.4888746e+00   3.8199579e+00  -3.6168461e+00  -2.9498496e+00  -1.6945961e+01   3.6732971e+00  -5.4577302e+00   9.8945811e+00  -1.3456915e+00   3.7695198e-02  -7.1413512e+00  -3.6697258e+00   3.4297380e+00  -1.5082070e+01   5.2189298e+00   0.0000000e+00   0.0000000e+00   5.0000000e+01   0.0000000e+00
  -5.4884262e-01  -9.7848944e+00   1.8595550e+00  -2.5748278e+01  -4.6462045e-01  -3.2479891e+00   4.4219694e+00  -2.9006153e+00  -2.2800830e+00  -1.6010491e+01   4.0973822e+00  -5.1062101e+00   1.0587058e+01   5.5296758e-01   1.3664835e+00  -6.6782199e+00  -2.9811782e+00   4.6517567e+00  -1.3563583e+01   6.0299057e+00   0.0000000e+00   0.0000000e+00   5.0000000e+01   0.0000000e+00
   5.5763390e-01  -8.9149552e+00   2.5462125e+00  -2.5026223e+01   8.3763542e-01  -1.9936965e+00   5.2536365e+00  -2.1250711e+00  -1.2616656e+00  -1.4799446e+01   4.7423910e+00  -4.3462749e+00   1.1645377e+01   2.5208615e+00   2.6912791e+00  -6.1147091e+00  -1.7838678e+00   5.7445068e+00  -1.2050548e+01   6.8968210e+00   0.0000000e+00   0.0000000e+00   5.0000000e+01   0.0000000e+00
   1.5627632e+00  -8.4033170e+00   2.9257336e+00  -2.4386004e+01   1.8788982e+00  -1.1987780e+00   5.8633696e+00  -1.5205142e+00  -1.1404953e-01  -1.3770484e+01   5.2690007e+00  -3.6638627e+00   1.2644795e+01   3.8405578e+00   3.6293429e+00  -5.7519227e+00  -6.6576863e-01   6.4941973e+00  -1.1129003e+01   7.4953657e+00   0.0000000e+00   0.0000000e+00   5.0000000e+01   0.0000000e+00
   2.0271179e+00  -8.4448645e+00   2.8807585e+00  -2.4359531e+01   2.2896677e+00  -9.9501598e-01   6.0625049e+00  -1.2175542e+00   7.2716967e-01  -1.3177858e+01   5.5376918e+00  -3.5313240e+00   1.3087946e+01   4.2068682e+00   4.1389927e+00  -5.7281955e+00  -1.7737942e-01   7.0080792e+00  -1.0941136e+01   7.7984009e+00   0.0000000e+00   0.0000000e+00   5.0000000e+01   0.0000000e+00
   2.0120599e+00  -8.7536065e+00   2.7351058e+00  -2.4632352e+01   2.4916154e+00  -7.9152042e-01   6.2687784e+00  -1.0254902e+00   1.0979630e+00  -1.3082809e+01   5.5907159e+00  -3.6491335e+00   1.3056641e+01   3.9753030e+00   4.5172149e+00  -5.7734121e+00  -1.0451976e-01   7.3865150e+00  -1.0987813e+01   8.0740928e+00   0.0000000e+00   0.0000000e+00   5.0000000e+01   0.0000000e+00
   2.0117971e+00  -8.7010573e+00   2.9304111e+00  -2.4478397e+01   3.2165875e+00   8.4783884e-03   6.7496373e+00  -6.3190889e-01   1.1268941e+00  -1.3393061e+01   5.5122631e+00  -3.4607401e+00   1.2973109e+01   3.6572954e+00   5.0132890e+00  -5.6289483e+00   2.0831509e-01   7.7498017e+00  -1.0746485e+01   8.5394284e+00   0.0000000e+00   0.0000000e+00   5.0000000e+01   0.0000000e+00
   2.2339771e+00  -8.1567123e+00   3.4531821e+00  -2.3749589e+01   4.5287874e+00   1.2741818e+00   7.2689026e+00  -1.1103096e-01   1.0580540e+00  -1.3939586e+01   5.3347973e+00  -2.8809129e+00   1.3055832e+01   3.4777594e+00   5.5399521e+00  -5.4072842e+00   1.0216580e+00   8.4347026e+00  -1.0141029e+01   9.1006541e+00   0.0000000e+00   0.0000000e+00   5.0000000e+01   0.0000000e+00
   2.5180666e+00  -7.6280287e+00   3.8731394e+00  -2.2887327e+01   5.9054827e+00   2.5515501e+00   7.6217902e+00   2.9624676e-01   1.0083698e+00  -1.4421471e+01   5.1309763e+00  -2.2637718e+00   1.3217674e+01   3.5082663e+00   5.9387899e+00  -5.2954703e+00   2.0577346e+00   9.6860693e+00  -9.2737121e+00   9.5793501e+00   0.0000000e+00   0.0000000e+00   5.0000000e+01   0.0000000e+00
   2.7047908e+00  -7.6569138e+00   3.9507802e+00  -2.2381834e+01   6.8085909e+00   3.5086738e+00   7.7332089e+00   4.5423696e-01   8.4579249e-01  -1.4856263e+01   4.8233502e+00  -2.0035729e+00   1.3357532e+01   3.6188122e+00   6.1190197e+00  -5.3590357e+00   2.8943697e+00   1.1061458e+01  -8.4137033e+00   9.8737679e+00   0.0000000e+00   0.0000000e+00   5.0000000e+01   0.0000000e+00
   2.7584155e+00  -8.3019079e+00   3.8322040e+00  -2.2385527e+01   7.0496442e+00   3.9592738e+00   7.4855433e+00   3.4096410e-01   4.5431758e-01  -1.5582823e+01   4.3136388e+00  -2.1852478e+00   1.3444237e+01   3.5549968e+00   6.1066773e+00  -5.5282120e+00   3.2517291e+00   1.1856775e+01  -7.9363130e+00   1.0010365e+01   0.0000000e+00   0.0000000e+00   5.0000000e+01   0.0000000e+00
   2.9162888e+00  -9.0530650e+00   3.7981114e+00  -2.2652480e+01   7.0197169e+00   4.0311019e+00   7.0526944e+00   3.0828222e-01   6.6028875e-02  -1.6536357e+01   3.7665593e+00  -2.4602673e+00   1.3491852e+01   3.3559184e+00   6.1038198e+00  -5.5844441e+00   3.2191567e+00   1.2086665e+01  -7.8654708e+00   1.0186199e+01   0.0000000e+00   0.0000000e+00   5.0000000e+01   0.0000000e+00
   3.3457488e+00  -9.4376772e+00   4.0268868e+00  -2.2952761e+01   7.0897683e+00   3.8979923e+00   6.7119788e+00   7.8852078e-01  -2.0211468e-01  -1.7486151e+01   3.3002428e+00  -2.5796752e+00   1.3402326e+01   3.1255577e+00   6.1377296e+00  -5.4335959e+00   3.0138907e+00   1.2069351e+01  -7.9938518e+00   1.0544354e+01   0.0000000e+00   0.0000000e+00   5.0000000e+01   0.0000000e+00
   3.8493498e+00  -9.4519971e+00   4.2795518e+00  -2.3310787e+01   7.1622480e+00   3.5106978e+00   6.3649169e+00   1.5767953e+00  -6.7130628e-01  -1.8465155e+01   2.9855824e+00  -2.7911354e+00   1.2903259e+01   2.7642687e+00   6.1322815e+00  -5.1699272e+00   2.6397469e+00   1.1588860e+01  -8.1866931e+00   1.0995297e+01   0.0000000e+00   0.0000000e+00   5.0000000e+01   0.0000000e+00
   3.9586868e+00  -9.3667504e+00   4.2706252e+00  -2.4037963e+01   6.8510116e+00   2.7395512e+00   5.8707781e+00   2.2555913e+00  -1.5805750e+00  -1.9481568e+01   2.8976331e+00  -3.3695095e+00   1.1814591e+01   2.0933669e+00   6.2048791e+00  -4.9215703e+00   1.8823186e+00   1.0293910e+01  -8.4033913e+00   1.1388021e+01   0.0000000e+00   0.0000000e+00   5.0000000e+01   0.0000000e+00
   3.3293851e+00  -9.4033100e+00   3.8465361e+00  -2.5400138e+01   5.9525231e+00   1.6201877e+00   5.1157780e+00   2.4867062e+00  -2.8221142e+00  -2.0387016e+01   2.8866067e+00  -4.3411107e+00   1.0202252e+01   9.7711526e-01   6.3933375e+00  -4.9788203e+00   6.5203670e-01   8.4424824e+00  -8.7582988e+00   1.1490391e+01   0.0000000e+00   0.0000000e+00   5.0000000e+01   0.0000000e+00
   2.4142632e+00  -9.3428078e+00   3.1976647e+00  -2.6813473e+01   5.0133493e+00   6.6583129e-01   4.1425330e+00   2.2275625e+00  -3.9349405e+00  -2.0979032e+01   2.6795757e+00  -5.1826258e+00   8.6769295e+00  -2.4454531e-01   6.6597745e+00  -5.4730863e+00  -4.8653625e-01   6.8747241e+00  -9.1290988e+00   1.1234292e+01   0.0000000e+00   0.0000000e+00   5.0000000e+01   0.0000000e+00
   2.1467640e+00  -8.8080753e+00   2.7375898e+00  -2.7367395e+01   4.8369909e+00   3.1363259e-01   3.2792643e+00   1.8307201e+00  -4.2716880e+00  -2.1073225e+01   2.3768989e+00  -5.1595463e+00   8.0479157e+00  -8.8677601e-01   7.0576410e+00  -6.0788150e+00  -8.0210837e-01   6.0776945e+00  -9.1708021e+00   1.0878555e+01   0.0000000e+00   0.0000000e+00   5.0000000e+01   0.0000000e+00
   2.6300340e+00  -8.0627678e+00   2.4672710e+00  -2.7239123e+01   5.2712323e+00   2.1718055e-01   2.5111063e+00   1.4605902e+00  -3.8700474e+00  -2.0781751e+01   2.1841728e+00  -4.5092411e+00   8.2460306e+00  -9.8772481e-01   7.4670496e+00  -6.4458480e+00  -5.0180761e-01   5.6649353e+00  -9.0010039e+00   1.0559681e+01   0.0000000e+00   0.0000000e+00   5.0000000e+01   0.0000000e+00
   3.1605315e+00  -7.6746536e+00   2.2488165e+00  -2.7186235e+01   5.6347433e+00  -3.1522669e-02   1.6036431e+00   1.2559979e+00  -3.2818872e+00  -2.0386449e+01   2.0404687e+00  -3.9400896e+00   8.6021154e+00  -1.0290589e+00   7.7799168e+00  -6.3341887e+00  -3.0272660e-01   5.3712988e+00  -8.8200869e+00   1.0405689e+01   0.0000000e+00   0.0000000e+00   5.0000000e+01   0.0000000e+00
   3.2538023e+00  -7.9315750e+00   1.9214795e+00  -2.7550685e+01   5.6994412e+00  -4.3609965e-01   5.0078383e-01   1.2418060e+00  -2.9600256e+00  -2.0153618e+01   1.7205435e+00  -3.7163169e+00   8.6413921e+00  -1.2596637e+00   7.9476636e+00  -5.8569492e+00  -4.8985673e-01   5.3418356e+00  -8.5224750e+00   1.0449622e+01   0.0000000e+00   0.0000000e+00   5.0000000e+01   0.0000000e+00
   2.8948946e+00  -8.7253792e+00   1.3930172e+00  -2.8156147e+01   5.6515175e+00  -8.1765805e-01  -6.1131711e-01   1.2632111e+00  -2.9279007e+00  -2.0141409e+01   1.1736939e+00  -3.6392275e+00   8.4277290e+00  -1.5824542e+00   7.8951936e+00  -5.3680873e+00  -8.0509377e-01   5.5357139e+00  -7.9913626e+00   1.0517487e+01   0.0000000e+00   0.0000000e+00   5.0000000e+01   0.0000000e+00
   2.3397257e+00  -9.6731017e+00   7.9194278e-01  -2.8583814e+01   5.7647467e+00  -1.1374269e+00  -1.4809068e+00   1.2569276e+00  -2.8096099e+00  -2.0190303e+01   7.0666087e-01  -3.4709616e+00   8.2930813e+00  -1.7494512e+00   7.6171044e+00  -5.0131470e+00  -9.0636304e-01   5.6960116e+00  -7.4266194e+00   1.0482347e+01   0.0000000e+00   0.0000000e+00   5.0000000e+01   0.0000000e+00
   1.6258926e+00  -1.0692901e+01   8.1106439e-02  -2.8909873e+01   5.7513364e+00  -1.9129508e+00  -2.3244186e+00   1.0135613e+00  -2.6765397e+00  -2.0538681e+01   2.5699331e-01  -3.4765037e+00   8.0621611e+00  -2.0819221e+00   6.8247754e+00  -5.0395607e+00  -9.9519808e-01   5.4282336e+00  -7.5539570e+00   1.0062951e+01   0.0000000e+00   0.0000000e+00   5.0000000e+01   0.0000000e+00
   7.5638947e-01  -1.1711899e+01  -6.3875666e-01  -2.9375016e+01   5.3156573e+00  -3.2342383e+00  -3.2207912e+00   5.0902774e-01  -2.7181671e+00  -2.1144366e+01  -3.1792110e-01  -3.7943177e+00   7.6823961e+00  -2.7560144e+00   5.6041039e+00  -5.4871533e+00  -1.2072568e+00   4.8030930e+00  -8.5307268e+00   9.2731087e+00   0.0000000e+00   0.0000000e+00   5.0000000e+01   0.0000000e+00
  -2.4356338e-02  -1.2285889e+01  -8.9738913e-01  -2.9791973e+01   4.8805892e+00  -4.2323213e+00  -3.5990156e+00   3.2266453e-01  -2.7828576e+00  -2.1375680e+01  -6.3606586e-01  -4.1106166e+00   7.5731269e+00  -3.1352544e+00   4.8907395e+00  -5.7281957e+00  -1.1794335e+00   4.3408401e+00  -9.3479954e+00   8.7741203e+00   0.0000000e+00   0.0000000e+00   5.0000000e+01   0.0000000e+00
  -5.9336945e-01  -1.2168902e+01  -6.8153678e-01  -3.0114132e+01   4.7496268e+00  -4.4622241e+00  -3.3075606e+00   7.4770364e-01  -2.9623526e+00  -2.0987480e+01  -4.5837056e-01  -4.5344207e+00   7.7160376e+00  -2.9012543e+00   5.2549942e+00  -5.4437948e+00  -9.4986572e-01   4.1162369e+00  -9.2617749e+00   8.9383991e+00   0.0000000e+00   0.0000000e+00   5.0000000e+01   0.0000000e+00
  -1.2102444e+00  -1.1676379e+01  -5.8714573e-01  -3.0693999e+01   4.4709590e+00  -4.4960494e+00  -3.0177806e+00   1.1841323e+00  -3.6636866e+00  -2.0430719e+01  -1.5266129e-01  -5.4942757e+00   7.6955020e+00  -2.7071563e+00   6.1482362e+00  -5.1648387e+00  -1.1240243e+00   3.8562613e+00  -8.7683021e+00   9.3451187e+00   0.0000000e+00   0.0000000e+00   5.0000000e+01   0.0000000e+00
  -2.0585508e+00  -1.1140237e+01  -7.5744276e-01  -3.1601164e+01   3.7223169e+00  -4.7040380e+00  -3.0255596e+00   1.2922196e+00  -4.6959285e+00  -2.0114387e+01   1.6078209e-01  -6.7485144e+00   7.5701286e+00  -2.7460353e+00   7.0402262e+00  -5.1073785e+00  -1.7543668e+00   3.7952534e+00  -8.2793069e+00   9.7666450e+00   0.0000000e+00   0.0000000e+00   5.0000000e+01   0.0000000e+00
  -2.7938469e+00  -1.0583851e+01  -9.2040945e-01  -3.2459137e+01   2.9484872e+00  -4.8728085e+00  -3.1347638e+00   1.2843137e+00  -5.3035062e+00  -2.0410044e+01   6.8231819e-01  -7.6280265e+00   7.8191587e+00  -2.4931543e+00   7.9116689e+00  -5.0597596e+00  -2.2484970e+00   4.2976812e+00  -7.5165708e+00   1.0312323e+01   0.0000000e+00   0.0000000e+00   5.0000000e+01   0.0000000e+00
  -3.2119129e+00  -1.0033577e+01  -1.0422745e+00  -3.3070516e+01   2.6607920e+00  -4.8537267e+00  -3.3760711e+00   1.2704034e+00  -5.3068768e+00  -2.1235702e+01   1.3006894e+00  -8.0536800e+00   8.3942296e+00  -1.8286222e+00   8.7199013e+00  -5.0802618e+00  -2.4289824e+00   5.1803101e+00  -6.5659769e+00   1.0837545e+01   0.0000000e+00   0.0000000e+00   5.0000000e+01   0.0000000e+00
  -3.4373668e+00  -9.5592793e+00  -1.2463642e+00  -3.3525375e+01   2.8678084e+00  -4.6533956e+00  -3.7390769e+00   1.2235569e+00  -5.0853227e+00  -2.1920322e+01   1.7844958e+00  -8.3127104e+00   8.8105651e+00  -9.8641745e-01   9.4670809e+00  -5.2316669e+00  -2.5784201e+00   6.2834971e+00  -5.7586601e+00   1.1195063e+01   0.0000000e+00   0.0000000e+00   5.0000000e+01   0.0000000e+00
  -3.3847061e+00  -9.1225629e+00  -1.6796723e+00  -3.3806271e+01   3.4288367e+00  -4.2112685e+00  -4.0306080e+00   1.0577448e+00  -4.8056853e+00  -2.2098035e+01   2.0434776e+00  -8.3804543e+00   8.9450001e+00  -9.5732306e-02   1.0263385e+01  -5.4555278e+00  -2.7096016e+00   7.7151726e+00  -5.0340673e+00   1.1394768e+01   0.0000000e+00   0.0000000e+00   5.0000000e+01   0.0000000e+00
  -2.9490055e+00  -8.6383492e+00  -2.3695195e+00  -3.3740081e+01   4.3632453e+00  -3.3398012e+00  -4.1633929e+00   7.5617102e-01  -4.2737480e+00  -2.1528349e+01   2.2686831e+00  -8.1515509e+00   9.1805876e+00   9.6733009e-01   1.1314003e+01  -5.6418659e+00  -2.4412506e+00   9.4554983e+00  -4.1097583e+00   1.1569920e+01   0.0000000e+00   0.0000000e+00   5.0000000e+01   0.0000000e+00
  -2.4571051e+00  -8.2378357e+00  -3.2716755e+00  -3.3394181e+01   5.5321941e+00  -2.2731103e+00  -4.1970680e+00   2.6863472e-01  -3.3689769e+00  -2.0303501e+01   2.5626755e+00  -7.6914336e+00   9.7897086e+00   2.1559118e+00   1.2539260e+01  -5.8344270e+00  -1.6921021e+00   1.1173043e+01  -3.0960566e+00   1.1687833e+01   0.0000000e+00   0.0000000e+00   5.0000000e+01   0.0000000e+00
  -2.1092190e+00  -7.9411368e+00  -4.1026916e+00  -3.3017836e+01   6.6703150e+00  -1.3505421e+00  -4.0551464e+00  -2.7400778e-01  -2.3083057e+00  -1.8799598e+01   2.9081790e+00  -7.1922837e+00   1.0583736e+01   3.1443570e+00   1.3596162e+01  -6.0446972e+00  -8.7706355e-01   1.2715034e+01  -2.3559678e+00   1.1698056e+01   0.0000000e+00   0.0000000e+00   5.0000000e+01   0.0000000e+00
  -1.8102716e+00  -7.5885056e+00  -4.5207202e+00  -3.2739291e+01   7.4672414e+00  -6.3635174e-01  -3.7786564e+00  -5.7419019e-01  -1.4165775e+00  -1.7372965e+01   3.3328371e+00  -6.8749434e+00   1.1230443e+01   3.6699666e+00   1.4220389e+01  -6.1471912e+00  -4.0987069e-01   1.4063943e+01  -2.1489836e+00   1.1704813e+01   0.0000000e+00   0.0000000e+00   5.0000000e+01   0.0000000e+00
  -1.6822100e+00  -7.1628119e+00  -4.4805644e+00  -3.2674411e+01   7.7066050e+00  -2.8523064e-01  -3.6103031e+00  -4.4230786e-01  -1.1054430e+00  -1.6397598e+01   3.6974422e+00  -7.0326877e+00   1.1305912e+01   3.5442871e+00   1.4315619e+01  -6.1504279e+00  -4.9865054e-01   1.4682551e+01  -2.6150208e+00   1.1798471e+01   0.0000000e+00   0.0000000e+00   5.0000000e+01   0.0000000e+00
  -1.8590101e+00  -6.6565745e+00  -4.1380145e+00  -3.3040791e+01   7.4194181e+00  -4.8936412e-01  -3.6570372e+00   3.2616100e-02  -1.7596869e+00  -1.6221272e+01   3.7685554e+00  -8.1017817e+00   1.0492361e+01   2.7467669e+00   1.4105736e+01  -6.1638981e+00  -1.2320829e+00   1.4029971e+01  -3.5512229e+00   1.1960107e+01   0.0000000e+00   0.0000000e+00   5.0000000e+01   0.0000000e+00
  -2.3159212e+00  -6.1271132e+00  -3.7991640e+00  -3.3907988e+01   6.7541403e+00  -1.1749843e+00  -4.0281081e+00   3.8392670e-01  -3.2452598e+00  -1.6886937e+01   3.5484274e+00  -1.0062425e+01   8.9904564e+00   1.5416640e+00   1.3771270e+01  -6.2291268e+00  -2.5096941e+00   1.2423930e+01  -4.7085980e+00   1.1958777e+01   0.0000000e+00   0.0000000e+00   5.0000000e+01   0.0000000e+00
  -2.9319481e+00  -5.6459814e+00  -3.6385519e+00  -3.5026363e+01   6.0597216e+00  -1.8470002e+00  -4.7644422e+00   3.5865911e-01  -4.9279419e+00  -1.7942037e+01   3.2476833e+00  -1.2215928e+01   7.4022427e+00   3.0074577e-01   1.3366104e+01  -6.1110889e+00  -3.9099284e+00   1.0750285e+01  -5.8997080e+00   1.1764429e+01   0.0000000e+00   0.0000000e+00   5.0000000e+01   0.0000000e+00
  -3.5317350e+00  -5.2223601e+00  -3.6577142e+00  -3.6040876e+01   5.6183579e+00  -2.1689069e+00  -5.5905177e+00   1.0636027e-01  -6.2745124e+00  -1.8962163e+01   3.0204841e+00  -1.3999062e+01   6.1272336e+00  -7.8682759e-01   1.3075518e+01  -5.6726334e+00  -5.0308359e+00   9.4285552e+00  -6.8591615e+00   1.1542730e+01   0.0000000e+00   0.0000000e+00   5.0000000e+01   0.0000000e+00
  -4.1400833e+00  -4.9264170e+00  -3.9308025e+00  -3.6811706e+01   5.2671168e+00  -2.4334620e+00  -6.3120526e+00  -2.9407116e-01  -7.3205843e+00  -1.9930365e+01   2.8971197e+00  -1.5485548e+01   5.0111356e+00  -1.9194162e+00   1.2943817e+01  -5.2119422e+00  -5.9554755e+00   8.1634866e+00  -7.6251229e+00   1.1281070e+01   0.0000000e+00   0.0000000e+00   5.0000000e+01   0.0000000e+00
  -4.7043700e+00  -4.6620790e+00  -4.3672181e+00  -3.7152739e+01   4.9485560e+00  -2.7343636e+00  -6.6293010e+00  -6.1896758e-01  -8.0413250e+00  -2.0616461e+01   3.0801916e+00  -1.6703203e+01   4.0571814e+00  -2.9733043e+00   1.3129805e+01  -4.7535490e+00  -6.6699544e+00   7.1780295e+00  -8.0556885e+00   1.1206051e+01   0.0000000e+00   0.0000000e+00   5.0000000e+01   0.0000000e+00
  -4.8752781e+00  -4.2188780e+00  -4.7430302e+00  -3.6868923e+01   4.9288505e+00  -2.6812151e+00  -6.1741853e+00  -5.5439504e-01  -8.1592129e+00  -2.0519402e+01   3.7740309e+00  -1.7275109e+01   3.5591201e+00  -3.5055727e+00   1.3874017e+01  -4.1009422e+00  -6.7919668e+00   7.1166083e+00  -7.7695545e+00   1.1729931e+01   0.0000000e+00   0.0000000e+00   5.0000000e+01   0.0000000e+00
  -4.5551019e+00  -3.4302966e+00  -4.9985575e+00  -3.6172701e+01   5.2975773e+00  -2.1727423e+00  -5.1105959e+00  -1.3716491e-01  -7.7649573e+00  -1.9718699e+01   4.7024815e+00  -1.7087127e+01   3.4448188e+00  -3.4578334e+00   1.4942448e+01  -3.5152117e+00  -6.3737259e+00   7.6759867e+00  -6.8295339e+00   1.2794523e+01   0.0000000e+00   0.0000000e+00   5.0000000e+01   0.0000000e+00
  -3.6989853e+00  -2.0761025e+00  -4.9783523e+00  -3.5027827e+01   6.2522818e+00  -1.1401682e+00  -3.6286306e+00   5.6664008e-01  -6.7439781e+00  -1.8780436e+01   5.5818965e+00  -1.6114133e+01   3.8525673e+00  -2.6896435e+00   1.6180340e+01  -3.2638482e+00  -5.4712030e+00   8.4087238e+00  -5.2777910e+00   1.4080356e+01   0.0000000e+00   0.0000000e+00   5.0000000e+01   0.0000000e+00
  -2.0983043e+00  -1.3629659e-01  -4.6192826e+00  -3.3171266e+01   7.9861357e+00   6.0622296e-01  -1.9445408e+00   1.2035883e+00  -4.8404016e+00  -1.7876942e+01   6.1530798e+00  -1.4316580e+01   5.1362947e+00  -1.2403336e+00   1.7520143e+01  -3.6378285e+00  -3.8727852e+00   9.6153756e+00  -3.2260153e+00   1.5003434e+01   0.0000000e+00   0.0000000e+00   5.0000000e+01   0.0000000e+00
   2.4821854e-02   2.0699964e+00  -3.9991852e+00  -3.0929195e+01   1.0082217e+01   2.8208038e+00  -4.8176940e-01   1.1932564e+00  -2.5125723e+00  -1.6976510e+01   5.9876916e+00  -1.2206591e+01   6.9641004e+00   2.1331379e-01   1.8516468e+01  -4.8350037e+00  -1.8072587e+00   1.1482554e+01  -1.3841712e+00   1.4975214e+01   0.0000000e+00   0.0000000e+00   5.0000000e+01   0.0000000e+00
   1.5152907e+00   3.5796278e+00  -3.3382269e+00  -2.9499096e+01   1.1479230e+01   4.4957015e+00   9.6914099e-02   4.8070476e-01  -1.0644249e+00  -1.7058648e+01   4.8812835e+00  -1.1053313e+01   8.2372696e+00   7.1997660e-01   1.8559951e+01  -6.5737883e+00  -3.1049222e-01   1.3025953e+01  -7.6256907e-01   1.3919266e+01   0.0000000e+00   0.0000000e+00   5.0000000e+01   0.0000000e+00
   1.3344502e+00   3.7301899e+00  -2.9066131e+00  -2.9978269e+01   1.1401146e+01   4.7691945e+00  -5.5248713e-01  -2.9078120e-01  -1.6525970e+00  -1.8677555e+01   3.2681346e+00  -1.1968351e+01   8.1368133e+00  -6.0127425e-02   1.7679293e+01  -8.0318683e+00  -3.5365075e-01   1.3145922e+01  -1.5531496e+00   1.2394851e+01   0.0000000e+00   0.0000000e+00   5.0000000e+01   0.0000000e+00
  -3.0098283e-01   2.8395274e+00  -2.8119562e+00  -3.2226374e+01   1.0068972e+01   3.9054378e+00  -1.7844270e+00  -5.9668117e-01  -3.9678651e+00  -2.0809249e+01   1.8980995e+00  -1.4715661e+01   6.8983095e+00  -1.5134645e+00   1.6700692e+01  -8.6016007e+00  -1.7605024e+00   1.2180708e+01  -2.7997383e+00   1.1180043e+01   0.0000000e+00   0.0000000e+00   5.0000000e+01   0.0000000e+00
  -2.5100773e+00   1.3138391e+00  -3.1462986e+00  -3.5244384e+01   8.2360462e+00   2.6928719e+00  -2.6809029e+00  -6.2169714e-01  -6.4913954e+00  -2.2313848e+01   1.3011770e+00  -1.8076999e+01   5.3303273e+00  -2.7943966e+00   1.6492895e+01  -8.4269952e+00  -3.6692648e+00   1.1157810e+01  -3.4605637e+00   1.0724142e+01   0.0000000e+00   0.0000000e+00   5.0000000e+01   0.0000000e+00
  -4.8461823e+00  -5.9790513e-01  -3.8442343e+00  -3.8379809e+01   6.2637413e+00   1.4079841e+00  -3.0781602e+00  -5.3252085e-01  -8.5743161e+00  -2.3050776e+01   1.4083531e+00  -2.1258396e+01   3.7467250e+00  -3.7859643e+00   1.7116234e+01  -7.8428572e+00  -5.7307812e+00   1.0235735e+01  -3.3110345e+00   1.1065694e+01   0.0000000e+00   0.0000000e+00   5.0000000e+01   0.0000000e+00
  -6.8981668e+00  -2.4064376e+00  -4.4187658e+00  -4.1071950e+01   4.5239397e+00   2.6346306e-01  -3.0692947e+00   5.4779940e-02  -1.0238704e+01  -2.3200472e+01   1.9530860e+00  -2.3692472e+01   2.3345867e+00  -4.5636661e+00   1.8262881e+01  -6.8292070e+00  -7.6445155e+00   9.3019128e+00  -2.4645308e+00   1.2151935e+01   0.0000000e+00   0.0000000e+00   5.0000000e+01   0.0000000e+00
  -7.8975627e+00  -3.4699578e+00  -4.3994275e+00  -4.2472627e+01   3.6885893e+00  -2.8517341e-01  -2.5592365e+00   1.4594111e+00  -1.1136275e+01  -2.2668710e+01   2.7272254e+00  -2.4744030e+01   1.7034153e+00  -4.8336057e+00   1.9855673e+01  -5.1977239e+00  -8.6876331e+00   8.9099627e+00  -1.0286572e+00   1.3861820e+01   0.0000000e+00   0.0000000e+00   5.0000000e+01   0.0000000e+00
  -7.9080549e+00  -3.8653203e+00  -3.9970404e+00  -4.2534309e+01   3.6898414e+00  -3.8083921e-01  -1.9492940e+00   3.2802688e+00  -1.1358462e+01  -2.1958150e+01   3.3622293e+00  -2.4763265e+01   1.9810075e+00  -4.6641517e+00   2.1446724e+01  -3.1931733e+00  -8.7931125e+00   9.2803471e+00   4.7296696e-01   1.5667389e+01   0.0000000e+00   0.0000000e+00   5.0000000e+01   0.0000000e+00
  -7.7212420e+00  -4.1710924e+00  -3.7533662e+00  -4.2035261e+01   3.8739234e+00  -6.3199646e-01  -1.7909702e+00   4.7159182e+00  -1.1301803e+01  -2.2044484e+01   3.4841701e+00  -2.4625420e+01   2.6901865e+00  -4.5953169e+00   2.2232887e+01  -1.4823742e+00  -8.5679378e+00   9.7268522e+00   1.3253447e+00   1.6849823e+01   0.0000000e+00   0.0000000e+00   5.0000000e+01   0.0000000e+00
  -7.6823030e+00  -4.5813159e+00  -3.9319447e+00  -4.1531242e+01   3.9587150e+00  -1.4132824e+00  -2.2103279e+00   5.2395522e+00  -1.1064627e+01  -2.2747378e+01   2.9860547e+00  -2.4555827e+01   3.4868179e+00  -5.0033621e+00   2.1800442e+01  -7.1108563e-01  -8.3525655e+00   9.5769347e+00   1.1747808e+00   1.6931355e+01   0.0000000e+00   0.0000000e+00   5.0000000e+01   0.0000000e+00
  -7.4517677e+00  -4.9340999e+00  -4.3108051e+00  -4.0919553e+01   4.1299455e+00  -2.5778827e+00  -2.8854685e+00   5.1080403e+00  -1.0433418e+01  -2.3025180e+01   2.3977498e+00  -2.4140978e+01   4.4271131e+00  -5.5452898e+00   2.0662801e+01  -7.3702781e-01  -7.9789260e+00   9.1389128e+00   3.9983081e-01   1.6172003e+01   0.0000000e+00   0.0000000e+00   5.0000000e+01   0.0000000e+00
  -6.8280801e+00  -5.0738574e+00  -4.6141552e+00  -4.0134370e+01   4.4670298e+00  -3.7188194e+00  -3.5125382e+00   4.8615891e+00  -9.5075891e+00  -2.2883549e+01   1.9824856e+00  -2.3297571e+01   5.4386004e+00  -5.8559566e+00   1.9431017e+01  -1.0769435e+00  -7.4173094e+00   8.8922944e+00  -5.1901594e-01   1.5052968e+01   0.0000000e+00   0.0000000e+00   5.0000000e+01   0.0000000e+00
