nt = 720
nc = 24
channels = F7 T3 T5 Fp1 F3 C3 P3 O1 F8 T4 T6 Fp2 F4 C4 P4 O2 Fz Cz Pz Oz TR SOn Occ RAp
ne = 20
type = B
fsmp = 120.0000000000
band = 0.1 0.2 44 58 0
orig.file = s7_bl1
orig.nt = 286880
orig.sample_range = 256543 260138
orig.fsmp = 600
orig.subject = 7
orig.run = 46
   1.2147017e-01   6.6930720e+00  -1.3265232e+01   5.1164028e+00   3.8256726e+01   1.8685594e+01   2.3851558e+00  -4.4642480e+00   3.6352990e+01  -3.6281641e+00   7.4528235e+00   4.6165159e+01   1.7470318e+01   1.2463194e+01  -2.7963428e+00  -3.1113657e+00   7.6911086e+00  -2.1640319e+00   8.5190787e+00  -3.1769301e-01   0.0000000e+00   0.0000000e+00   0.0000000e+00   0.0000000e+00
   3.8194197e+00   7.6824666e+00  -1.3559088e+01   1.2430033e+01   4.0365908e+01   2.0168833e+01   1.3025308e+00  -6.0308839e+00   5.2217482e+01  -1.5247950e+00   7.2446114e+00   6.8712929e+01   2.2643396e+01   1.1736820e+01  -4.2081305e+00  -4.3018482e+00   1.1121544e+01   1.0733296e+00   9.2048622e+00  -1.1690418e+00   0.0000000e+00   0.0000000e+00   0.0000000e+00   0.0000000e+00
   6.5851801e+00   8.5171553e+00  -1.4152369e+01   1.8250132e+01   4.1181888e+01   2.0748953e+01   3.1773867e-01  -7.5360600e+00   6.3106976e+01  -7.3734045e-01   7.0621872e+00   8.4899016e+01   2.5688290e+01   1.0869301e+01  -5.3376625e+00  -5.3366666e+00   1.3445339e+01   2.6549911e+00   9.4962113e+00  -1.9059861e+00   0.0000000e+00   0.0000000e+00   0.0000000e+00   0.0000000e+00
   8.0033337e+00   8.7281237e+00  -1.4953171e+01   2.1826245e+01   4.1003662e+01   2.0591250e+01  -5.7638191e-01  -8.9221350e+00   7.0317392e+01  -8.6282388e-02   6.9061214e+00   9.5780280e+01   2.7169036e+01   9.9519792e+00  -5.9244391e+00  -6.0730104e+00   1.4723318e+01   3.1705615e+00   9.5908976e+00  -2.3742555e+00   0.0000000e+00   0.0000000e+00   0.0000000e+00   0.0000000e+00
   8.1456658e+00   8.3979053e+00  -1.5564385e+01   2.3389895e+01   4.0121693e+01   2.0227869e+01  -1.3970439e+00  -9.8283282e+00   7.5258962e+01   1.2150351e+00   6.9749567e+00   1.0250585e+02   2.7956068e+01   9.3298501e+00  -5.7965046e+00  -6.2936012e+00   1.5331011e+01   3.4477535e+00   1.0024335e+01  -2.2709747e+00   0.0000000e+00   0.0000000e+00   0.0000000e+00   0.0000000e+00
   7.3134434e+00   7.5159496e+00  -1.5657258e+01   2.3237930e+01   3.9189614e+01   2.0207994e+01  -1.9786673e+00  -1.0009014e+01   7.8946821e+01   2.4857049e+00   7.3058761e+00   1.0617786e+02   2.8944230e+01   9.2483584e+00  -5.0077175e+00  -5.9864441e+00   1.5762795e+01   3.7093173e+00   1.1038709e+01  -1.5419038e+00   0.0000000e+00   0.0000000e+00   0.0000000e+00   0.0000000e+00
   6.2875823e+00   6.4860772e+00  -1.5221598e+01   2.2046828e+01   3.8923494e+01   2.0657491e+01  -2.2887636e+00  -9.5644692e+00   8.1892783e+01   2.9798367e+00   7.7395646e+00   1.0818589e+02   3.0500884e+01   9.6256251e+00  -3.7631222e+00  -5.3290332e+00   1.6381346e+01   4.0041151e+00   1.2361115e+01  -4.2731694e-01   0.0000000e+00   0.0000000e+00   0.0000000e+00   0.0000000e+00
   5.5151640e+00   5.9695571e+00  -1.4611503e+01   2.1026356e+01   3.9051768e+01   2.1183538e+01  -2.6424323e+00  -8.8774799e+00   8.4109448e+01   3.1065477e+00   8.0322859e+00   1.1055789e+02   3.2075257e+01   9.9582117e+00  -2.5309923e+00  -4.5585303e+00   1.6991189e+01   4.5520540e+00   1.3435572e+01   6.7099316e-01   0.0000000e+00   0.0000000e+00   0.0000000e+00   0.0000000e+00
   4.9527623e+00   5.8568389e+00  -1.4158535e+01   2.0461334e+01   3.8979382e+01   2.1491598e+01  -3.3319904e+00  -8.3929747e+00   8.5488083e+01   3.3485362e+00   8.0716931e+00   1.1323083e+02   3.2928474e+01   9.7724933e+00  -1.7934832e+00  -3.9804954e+00   1.7235973e+01   5.2702069e+00   1.3794856e+01   1.3239760e+00   0.0000000e+00   0.0000000e+00   0.0000000e+00   0.0000000e+00
   4.4722235e+00   5.5710168e+00  -1.4145505e+01   1.9928378e+01   3.8488605e+01   2.1391581e+01  -4.6608524e+00  -8.5850223e+00   8.6218669e+01   3.6223248e+00   7.8165762e+00   1.1512791e+02   3.2790148e+01   8.8993596e+00  -1.8588534e+00  -3.9434446e+00   1.6904567e+01   5.4587213e+00   1.3256823e+01   1.0761693e+00   0.0000000e+00   0.0000000e+00   0.0000000e+00   0.0000000e+00
   3.7322094e+00   5.0698170e+00  -1.4530273e+01   1.9125542e+01   3.7768572e+01   2.0962643e+01  -6.3425258e+00  -9.3968052e+00   8.6551183e+01   3.9229025e+00   7.4314490e+00   1.1614608e+02   3.1948696e+01   7.6104395e+00  -2.5452934e+00  -4.3512516e+00   1.6112377e+01   4.8122864e+00   1.2292945e+01   1.5716906e-01   0.0000000e+00   0.0000000e+00   0.0000000e+00   0.0000000e+00
   2.9592215e+00   4.8607720e+00  -1.4783320e+01   1.8188375e+01   3.7374735e+01   2.0647838e+01  -7.6093779e+00  -1.0096161e+01   8.6484452e+01   3.9593409e+00   7.1069041e+00   1.1656524e+02   3.0942715e+01   6.3738205e+00  -3.2868915e+00  -4.6634170e+00   1.5398906e+01   4.0582705e+00   1.1568889e+01  -5.3500834e-01   0.0000000e+00   0.0000000e+00   0.0000000e+00   0.0000000e+00
   2.5233403e+00   5.0826103e+00  -1.4649031e+01   1.7321546e+01   3.7320302e+01   2.0452809e+01  -8.2704755e+00  -1.0228343e+01   8.5971758e+01   3.6595838e+00   6.8506665e+00   1.1640570e+02   2.9852117e+01   5.1484563e+00  -3.9249126e+00  -4.6968543e+00   1.4889856e+01   3.5678310e+00   1.1099342e+01  -6.2880441e-01   0.0000000e+00   0.0000000e+00   0.0000000e+00   0.0000000e+00
   2.1537167e+00   5.3728511e+00  -1.4546108e+01   1.6187426e+01   3.6922832e+01   1.9823625e+01  -8.8369944e+00  -1.0159228e+01   8.4914980e+01   3.2677130e+00   6.5608910e+00   1.1525040e+02   2.8359627e+01   3.4547038e+00  -4.8035734e+00  -4.7447155e+00   1.4038135e+01   2.5844805e+00   1.0299055e+01  -5.0503583e-01   0.0000000e+00   0.0000000e+00   0.0000000e+00   0.0000000e+00
   1.5871707e+00   5.5496763e+00  -1.4650426e+01   1.4660705e+01   3.5852961e+01   1.8626093e+01  -9.5333995e+00  -1.0119732e+01   8.3374764e+01   2.7705563e+00   6.1334341e+00   1.1312019e+02   2.6468401e+01   1.3187728e+00  -5.9938969e+00  -4.8359453e+00   1.2565564e+01   7.4796216e-01   8.9760908e+00  -4.1015495e-01   0.0000000e+00   0.0000000e+00   0.0000000e+00   0.0000000e+00
   7.4543700e-01   5.6130207e+00  -1.4782909e+01   1.3018078e+01   3.4412280e+01   1.7304827e+01  -1.0174091e+01  -9.9998866e+00   8.1604311e+01   2.0216998e+00   5.5325394e+00   1.1054448e+02   2.4475256e+01  -6.3459793e-01  -7.2345166e+00  -4.7944820e+00   1.0816626e+01  -1.2561206e+00   7.5387773e+00  -3.2421493e-01   0.0000000e+00   0.0000000e+00   0.0000000e+00   0.0000000e+00
  -3.1376750e-02   5.3203669e+00  -1.4983492e+01   1.1702294e+01   3.3172951e+01   1.6293112e+01  -1.0736930e+01  -9.8419080e+00   7.9710741e+01   8.3867170e-01   4.7335867e+00   1.0832527e+02   2.2773751e+01  -2.0324360e+00  -8.4509040e+00  -4.6478537e+00   9.3437451e+00  -2.8135849e+00   6.2843296e+00  -3.4798422e-01   0.0000000e+00   0.0000000e+00   0.0000000e+00   0.0000000e+00
  -1.9298521e-01   4.2972834e+00  -1.5328353e+01   1.1065387e+01   3.2581521e+01   1.5779526e+01  -1.1330440e+01  -9.8354358e+00   7.7989414e+01  -8.1154399e-01   3.8122870e+00   1.0710428e+02   2.1671068e+01  -3.0388526e+00  -9.7524996e+00  -4.6218190e+00   8.4852004e+00  -3.9686540e+00   5.3104491e+00  -7.2412523e-01   0.0000000e+00   0.0000000e+00   0.0000000e+00   0.0000000e+00
   1.2366731e-01   3.1806798e+00  -1.5802762e+01   1.1058335e+01   3.2423754e+01   1.5487461e+01  -1.2177817e+01  -1.0080831e+01   7.6827631e+01  -2.4274538e+00   2.9311102e+00   1.0666110e+02   2.1075799e+01  -3.8968076e+00  -1.1123386e+01  -4.7794244e+00   8.1121893e+00  -4.9077224e+00   4.6567434e+00  -1.5095298e+00   0.0000000e+00   0.0000000e+00   0.0000000e+00   0.0000000e+00
   5.3508504e-01   2.6093770e+00  -1.6275375e+01   1.1329530e+01   3.2341768e+01   1.5193166e+01  -1.3159673e+01  -1.0407616e+01   7.6224411e+01  -3.5260784e+00   2.2545829e+00   1.0644879e+02   2.0808486e+01  -4.5439234e+00  -1.2277587e+01  -4.8910979e+00   7.9812702e+00  -5.3588995e+00   4.4260486e+00  -2.3491176e+00   0.0000000e+00   0.0000000e+00   0.0000000e+00   0.0000000e+00
   7.2299630e-01   2.2943892e+00  -1.6602488e+01   1.1546533e+01   3.2214281e+01   1.4849880e+01  -1.4038076e+01  -1.0733263e+01   7.5852998e+01  -4.1574794e+00   1.7340099e+00   1.0611823e+02   2.0696893e+01  -5.0067191e+00  -1.3168658e+01  -4.9589184e+00   7.8832237e+00  -5.2221255e+00   4.4719471e+00  -3.0269343e+00   0.0000000e+00   0.0000000e+00   0.0000000e+00   0.0000000e+00
   4.3608384e-01   1.8573698e+00  -1.6876159e+01   1.1396364e+01   3.1877192e+01   1.4265194e+01  -1.4988167e+01  -1.1165497e+01   7.5146438e+01  -5.1130067e+00   1.0301181e+00   1.0519301e+02   2.0282551e+01  -5.7646336e+00  -1.4201333e+01  -5.3508980e+00   7.4781231e+00  -5.2694952e+00   4.2987656e+00  -3.7064639e+00   0.0000000e+00   0.0000000e+00   0.0000000e+00   0.0000000e+00
   2.4089988e-01   1.3304152e+00  -1.7024909e+01   1.1098890e+01   3.1476672e+01   1.3628429e+01  -1.5983707e+01  -1.1528765e+01   7.4008294e+01  -6.6254815e+00   6.4905314e-02   1.0378066e+02   1.9525298e+01  -6.9866761e+00  -1.5439697e+01  -6.0252463e+00   6.8414358e+00  -5.8683701e+00   3.7123218e+00  -4.3286258e+00   0.0000000e+00   0.0000000e+00   0.0000000e+00   0.0000000e+00
   7.5642468e-01   9.9188606e-01  -1.6727212e+01   1.1116883e+01   3.1334692e+01   1.3354767e+01  -1.6801936e+01  -1.1432222e+01   7.3043250e+01  -7.8855892e+00  -8.5722827e-01   1.0216928e+02   1.8877728e+01  -8.1339798e+00  -1.6492651e+01  -6.4523474e+00   6.3594795e+00  -6.4336102e+00   2.9895839e+00  -4.5891369e+00   0.0000000e+00   0.0000000e+00   0.0000000e+00   0.0000000e+00
   1.5747479e+00   8.4701530e-01  -1.6161751e+01   1.1299378e+01   3.1229249e+01   1.3241579e+01  -1.7590022e+01  -1.1120239e+01   7.2313820e+01  -8.8000946e+00  -1.5326582e+00   1.0037654e+02   1.8340668e+01  -8.7837377e+00  -1.7221031e+01  -6.5488941e+00   6.0366237e+00  -6.7333378e+00   2.2897608e+00  -4.5618665e+00   0.0000000e+00   0.0000000e+00   0.0000000e+00   0.0000000e+00
   1.8889727e+00   8.7533608e-01  -1.5825800e+01   1.1096863e+01   3.0756086e+01   1.2880019e+01  -1.8549516e+01  -1.1150980e+01   7.1541097e+01  -9.3422981e+00  -2.0200421e+00   9.8627609e+01   1.7693539e+01  -9.0465237e+00  -1.7808451e+01  -6.7288464e+00   5.7054029e+00  -7.1419395e+00   1.6024878e+00  -4.5802336e+00   0.0000000e+00   0.0000000e+00   0.0000000e+00   0.0000000e+00
   1.6673861e+00   8.8005242e-01  -1.5779785e+01   1.0537122e+01   3.0009312e+01   1.2373787e+01  -1.9413598e+01  -1.1473704e+01   7.0820096e+01  -9.2803171e+00  -2.4104348e+00   9.7004605e+01   1.6980683e+01  -9.1986192e+00  -1.8327158e+01  -7.0948105e+00   5.3644202e+00  -7.7513325e+00   1.1015403e+00  -4.7489260e+00   0.0000000e+00   0.0000000e+00   0.0000000e+00   0.0000000e+00
   1.6993635e+00   2.9720614e-01  -1.5914431e+01   1.0258280e+01   2.9518829e+01   1.2175777e+01  -1.9925865e+01  -1.1921498e+01   7.0358609e+01  -8.7090533e+00  -2.6494745e+00   9.5623239e+01   1.6423540e+01  -9.3008464e+00  -1.8615859e+01  -7.4941638e+00   5.1813069e+00  -8.0402035e+00   9.9926741e-01  -5.1110291e+00   0.0000000e+00   0.0000000e+00   0.0000000e+00   0.0000000e+00
   2.2131115e+00  -6.9775730e-01  -1.6302140e+01   1.0342944e+01   2.9410305e+01   1.2318582e+01  -2.0390115e+01  -1.2603382e+01   7.0093023e+01  -7.7777010e+00  -2.8378903e+00   9.4424246e+01   1.5886147e+01  -9.4761399e+00  -1.8791474e+01  -7.9385411e+00   5.0214109e+00  -7.9292913e+00   1.1315818e+00  -5.7713212e+00   0.0000000e+00   0.0000000e+00   0.0000000e+00   0.0000000e+00
   2.6456809e+00  -1.3149153e+00  -1.6690691e+01   1.0364997e+01   2.9197434e+01   1.2370057e+01  -2.1026033e+01  -1.3283999e+01   6.9763208e+01  -6.6081390e+00  -3.0085457e+00   9.2896996e+01   1.5030834e+01  -9.9183000e+00  -1.9033472e+01  -8.2851469e+00   4.5227495e+00  -8.0522142e+00   1.3204816e+00  -6.4619015e+00   0.0000000e+00   0.0000000e+00   0.0000000e+00   0.0000000e+00
   2.7747779e+00  -1.4742253e+00  -1.6602657e+01   1.0078391e+01   2.8483482e+01   1.2105577e+01  -2.1603301e+01  -1.3509790e+01   6.9216953e+01  -5.5251530e+00  -2.8680262e+00   9.0817465e+01   1.3845920e+01  -1.0611810e+01  -1.9195989e+01  -8.2669728e+00   3.5877198e+00  -8.6608695e+00   1.7946638e+00  -6.6906588e+00   0.0000000e+00   0.0000000e+00   0.0000000e+00   0.0000000e+00
   2.3816246e+00  -1.6211283e+00  -1.6159991e+01   9.3163281e+00   2.7086152e+01   1.1438187e+01  -2.2095430e+01  -1.3373423e+01   6.8309328e+01  -5.3313744e+00  -2.4512723e+00   8.8455988e+01   1.2246974e+01  -1.1677188e+01  -1.9332513e+01  -8.0769719e+00   2.0870587e+00  -9.5418593e+00   2.7259167e+00  -6.4897235e+00   0.0000000e+00   0.0000000e+00   0.0000000e+00   0.0000000e+00
   1.5507774e+00  -2.0131361e+00  -1.5577493e+01   8.2399489e+00   2.5253575e+01   1.0474101e+01  -2.2538594e+01  -1.3098167e+01   6.7169270e+01  -5.8372483e+00  -1.9958564e+00   8.6149843e+01   1.0346819e+01  -1.3137331e+01  -1.9473207e+01  -7.8458972e+00   2.8103095e-01  -1.0432551e+01   4.4018094e+00  -5.9720976e+00   0.0000000e+00   0.0000000e+00   0.0000000e+00   0.0000000e+00
   1.0741852e+00  -2.4172143e+00  -1.4878816e+01   7.4006322e+00   2.3731232e+01   9.6089885e+00  -2.2745992e+01  -1.2589475e+01   6.5996939e+01  -6.2191019e+00  -1.5592603e+00   8.4302468e+01   8.8836610e+00  -1.4555909e+01  -1.9382688e+01  -7.3491271e+00  -9.6873803e-01  -1.1216767e+01   7.1577689e+00  -5.0076572e+00   0.0000000e+00   0.0000000e+00   0.0000000e+00   0.0000000e+00
   1.4250956e+00  -2.5244729e+00  -1.4304716e+01   7.2736824e+00   2.3149331e+01   9.2368590e+00  -2.2814171e+01  -1.1979956e+01   6.5000033e+01  -6.2382317e+00  -1.1799562e+00   8.3283347e+01   8.4979997e+00  -1.5573941e+01  -1.8975532e+01  -6.6365851e+00  -1.1284131e+00  -1.1764543e+01   1.0545455e+01  -3.8207991e+00   0.0000000e+00   0.0000000e+00   0.0000000e+00   0.0000000e+00
   2.0794927e+00  -2.4814465e+00  -1.4126544e+01   7.7592669e+00   2.3331138e+01   9.4841732e+00  -2.3082526e+01  -1.1591805e+01   6.4413101e+01  -6.0133460e+00  -8.5735576e-01   8.3021496e+01   9.0370411e+00  -1.6245736e+01  -1.8298782e+01  -6.0027182e+00  -5.4016650e-01  -1.1781798e+01   1.3599066e+01  -2.9010588e+00   0.0000000e+00   0.0000000e+00   0.0000000e+00   0.0000000e+00
   2.1867127e+00  -2.7506151e+00  -1.4447318e+01   8.4481785e+00   2.3632530e+01   1.0154639e+01  -2.3651897e+01  -1.1649544e+01   6.4128483e+01  -5.6619578e+00  -6.8451692e-01   8.3074857e+01   9.9127731e+00  -1.6716186e+01  -1.7484316e+01  -5.6987463e+00   1.5436101e-01  -1.1232847e+01   1.5767452e+01  -2.5246576e+00   0.0000000e+00   0.0000000e+00   0.0000000e+00   0.0000000e+00
   1.7475527e+00  -3.4100470e+00  -1.4889304e+01   9.1078367e+00   2.3755305e+01   1.1061384e+01  -2.4180076e+01  -1.2027833e+01   6.3815736e+01  -5.1575751e+00  -7.4069707e-01   8.3003550e+01   1.0712233e+01  -1.6931467e+01  -1.6619122e+01  -5.7006353e+00   6.1903264e-01  -1.0409429e+01   1.7209336e+01  -2.5505900e+00   0.0000000e+00   0.0000000e+00   0.0000000e+00   0.0000000e+00
   1.4524093e+00  -3.6124721e+00  -1.4778135e+01   9.6588789e+00   2.3891284e+01   1.2206042e+01  -2.4178383e+01  -1.2157447e+01   6.3386370e+01  -4.1813648e+00  -8.6958979e-01   8.2572617e+01   1.1531164e+01  -1.6744224e+01  -1.5638783e+01  -5.7575583e+00   9.4970368e-01  -9.3642365e+00   1.8297327e+01  -2.5663441e+00   0.0000000e+00   0.0000000e+00   0.0000000e+00   0.0000000e+00
   1.8940982e+00  -2.7651193e+00  -1.3846898e+01   1.0184364e+01   2.4379957e+01   1.3595442e+01  -2.3460760e+01  -1.1689697e+01   6.3175944e+01  -2.7094761e+00  -8.5181001e-01   8.2059757e+01   1.2710658e+01  -1.6137613e+01  -1.4522940e+01  -5.7463183e+00   1.4936187e+00  -7.8025117e+00   1.9135308e+01  -2.3448706e+00   0.0000000e+00   0.0000000e+00   0.0000000e+00   0.0000000e+00
   2.9002200e+00  -1.4190733e+00  -1.2670769e+01   1.0611815e+01   2.5067745e+01   1.4929319e+01  -2.2481768e+01  -1.1103989e+01   6.3184414e+01  -1.7236806e+00  -7.1728564e-01   8.1850276e+01   1.4058498e+01  -1.5547211e+01  -1.3527555e+01  -5.9762609e+00   2.2189933e+00  -5.9379471e+00   1.9481691e+01  -2.1106037e+00   0.0000000e+00   0.0000000e+00   0.0000000e+00   0.0000000e+00
   3.6387559e+00  -3.8117072e-01  -1.2014959e+01   1.0404203e+01   2.5379959e+01   1.5742665e+01  -2.2002225e+01  -1.1053905e+01   6.3003971e+01  -1.9197654e+00  -6.5490293e-01   8.1423196e+01   1.5005599e+01  -1.5603305e+01  -1.3079268e+01  -6.7837612e+00   2.6444874e+00  -4.7002438e+00   1.9098468e+01  -2.1094866e+00   0.0000000e+00   0.0000000e+00   0.0000000e+00   0.0000000e+00
   3.6628346e+00   6.5639690e-02  -1.1877292e+01   9.4686485e+00   2.5161956e+01   1.6017711e+01  -2.2111517e+01  -1.1382629e+01   6.2506575e+01  -2.3716217e+00  -7.3878680e-01   8.0345834e+01   1.5325703e+01  -1.6337665e+01  -1.3254460e+01  -7.7212415e+00   2.5372381e+00  -4.4895190e+00   1.8302516e+01  -2.0789298e+00   0.0000000e+00   0.0000000e+00   0.0000000e+00   0.0000000e+00
   3.3867408e+00   3.8849806e-01  -1.1709036e+01   8.6082651e+00   2.4808326e+01   1.6255947e+01  -2.2243888e+01  -1.1320192e+01   6.2113670e+01  -2.0536548e+00  -7.1490042e-01   7.9188979e+01   1.5352754e+01  -1.7027044e+01  -1.3607873e+01  -7.9719356e+00   2.2752892e+00  -4.5319137e+00   1.7738748e+01  -1.4583033e+00   0.0000000e+00   0.0000000e+00   0.0000000e+00   0.0000000e+00
   3.2115184e+00   6.7818279e-01  -1.1388147e+01   8.0615825e+00   2.4389007e+01   1.6558403e+01  -2.2265414e+01  -1.0602348e+01   6.2001370e+01  -1.0815007e+00  -3.8764114e-01   7.8291663e+01   1.5327275e+01  -1.7254259e+01  -1.3827141e+01  -7.4321664e+00   2.1434220e+00  -4.3179492e+00   1.7549549e+01  -2.7776086e-01   0.0000000e+00   0.0000000e+00   0.0000000e+00   0.0000000e+00
   2.9905380e+00   5.7072312e-01  -1.1106180e+01   7.6098160e+00   2.3847191e+01   1.6641254e+01  -2.2402241e+01  -9.6238849e+00   6.1816041e+01   1.7949969e-02   9.9153349e-02   7.7493824e+01   1.5283867e+01  -1.7112634e+01  -1.3809199e+01  -6.4887420e+00   2.1541981e+00  -4.1862461e+00   1.7576330e+01   9.9532112e-01   0.0000000e+00   0.0000000e+00   0.0000000e+00   0.0000000e+00
   2.7068504e+00  -8.2747256e-02  -1.0842968e+01   7.2844989e+00   2.3400137e+01   1.6539197e+01  -2.2624479e+01  -8.6320794e+00   6.1537855e+01   1.0649052e+00   7.1341556e-01   7.6720127e+01   1.5383479e+01  -1.6654523e+01  -1.3381031e+01  -5.3395646e+00   2.3620720e+00  -4.1971898e+00   1.7872037e+01   2.2421826e+00   0.0000000e+00   0.0000000e+00   0.0000000e+00   0.0000000e+00
   2.5043607e+00  -1.2321091e+00  -1.0710092e+01   6.9325745e+00   2.2987388e+01   1.6240975e+01  -2.2999192e+01  -7.7574369e+00   6.1401291e+01   2.1032829e+00   1.3481282e+00   7.5712200e+01   1.5559083e+01  -1.6153718e+01  -1.2645715e+01  -4.1639191e+00   2.6426284e+00  -4.0255142e+00   1.8335909e+01   3.3516487e+00   0.0000000e+00   0.0000000e+00   0.0000000e+00   0.0000000e+00
   2.2115839e+00  -2.4628202e+00  -1.0924798e+01   6.5105021e+00   2.2514224e+01   1.5738245e+01  -2.3637275e+01  -7.2194615e+00   6.1637971e+01   3.0302767e+00   1.6807948e+00   7.4729659e+01   1.5702806e+01  -1.5919844e+01  -1.1890405e+01  -3.3438970e+00   2.9373445e+00  -3.6110306e+00   1.8736561e+01   4.0254297e+00   0.0000000e+00   0.0000000e+00   0.0000000e+00   0.0000000e+00
   1.9669583e+00  -3.1112844e+00  -1.1429966e+01   6.2195961e+00   2.2112035e+01   1.5286411e+01  -2.4551535e+01  -7.2187435e+00   6.2187215e+01   3.6483638e+00   1.5582562e+00   7.4308677e+01   1.5833643e+01  -1.6025398e+01  -1.1452509e+01  -3.2586534e+00   3.2863498e+00  -3.3741269e+00   1.8817042e+01   3.9682030e+00   0.0000000e+00   0.0000000e+00   0.0000000e+00   0.0000000e+00
   2.0425279e+00  -2.7135644e+00  -1.1968558e+01   6.0835849e+00   2.1637359e+01   1.4951473e+01  -2.5792724e+01  -7.7675299e+00   6.2445645e+01   3.4910338e+00   1.1434696e+00   7.4106189e+01   1.5706302e+01  -1.6534107e+01  -1.1700914e+01  -3.9425506e+00   3.4267454e+00  -3.6449970e+00   1.8259002e+01   3.0593343e+00   0.0000000e+00   0.0000000e+00   0.0000000e+00   0.0000000e+00
   2.2726436e+00  -1.5278428e+00  -1.2484246e+01   5.7733066e+00   2.0822250e+01   1.4565737e+01  -2.7334896e+01  -8.6991714e+00   6.2013398e+01   2.6500710e+00   5.8101014e-01   7.3435353e+01   1.4925067e+01  -1.7471685e+01  -1.2645204e+01  -5.0489976e+00   3.0062213e+00  -4.1097609e+00   1.6941645e+01   1.4474378e+00   0.0000000e+00   0.0000000e+00   0.0000000e+00   0.0000000e+00
   2.6770171e+00  -1.8143841e-01  -1.3001025e+01   5.1721948e+00   1.9906783e+01   1.4234514e+01  -2.8770861e+01  -9.6495446e+00   6.1246449e+01   1.9422215e+00  -7.7558620e-02   7.2305656e+01   1.3610983e+01  -1.8639326e+01  -1.3923427e+01  -6.0996984e+00   2.2200253e+00  -4.3361536e+00   1.5144837e+01  -3.8759112e-01   0.0000000e+00   0.0000000e+00   0.0000000e+00   0.0000000e+00
   3.3095807e+00   8.1573959e-01  -1.3540132e+01   4.4747391e+00   1.9336008e+01   1.4109993e+01  -2.9798193e+01  -1.0430585e+01   6.0497294e+01   1.6654373e+00  -8.8656795e-01   7.1005503e+01   1.2236088e+01  -1.9921406e+01  -1.5293856e+01  -7.1048691e+00   1.5355242e+00  -4.5700762e+00   1.3212161e+01  -2.0909227e+00   0.0000000e+00   0.0000000e+00   0.0000000e+00   0.0000000e+00
   4.0215361e+00   1.2761763e+00  -1.3927386e+01   3.9913970e+00   1.9417430e+01   1.4366345e+01  -3.0414011e+01  -1.1051451e+01   5.9798566e+01   1.5099787e+00  -1.7933026e+00   6.9767787e+01   1.1228051e+01  -2.1056705e+01  -1.6469906e+01  -8.1730841e+00   1.3392864e+00  -4.9238814e+00   1.1514802e+01  -3.5048579e+00   0.0000000e+00   0.0000000e+00   0.0000000e+00   0.0000000e+00
   4.7274902e+00   1.6412383e+00  -1.4036182e+01   3.9986922e+00   2.0149909e+01   1.5126581e+01  -3.0592106e+01  -1.1385990e+01   5.9227232e+01   1.3830692e+00  -2.4734370e+00   6.8913498e+01   1.0865200e+01  -2.1521889e+01  -1.7005636e+01  -8.9407294e+00   1.8151924e+00  -4.7473325e+00   1.0535528e+01  -4.3293673e+00   0.0000000e+00   0.0000000e+00   0.0000000e+00   0.0000000e+00
   5.4122070e+00   2.1414701e+00  -1.3844932e+01   4.4434722e+00   2.1138743e+01   1.6171506e+01  -3.0300264e+01  -1.1163404e+01   5.9085932e+01   1.5348070e+00  -2.6568298e+00   6.8531172e+01   1.1213867e+01  -2.1172143e+01  -1.6658211e+01  -8.9553156e+00   2.8163747e+00  -3.7432949e+00   1.0557360e+01  -4.1978033e+00   0.0000000e+00   0.0000000e+00   0.0000000e+00   0.0000000e+00
   5.5834274e+00   2.0151956e+00  -1.3478420e+01   4.7237974e+00   2.1632506e+01   1.6988871e+01  -2.9817546e+01  -1.0438239e+01   5.9356220e+01   1.9663333e+00  -2.3463224e+00   6.8116100e+01   1.1904435e+01  -2.0570502e+01  -1.5705784e+01  -8.2655921e+00   3.7348636e+00  -2.7062400e+00   1.1267820e+01  -3.2160206e+00   0.0000000e+00   0.0000000e+00   0.0000000e+00   0.0000000e+00
   4.8059191e+00   6.7093969e-01  -1.3279998e+01   4.2085535e+00   2.1000569e+01   1.7012619e+01  -2.9632708e+01  -9.6045427e+00   5.9580996e+01   2.3666988e+00  -1.6540024e+00   6.7302257e+01   1.2212882e+01  -2.0348330e+01  -1.4700717e+01  -7.3184863e+00   3.7627374e+00  -2.5128521e+00   1.2033331e+01  -1.9641001e+00   0.0000000e+00   0.0000000e+00   0.0000000e+00   0.0000000e+00
   3.5778416e+00  -1.1692676e+00  -1.3266841e+01   3.0183485e+00   1.9229767e+01   1.6120159e+01  -2.9991849e+01  -8.8232960e+00   5.9392841e+01   2.5108846e+00  -8.4791253e-01   6.6190525e+01   1.1617736e+01  -2.0722393e+01  -1.4129962e+01  -6.4684989e+00   2.5363123e+00  -3.1721285e+00   1.2399640e+01  -9.8948803e-01   0.0000000e+00   0.0000000e+00   0.0000000e+00   0.0000000e+00
   2.5907660e+00  -2.7746681e+00  -1.3414812e+01   1.6262667e+00   1.6822274e+01   1.4625844e+01  -3.0899986e+01  -8.1942243e+00   5.8756171e+01   1.9980754e+00  -2.9101133e-01   6.4733299e+01   1.0307822e+01  -2.1535917e+01  -1.4239188e+01  -6.0800159e+00   4.5231683e-01  -4.2939755e+00   1.2050113e+01  -6.9338288e-01   0.0000000e+00   0.0000000e+00   0.0000000e+00   0.0000000e+00
   2.2945479e+00  -3.9457792e+00  -1.3779930e+01   4.8015229e-01   1.4641534e+01   1.2996635e+01  -3.2165067e+01  -7.8881528e+00   5.7997137e+01   9.6380167e-01  -1.9919640e-01   6.3245768e+01   9.0422312e+00  -2.2513429e+01  -1.4886206e+01  -6.2914699e+00  -1.5294013e+00  -5.5620401e+00   1.0917128e+01  -1.1246055e+00   0.0000000e+00   0.0000000e+00   0.0000000e+00   0.0000000e+00
   2.6844537e+00  -4.3803167e+00  -1.4117035e+01  -1.5656954e-01   1.3411205e+01   1.1885286e+01  -3.3311526e+01  -7.8289219e+00   5.7520582e+01   2.2013357e-01  -5.3004305e-01   6.2245849e+01   8.3319627e+00  -2.3419896e+01  -1.5684785e+01  -6.7781327e+00  -2.5886470e+00  -6.5419935e+00   9.4591534e+00  -1.8773307e+00   0.0000000e+00   0.0000000e+00   0.0000000e+00   0.0000000e+00
   3.6617086e+00  -4.1083703e+00  -1.4174681e+01  -9.1460428e-02   1.3331684e+01   1.1855618e+01  -3.3884682e+01  -7.7447394e+00   5.7577717e+01  -4.9300240e-02  -1.1788298e+00   6.1992866e+01   8.2627114e+00  -2.3955026e+01  -1.6287382e+01  -7.3056079e+00  -2.4632656e+00  -6.6144824e+00   8.3444551e+00  -2.5930994e+00   0.0000000e+00   0.0000000e+00   0.0000000e+00   0.0000000e+00
   5.2970693e+00  -3.3330502e+00  -1.4204237e+01   8.4939879e-01   1.4229125e+01   1.2867107e+01  -3.3977924e+01  -7.7268583e+00   5.7982766e+01   7.2645053e-02  -2.0960937e+00   6.2538639e+01   8.7661547e+00  -2.3941078e+01  -1.6742407e+01  -7.9881626e+00  -1.3762952e+00  -5.7109386e+00   7.6987341e+00  -3.4816436e+00   0.0000000e+00   0.0000000e+00   0.0000000e+00   0.0000000e+00
   7.4422201e+00  -2.2213299e+00  -1.4683547e+01   2.6344454e+00   1.5804327e+01   1.4394339e+01  -3.3966432e+01  -8.0631207e+00   5.8414726e+01   5.3384598e-01  -3.0983572e+00   6.3697686e+01   9.8184032e+00  -2.3322483e+01  -1.7147164e+01  -9.0911830e+00   3.0048892e-01  -4.6209386e+00   7.2854170e+00  -4.8508470e+00   0.0000000e+00   0.0000000e+00   0.0000000e+00   0.0000000e+00
   1.0007133e+01  -7.5377724e-01  -1.5501050e+01   5.1804465e+00   1.7877146e+01   1.6132869e+01  -3.3830055e+01  -8.5335770e+00   5.9027559e+01   1.5248736e+00  -3.9837222e+00   6.5236760e+01   1.1506967e+01  -2.2105117e+01  -1.7242698e+01  -1.0667343e+01   2.4170533e+00  -3.7664597e+00   7.1624198e+00  -6.4403782e+00   0.0000000e+00   0.0000000e+00   0.0000000e+00   0.0000000e+00
   1.3149466e+01   1.1831334e+00  -1.5963733e+01   8.3034291e+00   2.0367631e+01   1.8228631e+01  -3.3107835e+01  -8.4156678e+00   6.0343710e+01   3.2748591e+00  -4.7054901e+00   6.7168616e+01   1.3746594e+01  -2.0400527e+01  -1.6805418e+01  -1.2401129e+01   4.9395535e+00  -2.6162864e+00   7.6793040e+00  -7.5708298e+00   0.0000000e+00   0.0000000e+00   0.0000000e+00   0.0000000e+00
   1.6305031e+01   3.0300678e+00  -1.5762758e+01   1.1204396e+01   2.2661423e+01   2.0408799e+01  -3.1743426e+01  -7.5048229e+00   6.1887427e+01   5.0816551e+00  -5.4704052e+00   6.9227701e+01   1.5662517e+01  -1.8780358e+01  -1.6113677e+01  -1.4018046e+01   7.2017914e+00  -1.0859651e+00   8.7031491e+00  -7.9779070e+00   0.0000000e+00   0.0000000e+00   0.0000000e+00   0.0000000e+00
   1.8003735e+01   3.9962415e+00  -1.5008553e+01   1.2660854e+01   2.3728914e+01   2.1838565e+01  -3.0332710e+01  -6.0889384e+00   6.2355420e+01   5.6276958e+00  -6.3850138e+00   7.0171159e+01   1.6219779e+01  -1.7987753e+01  -1.5620758e+01  -1.4995349e+01   8.2461740e+00  -8.8913506e-02   9.6107137e+00  -7.6899858e+00   0.0000000e+00   0.0000000e+00   0.0000000e+00   0.0000000e+00
   1.7463354e+01   3.6049151e+00  -1.4026242e+01   1.2040411e+01   2.2978381e+01   2.1877877e+01  -2.9542859e+01  -4.3902463e+00   6.1277373e+01   4.0189755e+00  -7.2994939e+00   6.9211451e+01   1.5244276e+01  -1.8243906e+01  -1.5498816e+01  -1.4867621e+01   7.7157129e+00  -2.9091838e-01   9.8404641e+00  -6.8804289e+00   0.0000000e+00   0.0000000e+00   0.0000000e+00   0.0000000e+00
   1.5362998e+01   1.9962228e+00  -1.3143971e+01   1.0197888e+01   2.0991317e+01   2.0884580e+01  -2.9451272e+01  -2.5897848e+00   5.9588545e+01   1.7997895e+00  -7.7259993e+00   6.7223528e+01   1.3605667e+01  -1.8989373e+01  -1.5609206e+01  -1.3791870e+01   6.2560858e+00  -1.0213368e+00   9.5142685e+00  -5.8729023e+00   0.0000000e+00   0.0000000e+00   0.0000000e+00   0.0000000e+00
   1.3255631e+01   1.5935143e-01  -1.2240470e+01   8.7417663e+00   1.9149407e+01   1.9970846e+01  -2.9547996e+01  -6.4347407e-01   5.8643490e+01   9.6199941e-01  -7.3589597e+00   6.5635428e+01   1.2580121e+01  -1.9404697e+01  -1.5658587e+01  -1.2131988e+01   5.0976804e+00  -1.1603121e+00   9.3260053e+00  -4.7037423e+00   0.0000000e+00   0.0000000e+00   0.0000000e+00   0.0000000e+00
   1.1661288e+01  -1.4829491e+00  -1.1510404e+01   7.8062646e+00   1.7864181e+01   1.9479352e+01  -2.9843846e+01   9.5850265e-01   5.8238827e+01   1.1566866e+00  -6.7398538e+00   6.4508278e+01   1.2060602e+01  -1.9643572e+01  -1.5789812e+01  -1.0608209e+01   4.3089903e+00  -1.0075832e+00   9.0569702e+00  -3.8166855e+00   0.0000000e+00   0.0000000e+00   0.0000000e+00   0.0000000e+00
   1.0094980e+01  -3.3606848e+00  -1.1224751e+01   6.6237302e+00   1.6590131e+01   1.8975577e+01  -3.0651476e+01   1.6961376e+00   5.7436542e+01   1.5223934e+00  -6.2726386e+00   6.3130376e+01   1.1015962e+01  -2.0382882e+01  -1.6234738e+01  -9.7540017e+00   3.0480354e+00  -1.4412505e+00   8.1019788e+00  -3.6941155e+00   0.0000000e+00   0.0000000e+00   0.0000000e+00   0.0000000e+00
   8.3176669e+00  -5.4663036e+00  -1.1163652e+01   4.9751041e+00   1.4866593e+01   1.8222467e+01  -3.1850188e+01   1.7910985e+00   5.5952650e+01   1.8499705e+00  -5.8833368e+00   6.1238184e+01   9.0865888e+00  -2.1893062e+01  -1.7018971e+01  -9.6552266e+00   9.7442126e-01  -2.5911810e+00   6.4991151e+00  -4.2161770e+00   0.0000000e+00   0.0000000e+00   0.0000000e+00   0.0000000e+00
   6.6498129e+00  -6.8955306e+00  -1.1010732e+01   3.1568021e+00   1.2851060e+01   1.7344572e+01  -3.2996010e+01   1.6924578e+00   5.3940148e+01   2.2207099e+00  -5.5038238e+00   5.8838845e+01   6.7784895e+00  -2.3869882e+01  -1.7998773e+01  -1.0261558e+01  -1.4685022e+00  -4.1825684e+00   4.6915238e+00  -4.9922350e+00   0.0000000e+00   0.0000000e+00   0.0000000e+00   0.0000000e+00
   5.5773315e+00  -7.0666401e+00  -1.0438026e+01   1.7362933e+00   1.1283150e+01   1.6699079e+01  -3.3700703e+01   1.7459286e+00   5.1988065e+01   2.7694327e+00  -5.2325891e+00   5.6431036e+01   5.0284612e+00  -2.5673175e+01  -1.8827282e+01  -1.1180001e+01  -3.3315538e+00  -5.9487717e+00   3.1636079e+00  -5.5692559e+00   0.0000000e+00   0.0000000e+00   0.0000000e+00   0.0000000e+00
   5.2653685e+00  -6.3696739e+00  -9.3456145e+00   1.1705294e+00   1.0702173e+01   1.6486065e+01  -3.3948749e+01   2.0636600e+00   5.0784916e+01   3.5268355e+00  -5.0399696e+00   5.4978263e+01   4.3687082e+00  -2.6821851e+01  -1.9333377e+01  -1.1869318e+01  -3.9298916e+00  -7.4984844e+00   2.1906756e+00  -5.7773049e+00   0.0000000e+00   0.0000000e+00   0.0000000e+00   0.0000000e+00
   5.5170503e+00  -5.6606479e+00  -8.1266349e+00   1.3943738e+00   1.0873620e+01   1.6432442e+01  -3.4114523e+01   2.4869229e+00   5.0331937e+01   4.0728447e+00  -4.8583480e+00   5.4497207e+01   4.4680716e+00  -2.7369233e+01  -1.9617315e+01  -1.2083172e+01  -3.5369567e+00  -8.4514403e+00   1.7418185e+00  -5.8179756e+00   0.0000000e+00   0.0000000e+00   0.0000000e+00   0.0000000e+00
   5.8438251e+00  -5.3291154e+00  -7.4269828e+00   1.7649756e+00   1.1106330e+01   1.6148133e+01  -3.4599738e+01   2.6103269e+00   4.9994894e+01   3.5633524e+00  -4.8212341e+00   5.4178016e+01   4.4736493e+00  -2.7806093e+01  -1.9953005e+01  -1.2089586e+01  -3.1427451e+00  -8.9876601e+00   1.4587398e+00  -5.9573477e+00   0.0000000e+00   0.0000000e+00   0.0000000e+00   0.0000000e+00
   5.7292203e+00  -5.4730312e+00  -7.3456807e+00   1.6961119e+00   1.0702730e+01   1.5484633e+01  -3.5358656e+01   2.2920831e+00   4.9296374e+01   2.0949510e+00  -4.8546073e+00   5.3576356e+01   3.6423245e+00  -2.8527704e+01  -2.0513536e+01  -1.2129936e+01  -3.6085123e+00  -9.6533111e+00   1.0780448e+00  -6.1787424e+00   0.0000000e+00   0.0000000e+00   0.0000000e+00   0.0000000e+00
   4.9865948e+00  -6.0372542e+00  -7.3069521e+00   1.1004842e+00   9.4195739e+00   1.4703055e+01  -3.6023972e+01   1.9777413e+00   4.8414304e+01   8.3242008e-01  -4.7967142e+00   5.2800403e+01   1.9856627e+00  -2.9604975e+01  -2.1088012e+01  -1.2053329e+01  -5.0335943e+00  -1.0575044e+01   6.4335229e-01  -6.2003920e+00   0.0000000e+00   0.0000000e+00   0.0000000e+00   0.0000000e+00
   4.0156354e+00  -6.7799787e+00  -7.2151641e+00   3.1221419e-01   7.5957739e+00   1.4012334e+01  -3.6512381e+01   1.9383418e+00   4.7752263e+01   2.0067040e-01  -4.6882101e+00   5.2183019e+01   7.4496616e-02  -3.0966246e+01  -2.1527366e+01  -1.1986961e+01  -6.9035126e+00  -1.1367403e+01   1.1760995e-01  -6.1637731e+00   0.0000000e+00   0.0000000e+00   0.0000000e+00   0.0000000e+00
   3.5058793e+00  -7.5366734e+00  -7.4626047e+00   4.0447513e-03   5.8707891e+00   1.3216316e+01  -3.7143050e+01   1.7899623e+00   4.7425466e+01  -1.3550385e-01  -4.7947660e+00   5.1788766e+01  -1.6850009e+00  -3.2646492e+01  -2.2224252e+01  -1.2283655e+01  -8.5604019e+00  -1.1891253e+01  -8.5359157e-01  -6.6635936e+00   0.0000000e+00   0.0000000e+00   0.0000000e+00   0.0000000e+00
   3.9607010e+00  -8.1961819e+00  -8.0604439e+00   7.3413761e-01   4.9613873e+00   1.2320702e+01  -3.8056524e+01   1.2586230e+00   4.7507116e+01  -3.8973226e-01  -5.2900215e+00   5.1843245e+01  -2.9403538e+00  -3.4465614e+01  -2.3404655e+01  -1.3016918e+01  -9.4611868e+00  -1.2427541e+01  -2.4601322e+00  -7.8944621e+00   0.0000000e+00   0.0000000e+00   0.0000000e+00   0.0000000e+00
   4.9265957e+00  -9.1773883e+00  -8.9662973e+00   2.1246295e+00   4.7347006e+00   1.1368613e+01  -3.9405396e+01   2.9617455e-01   4.7786603e+01  -7.7371683e-01  -6.2436859e+00   5.2252109e+01  -3.6836464e+00  -3.6203567e+01  -2.4984438e+01  -1.4245349e+01  -9.7531829e+00  -1.3345713e+01  -4.6494404e+00  -9.7077775e+00   0.0000000e+00   0.0000000e+00   0.0000000e+00   0.0000000e+00
   5.5741356e+00  -1.0405921e+01  -1.0013105e+01   3.4078342e+00   4.4551169e+00   1.0303172e+01  -4.1145626e+01  -8.4966038e-01   4.8096167e+01  -1.1616417e+00  -7.3536324e+00   5.2472236e+01  -4.1945086e+00  -3.7641717e+01  -2.6532854e+01  -1.5644864e+01  -9.9186717e+00  -1.4439014e+01  -6.9640412e+00  -1.1601159e+01   0.0000000e+00   0.0000000e+00   0.0000000e+00   0.0000000e+00
   5.5776482e+00  -1.1079189e+01  -1.0658371e+01   4.3580285e+00   3.8595903e+00   9.2799382e+00  -4.2620586e+01  -1.5242558e+00   4.8600470e+01  -1.2033402e+00  -7.9312440e+00   5.2612755e+01  -4.4706586e+00  -3.8282269e+01  -2.7220324e+01  -1.6463073e+01  -1.0080083e+01  -1.5132242e+01  -8.5378711e+00  -1.2706249e+01   0.0000000e+00   0.0000000e+00   0.0000000e+00   0.0000000e+00
   4.8899644e+00  -1.0984769e+01  -1.0673963e+01   4.9105217e+00   3.0145907e+00   8.3481875e+00  -4.3509290e+01  -1.6189628e+00   4.9204003e+01  -1.2682114e+00  -7.7730997e+00   5.2976087e+01  -4.5622623e+00  -3.7954557e+01  -2.6798530e+01  -1.6586098e+01  -1.0277649e+01  -1.5520675e+01  -9.0384535e+00  -1.2834809e+01   0.0000000e+00   0.0000000e+00   0.0000000e+00   0.0000000e+00
   3.7584392e+00  -1.0754065e+01  -1.0357741e+01   5.1228446e+00   2.2048584e+00   7.6256854e+00  -4.3993276e+01  -1.5857728e+00   4.9766739e+01  -1.1308445e+00  -7.2207690e+00   5.3315666e+01  -4.5359801e+00  -3.7092355e+01  -2.5746157e+01  -1.6445262e+01  -1.0495753e+01  -1.5875225e+01  -8.7696561e+00  -1.2548239e+01   0.0000000e+00   0.0000000e+00   0.0000000e+00   0.0000000e+00
   2.8901935e+00  -1.0830178e+01  -9.9276841e+00   5.6100541e+00   2.0308093e+00   7.5745640e+00  -4.4172830e+01  -1.4846525e+00   5.0528032e+01  -5.5180670e-02  -6.5268639e+00   5.3814323e+01  -3.9770661e+00  -3.5846531e+01  -2.4292553e+01  -1.6113319e+01  -1.0262496e+01  -1.5727509e+01  -7.8826257e+00  -1.2129867e+01   0.0000000e+00   0.0000000e+00   0.0000000e+00   0.0000000e+00
   2.5343461e+00  -1.0824827e+01  -9.5101972e+00   6.7847273e+00   2.6674501e+00   8.2247037e+00  -4.4245927e+01  -1.1806922e+00   5.1708643e+01   1.6480057e+00  -5.7736870e+00   5.4856488e+01  -2.5111094e+00  -3.4051722e+01  -2.2531885e+01  -1.5567747e+01  -9.1840397e+00  -1.4653651e+01  -6.4256553e+00  -1.1607142e+01   0.0000000e+00   0.0000000e+00   0.0000000e+00   0.0000000e+00
   2.4072670e+00  -1.0503416e+01  -9.2414020e+00   8.4940104e+00   3.7266342e+00   9.0896306e+00  -4.4387930e+01  -8.4265204e-01   5.3134145e+01   3.3751323e+00  -5.1476692e+00   5.6430736e+01  -3.6703105e-01  -3.1882736e+01  -2.0991366e+01  -1.5035384e+01  -7.4507535e+00  -1.3048253e+01  -4.6829377e+00  -1.1144131e+01   0.0000000e+00   0.0000000e+00   0.0000000e+00   0.0000000e+00
   2.5086840e+00  -1.0111965e+01  -9.1287191e+00   1.0356835e+01   4.7743517e+00   9.8312095e+00  -4.4590450e+01  -7.9017593e-01   5.4594027e+01   4.6892937e+00  -4.8918609e+00   5.8325179e+01   1.8664978e+00  -2.9842474e+01  -2.0123330e+01  -1.4645820e+01  -5.5062926e+00  -1.1507259e+01  -3.2288327e+00  -1.0934548e+01   0.0000000e+00   0.0000000e+00   0.0000000e+00   0.0000000e+00
   3.0427320e+00  -9.7985504e+00  -8.9546887e+00   1.1952233e+01   5.5348424e+00   1.0485247e+01  -4.4661426e+01  -9.5437296e-01   5.5890688e+01   5.4742410e+00  -5.0359028e+00   6.0054400e+01   3.5910178e+00  -2.8387155e+01  -1.9826862e+01  -1.4350887e+01  -3.7582795e+00  -1.0145433e+01  -2.5302591e+00  -1.0910633e+01   0.0000000e+00   0.0000000e+00   0.0000000e+00   0.0000000e+00
   3.9070564e+00  -9.5976370e+00  -8.4889053e+00   1.3248843e+01   6.0756365e+00   1.1220020e+01  -4.4424275e+01  -1.0118200e+00   5.6670512e+01   5.8460219e+00  -5.4592569e+00   6.1194846e+01   4.5686368e+00  -2.7697446e+01  -1.9793920e+01  -1.4177835e+01  -2.3847476e+00  -8.9164769e+00  -2.4288468e+00  -1.0838771e+01   0.0000000e+00   0.0000000e+00   0.0000000e+00   0.0000000e+00
   4.4225267e+00  -9.5110363e+00  -7.9521305e+00   1.4062846e+01   6.3626083e+00   1.1872651e+01  -4.4072375e+01  -1.0725093e+00   5.6570580e+01   5.5171806e+00  -6.1817168e+00   6.1389477e+01   4.7530222e+00  -2.7854634e+01  -2.0062613e+01  -1.4307785e+01  -1.6244703e+00  -8.2447573e+00  -2.6107501e+00  -1.0776322e+01   0.0000000e+00   0.0000000e+00   0.0000000e+00   0.0000000e+00
   4.2988312e+00  -9.3885081e+00  -7.6657503e+00   1.4026693e+01   6.1672313e+00   1.2145761e+01  -4.3752397e+01  -1.3207100e+00   5.5819933e+01   4.0182178e+00  -7.0704546e+00   6.0609371e+01   4.2455047e+00  -2.8680427e+01  -2.0833630e+01  -1.4710808e+01  -1.6357062e+00  -8.4066816e+00  -2.9554868e+00  -1.0823396e+01   0.0000000e+00   0.0000000e+00   0.0000000e+00   0.0000000e+00
   4.1119376e+00  -9.3256785e+00  -7.4687135e+00   1.3462138e+01   5.6514597e+00   1.2203448e+01  -4.3233124e+01  -1.5401478e+00   5.5169317e+01   2.0245160e+00  -7.7860160e+00   5.9710601e+01   3.5464902e+00  -2.9631901e+01  -2.1805433e+01  -1.5018191e+01  -1.9970092e+00  -8.7927475e+00  -3.1819033e+00  -1.0804167e+01   0.0000000e+00   0.0000000e+00   0.0000000e+00   0.0000000e+00
   4.3557412e+00  -9.4741179e+00  -7.0524363e+00   1.3133121e+01   5.2021450e+00   1.2410911e+01  -4.2419749e+01  -1.5779420e+00   5.4949218e+01   9.6009149e-01  -8.1363997e+00   5.9402241e+01   3.1732361e+00  -3.0225257e+01  -2.2316935e+01  -1.5024394e+01  -2.1921731e+00  -8.7617571e+00  -3.0255464e+00  -1.0570685e+01   0.0000000e+00   0.0000000e+00   0.0000000e+00   0.0000000e+00
   4.9515609e+00  -9.8167416e+00  -6.5791749e+00   1.3113910e+01   4.7966257e+00   1.2610683e+01  -4.1693176e+01  -1.7090903e+00   5.4725541e+01   1.1303480e+00  -8.1197564e+00   5.9348643e+01   3.0737303e+00  -3.0406937e+01  -2.2233328e+01  -1.5011200e+01  -2.2699698e+00  -8.6162883e+00  -2.6977208e+00  -1.0349327e+01   0.0000000e+00   0.0000000e+00   0.0000000e+00   0.0000000e+00
   5.5320264e+00  -1.0260405e+01  -6.2020954e+00   1.3184727e+01   4.4962049e+00   1.2736022e+01  -4.1141479e+01  -1.8630243e+00   5.4433623e+01   2.1387492e+00  -7.6894406e+00   5.9259785e+01   3.1121961e+00  -3.0142571e+01  -2.1676146e+01  -1.4977623e+01  -2.2906214e+00  -8.5691223e+00  -2.2827200e+00  -1.0169013e+01   0.0000000e+00   0.0000000e+00   0.0000000e+00   0.0000000e+00
   5.8191500e+00  -1.0546312e+01  -5.7113134e+00   1.3502378e+01   4.7445233e+00   1.3133843e+01  -4.0388833e+01  -1.6056093e+00   5.4517486e+01   3.8872314e+00  -6.7588090e+00   5.9269890e+01   3.3982023e+00  -2.9224746e+01  -2.0502281e+01  -1.4599544e+01  -1.9238662e+00  -7.9651876e+00  -1.4591720e+00  -9.6613274e+00   0.0000000e+00   0.0000000e+00   0.0000000e+00   0.0000000e+00
   5.8445846e+00  -1.0845154e+01  -4.9789937e+00   1.3997411e+01   5.4581323e+00   1.3736659e+01  -3.9321506e+01  -8.4719282e-01   5.4855905e+01   5.9825862e+00  -5.6335872e+00   5.9323039e+01   3.8596123e+00  -2.7981590e+01  -1.8941920e+01  -1.3900965e+01  -1.1210149e+00  -6.5344132e+00  -3.3223630e-01  -8.7374260e+00   0.0000000e+00   0.0000000e+00   0.0000000e+00   0.0000000e+00
   5.7209421e+00  -1.1151507e+01  -4.0663259e+00   1.4302735e+01   6.0849434e+00   1.4012081e+01  -3.8193911e+01   1.0410973e-01   5.4945793e+01   7.2024524e+00  -4.9446227e+00   5.9045473e+01   4.2209269e+00  -2.7172608e+01  -1.7766603e+01  -1.3238623e+01  -2.8273814e-01  -5.0717178e+00   4.5630873e-01  -7.7772186e+00   0.0000000e+00   0.0000000e+00   0.0000000e+00   0.0000000e+00
   5.3849846e+00  -1.1143565e+01  -3.0762751e+00   1.4015932e+01   6.0908334e+00   1.3637253e+01  -3.7401772e+01   8.1845439e-01   5.4268699e+01   6.7286767e+00  -4.9221778e+00   5.7944058e+01   4.0399530e+00  -2.7272252e+01  -1.7611105e+01  -1.2947967e+01   2.2120432e-02  -4.4667243e+00   3.4821551e-01  -7.2805150e+00   0.0000000e+00   0.0000000e+00   0.0000000e+00   0.0000000e+00
   5.0209821e+00  -1.0754202e+01  -1.9672009e+00   1.3282354e+01   5.5580261e+00   1.3048796e+01  -3.6973969e+01   1.1250229e+00   5.2750511e+01   5.6257425e+00  -5.2590489e+00   5.6064415e+01   3.2768986e+00  -2.8058624e+01  -1.8258034e+01  -1.2971952e+01  -2.3879448e-01  -4.4278868e+00  -4.7053520e-01  -7.2411793e+00   0.0000000e+00   0.0000000e+00   0.0000000e+00   0.0000000e+00
   4.8383850e+00  -9.9688134e+00  -6.6537031e-01   1.2799829e+01   5.3203993e+00   1.3009391e+01  -3.6520849e+01   1.1928931e+00   5.1047360e+01   4.8667062e+00  -5.6786397e+00   5.4051161e+01   2.5526115e+00  -2.8798530e+01  -1.9000947e+01  -1.2946422e+01  -3.4108459e-01  -4.0516915e+00  -1.2555656e+00  -7.2161670e+00   0.0000000e+00   0.0000000e+00   0.0000000e+00   0.0000000e+00
   5.0461774e+00  -8.7967623e+00   6.5382681e-01   1.2987440e+01   5.9226581e+00   1.3709706e+01  -3.5766201e+01   1.1616534e+00   4.9810441e+01   4.4714105e+00  -6.0626326e+00   5.2783300e+01   2.3764153e+00  -2.8979463e+01  -1.9401220e+01  -1.2694294e+01   2.3622659e-01  -3.1310427e+00  -1.5056566e+00  -6.9761635e+00   0.0000000e+00   0.0000000e+00   0.0000000e+00   0.0000000e+00
   5.6925506e+00  -7.4955504e+00   1.7863804e+00   1.3518048e+01   7.0552333e+00   1.4820009e+01  -3.4666433e+01   1.0511608e+00   4.9101052e+01   4.3778358e+00  -6.2375111e+00   5.2437414e+01   2.6888031e+00  -2.8546722e+01  -1.9316217e+01  -1.2318778e+01   1.2830361e+00  -1.9703216e+00  -1.2109392e+00  -6.6121042e+00   0.0000000e+00   0.0000000e+00   0.0000000e+00   0.0000000e+00
   6.3144499e+00  -6.4622078e+00   2.7752824e+00   1.3774497e+01   8.0259293e+00   1.5896003e+01  -3.3233456e+01   9.7793550e-01   4.8698816e+01   4.4012470e+00  -6.1102540e+00   5.2402824e+01   3.1256768e+00  -2.7715518e+01  -1.8894116e+01  -1.1880431e+01   2.2589720e+00  -7.0163771e-01  -5.3580459e-01  -6.2114141e+00   0.0000000e+00   0.0000000e+00   0.0000000e+00   0.0000000e+00
   6.6616373e+00  -5.9218245e+00   3.6215667e+00   1.3688826e+01   8.5693749e+00   1.6700359e+01  -3.1483275e+01   8.5154321e-01   4.8412865e+01   4.6549525e+00  -5.7403859e+00   5.2289908e+01   3.4555473e+00  -2.6789861e+01  -1.8377139e+01  -1.1464425e+01   2.9243664e+00   6.3297027e-01   3.9090222e-01  -5.7400725e+00   0.0000000e+00   0.0000000e+00   0.0000000e+00   0.0000000e+00
   7.0619926e+00  -5.7815210e+00   4.4343193e+00   1.3763868e+01   9.0816131e+00   1.7370383e+01  -2.9479916e+01   7.4610403e-01   4.8365145e+01   5.4718106e+00  -5.1111378e+00   5.2195558e+01   3.8418989e+00  -2.5793223e+01  -1.7645572e+01  -1.0833954e+01   3.5232453e+00   1.8777435e+00   1.6005281e+00  -4.9434392e+00   0.0000000e+00   0.0000000e+00   0.0000000e+00   0.0000000e+00
   7.6521580e+00  -5.8777311e+00   5.3818729e+00   1.4381409e+01   1.0085700e+01   1.8236695e+01  -2.7375376e+01   9.4408570e-01   4.8887028e+01   6.8582685e+00  -4.1826932e+00   5.2428290e+01   4.5723439e+00  -2.4376008e+01  -1.6476614e+01  -9.6738451e+00   4.4037726e+00   3.1139329e+00   3.2586937e+00  -3.6563605e+00   1.0000000e+03   0.0000000e+00   0.0000000e+00   0.0000000e+00
   8.2234479e+00  -5.9576430e+00   6.3955609e+00   1.5288096e+01   1.1462516e+01   1.9253660e+01  -2.5492286e+01   1.3634974e+00   5.0010440e+01   8.1016749e+00  -3.0820598e+00   5.2835265e+01   5.5507983e+00  -2.2405960e+01  -1.4929121e+01  -8.1275801e+00   5.4365088e+00   4.6527704e+00   5.2832300e+00  -2.0772726e+00   1.0000000e+03   0.0000000e+00   0.0000000e+00   0.0000000e+00
   8.6870940e+00  -5.5896000e+00   7.2214531e+00   1.6108971e+01   1.2728047e+01   1.9981280e+01  -2.4164235e+01   1.8190038e+00   5.1277637e+01   9.0725819e+00  -2.0046977e+00   5.3053278e+01   6.4086951e+00  -2.0413879e+01  -1.3175099e+01  -6.6151401e+00   6.2775440e+00   6.4773715e+00   7.4165740e+00  -5.1216023e-01   1.0000000e+03   3.0000000e+01   0.0000000e+00   0.0000000e+00
   8.8639311e+00  -4.9844680e+00   7.5034499e+00   1.6604684e+01   1.3523546e+01   2.0076859e+01  -2.3585410e+01   2.1576186e+00   5.1994133e+01   1.0198568e+01  -1.2506238e+00   5.2820784e+01   6.7915160e+00  -1.9289802e+01  -1.1669575e+01  -5.6162292e+00   6.7292812e+00   7.9578868e+00   9.2618570e+00   6.4139671e-01   1.0000000e+03   3.0000000e+01   0.0000000e+00   0.0000000e+00
   8.7889623e+00  -4.7270751e+00   7.3799512e+00   1.6697566e+01   1.3868678e+01   1.9738139e+01  -2.3548143e+01   2.4274196e+00   5.1909961e+01   1.1221259e+01  -9.5999298e-01   5.2062721e+01   6.6253521e+00  -1.9393285e+01  -1.0877807e+01  -5.0897437e+00   6.7688049e+00   8.7322969e+00   1.0539536e+01   1.2085694e+00   1.0000000e+03   3.0000000e+01   0.0000000e+00   0.0000000e+00
   8.6236642e+00  -4.9004328e+00   7.2299617e+00   1.6461326e+01   1.3987575e+01   1.9434052e+01  -2.3686501e+01   2.7132893e+00   5.1323168e+01   1.1781602e+01  -9.9553714e-01   5.0783307e+01   6.1576842e+00  -2.0475773e+01  -1.0926140e+01  -4.7857012e+00   6.5242631e+00   9.1735509e+00   1.1231924e+01   1.2539469e+00   0.0000000e+00   3.0000000e+01   0.0000000e+00   0.0000000e+00
   8.4062700e+00  -5.0192094e+00   7.2997133e+00   1.5903095e+01   1.3829743e+01   1.9245585e+01  -2.3829404e+01   2.9885844e+00   5.0366402e+01   1.1659409e+01  -1.3897237e+00   4.9261932e+01   5.5414670e+00  -2.2105166e+01  -1.1770922e+01  -4.7193723e+00   6.0496586e+00   9.4611734e+00   1.1420479e+01   9.1806827e-01   0.0000000e+00   3.0000000e+01   0.0000000e+00   0.0000000e+00
   8.2221973e+00  -4.7858566e+00   7.7852499e+00   1.5283449e+01   1.3547812e+01   1.9138066e+01  -2.3881240e+01   3.2632440e+00   4.9150588e+01   1.0880987e+01  -2.2032871e+00   4.8159882e+01   4.8324804e+00  -2.3848786e+01  -1.3171761e+01  -4.8868423e+00   5.4528095e+00   9.3375282e+00   1.1307607e+01   4.7917334e-01   0.0000000e+00   3.0000000e+01   0.0000000e+00   0.0000000e+00
   8.2080863e+00  -4.2927711e+00   8.6399233e+00   1.4961121e+01   1.3393569e+01   1.9088271e+01  -2.3841610e+01   3.5525297e+00   4.7791655e+01   9.5294059e+00  -3.3505864e+00   4.7343051e+01   3.9273387e+00  -2.5450276e+01  -1.4751704e+01  -5.2099678e+00   4.7572867e+00   8.7342798e+00   1.1014812e+01   1.0456609e-01   0.0000000e+00   3.0000000e+01   0.0000000e+00   0.0000000e+00
   8.1342774e+00  -3.5907703e+00   9.4475842e+00   1.4574374e+01   1.3042403e+01   1.8775385e+01  -2.3988004e+01   3.7684665e+00   4.6139571e+01   7.5396385e+00  -4.6431587e+00   4.6031788e+01   2.5116982e+00  -2.6836940e+01  -1.6263406e+01  -5.6985887e+00   3.6209740e+00   7.9036131e+00   1.0457852e+01  -3.4124865e-01   0.0000000e+00   3.0000000e+01   0.0000000e+00   0.0000000e+00
   7.3832981e+00  -3.1570168e+00   9.7972227e+00   1.3739290e+01   1.2045416e+01   1.7906500e+01  -2.4554318e+01   3.8093202e+00   4.4423069e+01   5.5366916e+00  -5.6895019e+00   4.4081726e+01   7.1524435e-01  -2.7809159e+01  -1.7409933e+01  -6.2942196e+00   1.9672565e+00   7.0457682e+00   9.7225097e+00  -9.0350239e-01   0.0000000e+00   3.0000000e+01   0.0000000e+00   0.0000000e+00
   6.0304225e+00  -3.4386220e+00   9.7344553e+00   1.3013658e+01   1.0726415e+01   1.6787713e+01  -2.5249560e+01   3.7353994e+00   4.3359308e+01   4.9334191e+00  -6.0089293e+00   4.2263363e+01  -6.3309938e-01  -2.7914400e+01  -1.7624547e+01  -6.6306357e+00   5.8466035e-01   6.3076160e+00   9.3344671e+00  -1.2411928e+00   0.0000000e+00   3.0000000e+01   0.0000000e+00   0.0000000e+00
   4.5756534e+00  -4.3130575e+00   9.4825424e+00   1.2947272e+01   9.7546673e+00   1.5984880e+01  -2.5690699e+01   3.7231501e+00   4.3242424e+01   6.1536933e+00  -5.4646617e+00   4.1339480e+01  -8.9917376e-01  -2.6973702e+01  -1.6745292e+01  -6.4725494e+00   2.1888758e-01   5.9684031e+00   9.6941774e+00  -1.0455390e+00   0.0000000e+00   3.0000000e+01   0.0000000e+00   0.0000000e+00
   3.3772896e+00  -5.2912660e+00   9.0637770e+00   1.3403318e+01   9.4163794e+00   1.5654496e+01  -2.5826880e+01   3.7743087e+00   4.3638369e+01   8.3621724e+00  -4.6066941e+00   4.1357183e+01  -3.4593047e-01  -2.5432016e+01  -1.5486774e+01  -6.1631842e+00   7.3493565e-01   6.2900121e+00   1.0615790e+01  -5.6996270e-01   0.0000000e+00   3.0000000e+01   0.0000000e+00   0.0000000e+00
   2.8386006e+00  -5.7506156e+00   8.5180117e+00   1.4140283e+01   9.7992343e+00   1.5743010e+01  -2.5636476e+01   3.7464217e+00   4.4128192e+01   1.0639995e+01  -4.0738457e+00   4.1838268e+01   5.2820811e-01  -2.3832510e+01  -1.4481773e+01  -6.1089984e+00   1.7341451e+00   7.2618732e+00   1.1706721e+01  -1.6424610e-01   0.0000000e+00   3.0000000e+01   0.0000000e+00   0.0000000e+00
   3.0700000e+00  -5.7985030e+00   8.0883865e+00   1.5096496e+01   1.0855471e+01   1.6189807e+01  -2.4998769e+01   3.6791696e+00   4.4466886e+01   1.2317674e+01  -3.9891199e+00   4.2191898e+01   1.5623104e+00  -2.2411640e+01  -1.3758098e+01  -6.2996340e+00   2.9671600e+00   8.4916118e+00   1.2679584e+01   2.3511359e-01   0.0000000e+00   3.0000000e+01   0.0000000e+00   0.0000000e+00
   3.9060215e+00  -5.6404799e+00   8.1798809e+00   1.6202837e+01   1.2349855e+01   1.6845596e+01  -2.3887746e+01   3.8585067e+00   4.4618437e+01   1.3179413e+01  -4.1868957e+00   4.2626025e+01   2.6563051e+00  -2.1241349e+01  -1.3127592e+01  -6.3872379e+00   4.2144671e+00   9.7038884e+00   1.3466069e+01   8.5605375e-01   0.0000000e+00   3.0000000e+01   0.0000000e+00   0.0000000e+00
   5.1347940e+00  -5.2528223e+00   8.9758488e+00   1.7305352e+01   1.3824174e+01   1.7509085e+01  -2.2508147e+01   4.4764785e+00   4.4946109e+01   1.3324181e+01  -4.4377317e+00   4.3387614e+01   3.5624831e+00  -2.0367875e+01  -1.2600866e+01  -6.0825042e+00   5.2310248e+00   1.0970032e+01   1.4150665e+01   1.7543378e+00   0.0000000e+00   3.0000000e+01   0.0000000e+00   0.0000000e+00
   6.0317271e+00  -4.9140137e+00   9.8520627e+00   1.7789862e+01   1.4396003e+01   1.7551443e+01  -2.1597757e+01   5.0185857e+00   4.5309199e+01   1.2488345e+01  -4.8275396e+00   4.3874261e+01   3.8398716e+00  -2.0125778e+01  -1.2601415e+01  -5.8534614e+00   5.5093829e+00   1.1824755e+01   1.4387352e+01   2.3285120e+00   0.0000000e+00   3.0000000e+01   0.0000000e+00   0.0000000e+00
   5.9565481e+00  -4.9934491e+00   1.0189237e+01   1.7207320e+01   1.3548883e+01   1.6583579e+01  -2.1644102e+01   4.9905186e+00   4.5197112e+01   1.0938126e+01  -5.4097052e+00   4.3601338e+01   3.2856207e+00  -2.0767398e+01  -1.3261614e+01  -6.1193398e+00   4.7620766e+00   1.1516121e+01   1.3793637e+01   2.1370488e+00   0.0000000e+00   3.0000000e+01   0.0000000e+00   0.0000000e+00
   5.1440892e+00  -5.4136601e+00   1.0100534e+01   1.5791872e+01   1.1647626e+01   1.5001505e+01  -2.2349075e+01   4.5788621e+00   4.4594613e+01   9.6171856e+00  -5.9428558e+00   4.2580702e+01   2.1518549e+00  -2.2071051e+01  -1.4354248e+01  -6.6673723e+00   3.1957231e+00   1.0062862e+01   1.2459309e+01   1.4832269e+00   0.0000000e+00   3.0000000e+01   0.0000000e+00   0.0000000e+00
   3.9130706e+00  -5.7489988e+00   1.0076631e+01   1.3956433e+01   9.3227119e+00   1.3336702e+01  -2.3230987e+01   4.2742208e+00   4.3726705e+01   8.7672972e+00  -6.2728673e+00   4.0984707e+01   6.4652752e-01  -2.3548043e+01  -1.5674553e+01  -7.1456826e+00   1.1900845e+00   8.2126300e+00   1.0663266e+01   8.2112372e-01   0.0000000e+00   3.0000000e+01   0.0000000e+00   0.0000000e+00
   2.7371004e+00  -5.7368869e+00   1.0485813e+01   1.2203012e+01   7.2097509e+00   1.2030914e+01  -2.3839057e+01   4.4173651e+00   4.2839852e+01   8.4160609e+00  -6.4409856e+00   3.9181450e+01  -9.6629973e-01  -2.4763542e+01  -1.6957262e+01  -7.3050859e+00  -7.2974411e-01   6.6269133e+00   8.8721749e+00   5.0363272e-01   0.0000000e+00   3.0000000e+01   0.0000000e+00   0.0000000e+00
   1.8558036e+00  -5.4336894e+00   1.1099940e+01   1.0832026e+01   5.6943309e+00   1.1290726e+01  -2.4054767e+01   4.7303245e+00   4.2208299e+01   8.4966845e+00  -6.7018609e+00   3.7582111e+01  -2.2310870e+00  -2.5489420e+01  -1.7964643e+01  -7.2284706e+00  -2.0881452e+00   5.2782331e+00   7.5623226e+00   5.1593621e-01   0.0000000e+00   3.0000000e+01   0.0000000e+00   0.0000000e+00
   1.2029927e+00  -5.0732344e+00   1.1572650e+01   1.0145388e+01   5.1333342e+00   1.1370824e+01  -2.3883144e+01   4.9411714e+00   4.2210048e+01   8.9428513e+00  -6.9723316e+00   3.6625914e+01  -2.5564041e+00  -2.5419415e+01  -1.8309073e+01  -6.9781631e+00  -2.3446168e+00   4.3375244e+00   7.1206928e+00   7.1666154e-01   0.0000000e+00   3.0000000e+01   0.0000000e+00   0.0000000e+00
   1.0331092e+00  -4.7887637e+00   1.1895037e+01   1.0393814e+01   5.6731022e+00   1.2437224e+01  -2.3272816e+01   5.1023353e+00   4.2831655e+01   9.7695437e+00  -6.9935825e+00   3.6566266e+01  -1.7153009e+00  -2.4596823e+01  -1.7919486e+01  -6.5014452e+00  -1.2621278e+00   4.3987911e+00   7.6257375e+00   1.0110221e+00   0.0000000e+00   3.0000000e+01   0.0000000e+00   0.0000000e+00
   9.7439610e-01  -5.1711109e+00   1.1836475e+01   1.0948377e+01   6.5035909e+00   1.3704022e+01  -2.2703730e+01   4.8624535e+00   4.3396879e+01   1.0646978e+01  -6.9068936e+00   3.6935065e+01  -5.7816903e-01  -2.3866975e+01  -1.7450640e+01  -6.1482778e+00   2.6828938e-01   5.0842314e+00   8.3744072e+00   1.0171277e+00   0.0000000e+00   3.0000000e+01   0.0000000e+00   0.0000000e+00
   5.1972885e-01  -6.3313373e+00   1.1273127e+01   1.1089957e+01   6.7035088e+00   1.4206463e+01  -2.2685305e+01   4.0253668e+00   4.3376439e+01   1.1196235e+01  -6.9346366e+00   3.7109704e+01  -1.7403628e-01  -2.3896704e+01  -1.7338524e+01  -6.2096310e+00   1.0963533e+00   5.2947075e+00   8.5633186e+00   5.5075948e-01   0.0000000e+00   3.0000000e+01   0.0000000e+00   0.0000000e+00
  -1.8735885e-01  -7.6504492e+00   1.0572818e+01   1.0765803e+01   6.0311196e+00   1.3781984e+01  -2.3161488e+01   3.0144105e+00   4.2894835e+01   1.1626360e+01  -6.9645495e+00   3.6942454e+01  -7.2286541e-01  -2.4610865e+01  -1.7445775e+01  -6.4874860e+00   8.4394151e-01   4.5971829e+00   8.0532968e+00  -8.3409062e-02   0.0000000e+00   3.0000000e+01   0.0000000e+00   0.0000000e+00
  -7.9748888e-01  -9.0731427e+00   1.0058581e+01   1.0247120e+01   4.7803063e+00   1.2739785e+01  -2.3873409e+01   2.3023765e+00   4.2356494e+01   1.2068009e+01  -6.8138586e+00   3.6528740e+01  -1.7922565e+00  -2.5545853e+01  -1.7428446e+01  -6.6767769e+00  -1.6594582e-01   3.4833339e+00   7.1864710e+00  -5.3771332e-01   0.0000000e+00   3.0000000e+01   0.0000000e+00   0.0000000e+00
  -6.5913981e-01  -1.0235530e+01   9.7758982e+00   1.0058596e+01   3.7894047e+00   1.1561754e+01  -2.4578000e+01   2.0610460e+00   4.2204098e+01   1.2529720e+01  -6.4047425e+00   3.5972431e+01  -2.5844413e+00  -2.6100891e+01  -1.6994070e+01  -6.5952064e+00  -1.0268115e+00   2.6967273e+00   6.4716032e+00  -7.1349038e-01   0.0000000e+00   3.0000000e+01   0.0000000e+00   0.0000000e+00
   3.8312902e-01  -1.0427082e+01   9.5820538e+00   1.0416016e+01   3.6378373e+00   1.0610030e+01  -2.5082629e+01   2.0493994e+00   4.2398095e+01   1.3396156e+01  -5.8403537e+00   3.5562966e+01  -2.7634133e+00  -2.6110130e+01  -1.6212789e+01  -6.4288536e+00  -1.1729817e+00   2.3369997e+00   6.2080328e+00  -7.8361683e-01   0.0000000e+00   3.0000000e+01   0.0000000e+00   0.0000000e+00
   1.6059123e+00  -9.7865343e+00   9.4014056e+00   1.1001658e+01   3.9921110e+00   1.0147654e+01  -2.5190173e+01   1.9949534e+00   4.2428202e+01   1.4407190e+01  -5.5152705e+00   3.5408070e+01  -2.6929397e+00  -2.5817163e+01  -1.5369858e+01  -6.4834723e+00  -9.6726327e-01   2.1167121e+00   6.4078473e+00  -9.3310726e-01   0.0000000e+00   3.0000000e+01   0.0000000e+00   0.0000000e+00
   2.5425233e+00  -8.5803097e+00   9.4692555e+00   1.1568306e+01   4.3971268e+00   1.0419415e+01  -2.4748168e+01   2.0343123e+00   4.2253696e+01   1.5169291e+01  -5.6047418e+00   3.5190821e+01  -2.6129586e+00  -2.5291961e+01  -1.4541892e+01  -6.7178568e+00  -8.1247500e-01   2.2758435e+00   7.0774009e+00  -1.0698715e+00   0.0000000e+00   3.0000000e+01   0.0000000e+00   0.0000000e+00
   3.2406205e+00  -7.0020315e+00   1.0027861e+01   1.2039102e+01   4.7036563e+00   1.1271020e+01  -2.3778834e+01   2.3957335e+00   4.2134284e+01   1.5420308e+01  -5.8373119e+00   3.4759428e+01  -2.5972532e+00  -2.4521941e+01  -1.3760451e+01  -6.8739215e+00  -7.9620128e-01   2.9772709e+00   8.0964688e+00  -9.5060407e-01   0.0000000e+00   3.0000000e+01   0.0000000e+00   0.0000000e+00
   3.8111198e+00  -5.4267263e+00   1.0881133e+01   1.2401830e+01   4.8045939e+00   1.2194096e+01  -2.2474040e+01   2.9246508e+00   4.2181332e+01   1.5136991e+01  -5.8614257e+00   3.4210986e+01  -2.6920613e+00  -2.3693552e+01  -1.3115871e+01  -6.8545673e+00  -9.2462940e-01   3.7224416e+00   9.1393670e+00  -5.8455868e-01   0.0000000e+00   3.0000000e+01   0.0000000e+00   0.0000000e+00
   4.1211596e+00  -4.3142361e+00   1.1333653e+01   1.2564314e+01   4.6689699e+00   1.2759724e+01  -2.1247236e+01   3.0527417e+00   4.2164303e+01   1.4747114e+01  -5.7258679e+00   3.3549416e+01  -2.8922785e+00  -2.3211590e+01  -1.2849966e+01  -6.9919980e+00  -1.2008220e+00   4.0110450e+00   9.8584534e+00  -4.0565868e-01   0.0000000e+00   3.0000000e+01   0.0000000e+00   0.0000000e+00
   3.9563741e+00  -4.2211513e+00   1.0911626e+01   1.2379112e+01   4.2869059e+00   1.2841156e+01  -2.0645134e+01   2.3913782e+00   4.2033817e+01   1.4537226e+01  -5.6007165e+00   3.2881714e+01  -3.1805480e+00  -2.3481508e+01  -1.3308841e+01  -7.6137077e+00  -1.5889388e+00   3.9584244e+00   9.9752794e+00  -8.4120151e-01   0.0000000e+00   3.0000000e+01   0.0000000e+00   0.0000000e+00
   3.7038141e+00  -5.3690999e+00   9.8881082e+00   1.2051782e+01   3.8547658e+00   1.2728555e+01  -2.0813626e+01   1.2277161e+00   4.2225293e+01   1.4619541e+01  -5.5262371e+00   3.2605538e+01  -3.3793117e+00  -2.4465062e+01  -1.4501109e+01  -8.4810978e+00  -1.7522538e+00   4.0185512e+00   9.5217914e+00  -1.7391701e+00   0.0000000e+00   3.0000000e+01   0.0000000e+00   0.0000000e+00
   4.1555538e+00  -6.9721824e+00   8.8467852e+00   1.2071921e+01   3.8848998e+00   1.2728000e+01  -2.1534341e+01   1.5518548e-01   4.2956585e+01   1.4713885e+01  -5.4007195e+00   3.3051945e+01  -3.1766673e+00  -2.5483036e+01  -1.5908827e+01  -9.0956822e+00  -1.2576202e+00   4.3142566e+00   8.8237994e+00  -2.5387430e+00   0.0000000e+00   3.0000000e+01   0.0000000e+00   0.0000000e+00
   5.2604369e+00  -8.1967062e+00   8.1961432e+00   1.2591532e+01   4.5244572e+00   1.2805509e+01  -2.2591392e+01  -4.5172524e-01   4.3767561e+01   1.4439477e+01  -5.0697184e+00   3.4051737e+01  -2.5205989e+00  -2.5815907e+01  -1.6898881e+01  -9.1086998e+00  -2.0825423e-01   4.6985811e+00   8.1470722e+00  -2.8600003e+00   0.0000000e+00   3.0000000e+01   0.0000000e+00   0.0000000e+00
   6.0339956e+00  -9.1555797e+00   7.8829770e+00   1.3040682e+01   5.0993342e+00   1.2513425e+01  -2.3798643e+01  -7.2024683e-01   4.3980768e+01   1.4081454e+01  -4.6255224e+00   3.4774711e+01  -1.9925358e+00  -2.5583581e+01  -1.7384921e+01  -8.7029794e+00   5.8598809e-01   5.0805844e+00   7.3827534e+00  -2.9342748e+00   0.0000000e+00   3.0000000e+01   0.0000000e+00   0.0000000e+00
   6.0450298e+00  -9.8735941e+00   7.7766648e+00   1.2842329e+01   4.9818235e+00   1.1530363e+01  -2.4816583e+01  -9.4138046e-01   4.3466452e+01   1.3847494e+01  -4.2628410e+00   3.4342826e+01  -2.1418549e+00  -2.5386911e+01  -1.7498826e+01  -8.3128788e+00   5.6830743e-01   5.3292074e+00   6.4116854e+00  -3.1319113e+00   0.0000000e+00   3.0000000e+01   0.0000000e+00   0.0000000e+00
   5.9437308e+00  -9.8404646e+00   8.1087995e+00   1.2213973e+01   4.4399929e+00   1.0377544e+01  -2.5068083e+01  -9.4393531e-01   4.2434804e+01   1.3722769e+01  -3.9121773e+00   3.2949480e+01  -2.8641004e+00  -2.5262313e+01  -1.7063061e+01  -7.8051775e+00   1.0168075e-01   5.3102600e+00   5.6067753e+00  -3.2422921e+00   0.0000000e+00   3.0000000e+01   0.0000000e+00   0.0000000e+00
   6.3272569e+00  -8.9433037e+00   8.7902577e+00   1.1456667e+01   3.8915483e+00   9.4804855e+00  -2.4662365e+01  -6.8975831e-01   4.0937594e+01   1.3725561e+01  -3.5233095e+00   3.1442536e+01  -4.0938977e+00  -2.5146017e+01  -1.6195243e+01  -7.1393692e+00  -5.3603082e-01   4.9885583e+00   5.1159682e+00  -3.1941922e+00   0.0000000e+00   3.0000000e+01   0.0000000e+00   0.0000000e+00
   6.9338833e+00  -7.5932509e+00   9.2792350e+00   1.0552114e+01   3.3581020e+00   8.6505550e+00  -2.4403528e+01  -5.4368424e-01   3.8999955e+01   1.3554718e+01  -3.2296991e+00   3.0074393e+01  -5.8609549e+00  -2.5210771e+01  -1.5382481e+01  -6.7048972e+00  -1.4890724e+00   4.4789132e+00   4.6620990e+00  -3.2665984e+00   0.0000000e+00   3.0000000e+01   0.0000000e+00   0.0000000e+00
   7.1693423e+00  -6.2921240e+00   9.2941265e+00   9.5250241e+00   2.7141889e+00   7.7069178e+00  -2.4673888e+01  -7.6703344e-01   3.6877576e+01   1.3193954e+01  -2.9670323e+00   2.8726257e+01  -7.9370069e+00  -2.5593318e+01  -1.4932798e+01  -6.7409935e+00  -2.8341873e+00   3.8101320e+00   4.1044252e+00  -3.5347552e+00   0.0000000e+00   3.0000000e+01   0.0000000e+00   0.0000000e+00
   7.0605266e+00  -5.4870615e+00   9.1029921e+00   8.6850657e+00   1.9398607e+00   6.8349899e+00  -2.5128248e+01  -1.1165505e+00   3.4905119e+01   1.2943311e+01  -2.5987235e+00   2.7529135e+01  -9.9480869e+00  -2.6238287e+01  -1.4829138e+01  -6.9674285e+00  -4.3439778e+00   2.8068504e+00   3.5576132e+00  -3.6967723e+00   0.0000000e+00   3.0000000e+01   0.0000000e+00   0.0000000e+00
   7.5294136e+00  -5.2357265e+00   9.1698630e+00   8.7849014e+00   1.6290020e+00   6.7452691e+00  -2.5110458e+01  -1.0344844e+00   3.3836724e+01   1.3132581e+01  -2.0068086e+00   2.7149899e+01  -1.0989481e+01  -2.6447965e+01  -1.4682914e+01  -6.8899109e+00  -5.1058693e+00   1.8235576e+00   3.4540933e+00  -3.2871551e+00   0.0000000e+00   3.0000000e+01   0.0000000e+00   0.0000000e+00
   9.2554902e+00  -4.7306828e+00   9.5168391e+00   1.0325515e+01   2.4959811e+00   8.0970388e+00  -2.4335096e+01  -5.7535617e-01   3.4604925e+01   1.3753499e+01  -1.2007080e+00   2.8382279e+01  -1.0092763e+01  -2.5406417e+01  -1.4119913e+01  -6.5743638e+00  -4.1377821e+00   1.8373544e+00   4.1925131e+00  -2.3969795e+00   0.0000000e+00   3.0000000e+01   0.0000000e+00   0.0000000e+00
   1.1854706e+01  -3.4451979e+00   9.7650902e+00   1.2989338e+01   4.4557770e+00   1.0643613e+01  -2.3150729e+01  -3.9904591e-01   3.7105295e+01   1.4814403e+01  -6.5331745e-01   3.1249552e+01  -7.4059370e+00  -2.3227819e+01  -1.3254555e+01  -6.7725500e+00  -1.5370097e+00   3.2435601e+00   5.5667861e+00  -1.7493457e+00   0.0000000e+00   3.0000000e+01   0.0000000e+00   0.0000000e+00
   1.4534842e+01  -1.9825364e+00   9.5805336e+00   1.6005379e+01   6.8475765e+00   1.3528310e+01  -2.2086058e+01  -8.2221927e-01   4.0240592e+01   1.6223078e+01  -8.6377470e-01   3.4727342e+01  -4.0174673e+00  -2.0796336e+01  -1.2433996e+01  -7.9341775e+00   1.7016887e+00   5.3205579e+00   6.9762606e+00  -1.8260535e+00   0.0000000e+00   3.0000000e+01   0.0000000e+00   0.0000000e+00
   1.6421588e+01  -1.0675186e+00   9.1291152e+00   1.8389750e+01   8.7311938e+00   1.5870650e+01  -2.1342107e+01  -1.2726851e+00   4.2550751e+01   1.6981747e+01  -1.7143778e+00   3.7209433e+01  -1.2460885e+00  -1.8930622e+01  -1.1748257e+01  -9.1754399e+00   4.3732770e+00   7.1415621e+00   7.9180858e+00  -2.2144428e+00   0.0000000e+00   3.0000000e+01   0.0000000e+00   0.0000000e+00
   1.6950367e+01  -8.8165441e-01   9.0376565e+00   1.9457365e+01   9.4851914e+00   1.7282352e+01  -2.0702631e+01  -8.6302576e-01   4.3224102e+01   1.6600188e+01  -2.5536370e+00   3.7719278e+01   1.3611218e-01  -1.7848481e+01  -1.0948052e+01  -9.1729387e+00   5.7445280e+00   8.4827029e+00   8.3704443e+00  -2.0777855e+00   0.0000000e+00   3.0000000e+01   0.0000000e+00   0.0000000e+00
   1.6318766e+01  -1.1803702e+00   9.4048024e+00   1.9313142e+01   9.3613477e+00   1.8024583e+01  -1.9959108e+01   4.6394459e-01   4.2521279e+01   1.6041900e+01  -2.8021243e+00   3.6328069e+01   2.7288260e-01  -1.7160104e+01  -9.7621164e+00  -7.7430660e+00   6.0572207e+00   9.6217383e+00   8.8419121e+00  -1.1257710e+00   0.0000000e+00   3.0000000e+01   0.0000000e+00   0.0000000e+00
   1.5099712e+01  -1.8586889e+00   9.7455497e+00   1.8497018e+01   8.8810127e+00   1.8407859e+01  -1.9209667e+01   1.9493112e+00   4.1111129e+01   1.6020354e+01  -2.5032427e+00   3.3988455e+01  -3.4583075e-01  -1.6518754e+01  -8.2513631e+00  -5.7200972e+00   5.9476011e+00   1.0637255e+01   9.6889136e+00   2.1071633e-01   0.0000000e+00   3.0000000e+01   0.0000000e+00   0.0000000e+00
   1.3826778e+01  -2.6176016e+00   1.0069071e+01   1.7397439e+01   8.1908058e+00   1.8553461e+01  -1.8519252e+01   3.1863149e+00   3.9677373e+01   1.6386034e+01  -1.9989422e+00   3.1937100e+01  -1.2891499e+00  -1.6015397e+01  -6.6534556e+00  -3.6902691e+00   5.6169237e+00   1.1486416e+01   1.0774008e+01   1.6077497e+00   0.0000000e+00   3.0000000e+01   0.0000000e+00   0.0000000e+00
   1.2766193e+01  -3.0832309e+00   1.0696544e+01   1.6130759e+01   7.2092111e+00   1.8384580e+01  -1.7882901e+01   4.2889276e+00   3.8589587e+01   1.6843262e+01  -1.4336362e+00   3.0487806e+01  -2.2577275e+00  -1.5744315e+01  -5.3095612e+00  -1.7871257e+00   4.8896086e+00   1.2250445e+01   1.1751133e+01   3.0364384e+00   0.0000000e+00   3.0000000e+01   0.0000000e+00   0.0000000e+00
   1.1836938e+01  -3.5808173e+00   1.1554461e+01   1.4740207e+01   5.8752689e+00   1.7580760e+01  -1.7572061e+01   5.2484007e+00   3.7710837e+01   1.6839581e+01  -8.8411092e-01   2.9283234e+01  -3.1268398e+00  -1.5791060e+01  -4.5950573e+00  -1.5713182e-01   3.7211183e+00   1.2752222e+01   1.2233228e+01   4.3095309e+00   0.0000000e+00   3.0000000e+01   0.0000000e+00   0.0000000e+00
   1.0968635e+01  -4.5293810e+00   1.2447305e+01   1.3435753e+01   4.3721194e+00   1.6188082e+01  -1.7772148e+01   5.9668709e+00   3.6791783e+01   1.5792508e+01  -5.4072885e-01   2.8207369e+01  -3.8789245e+00  -1.6235853e+01  -4.7022142e+00   1.0580433e+00   2.4489910e+00   1.2595205e+01   1.1960124e+01   5.1573406e+00   0.0000000e+00   3.0000000e+01   0.0000000e+00   0.0000000e+00
   1.0491321e+01  -5.4812075e+00   1.3325817e+01   1.2605776e+01   3.2359710e+00   1.4967659e+01  -1.8242086e+01   6.4519909e+00   3.5833007e+01   1.4382733e+01  -5.6343788e-01   2.7404649e+01  -4.5663446e+00  -1.6881383e+01  -5.5761051e+00   1.8624675e+00   1.6119364e+00   1.1887806e+01   1.1003401e+01   5.4369097e+00   0.0000000e+00   3.0000000e+01   0.0000000e+00   0.0000000e+00
   1.0545059e+01  -5.8810713e+00   1.3916762e+01   1.2346027e+01   2.7746482e+00   1.4447049e+01  -1.8709056e+01   6.6224553e+00   3.4854720e+01   1.3363903e+01  -9.3923273e-01   2.6830320e+01  -5.2375260e+00  -1.7382643e+01  -6.8566474e+00   2.1766750e+00   1.4056824e+00   1.1224694e+01   9.6426242e+00   5.1082299e+00   0.0000000e+00   3.0000000e+01   0.0000000e+00   0.0000000e+00
   1.0895796e+01  -5.8174306e+00   1.3868621e+01   1.2381438e+01   2.7420871e+00   1.4467152e+01  -1.9142210e+01   6.3331334e+00   3.3924053e+01   1.2734162e+01  -1.5001917e+00   2.6239483e+01  -5.6450153e+00  -1.7451223e+01  -8.1429057e+00   1.8321400e+00   1.6400321e+00   1.0949289e+01   8.2226989e+00   4.2819908e+00   0.0000000e+00   3.0000000e+01   0.0000000e+00   0.0000000e+00
   1.1163304e+01  -5.4956569e+00   1.3172110e+01   1.2268228e+01   2.7445544e+00   1.4661578e+01  -1.9696011e+01   5.6216854e+00   3.3301161e+01   1.2585125e+01  -1.9670225e+00   2.5498714e+01  -5.4952464e+00  -1.7118902e+01  -9.2567032e+00   9.2329601e-01   2.0303249e+00   1.0906464e+01   7.0331087e+00   3.1940233e+00   0.0000000e+00   3.0000000e+01   0.0000000e+00   0.0000000e+00
   1.1295154e+01  -4.9927621e+00   1.2375570e+01   1.2213439e+01   2.9241808e+00   1.5052455e+01  -2.0053984e+01   4.9230026e+00   3.3421778e+01   1.3164279e+01  -2.0025333e+00   2.5020113e+01  -4.5480022e+00  -1.6408698e+01  -9.9307854e+00   2.1325143e-01   2.6593960e+00   1.1276028e+01   6.4586192e+00   2.3498943e+00   0.0000000e+00   3.0000000e+01   0.0000000e+00   0.0000000e+00
   1.1528235e+01  -4.3706212e+00   1.1880246e+01   1.2597626e+01   3.3587879e+00   1.5507761e+01  -1.9905413e+01   4.4928287e+00   3.4129904e+01   1.4322790e+01  -1.6986311e+00   2.5088961e+01  -3.1805066e+00  -1.5535710e+01  -1.0118660e+01   1.7254453e-01   3.4343795e+00   1.2245393e+01   6.4982352e+00   2.0557858e+00   0.0000000e+00   3.0000000e+01   0.0000000e+00   0.0000000e+00
   1.1478379e+01  -3.8030563e+00   1.1522060e+01   1.2831311e+01   3.5962800e+00   1.5473691e+01  -1.9441957e+01   4.1656292e+00   3.4533424e+01   1.5494490e+01  -1.3733560e+00   2.5184739e+01  -2.3521027e+00  -1.4959307e+01  -1.0068185e+01   4.0961942e-01   3.8146489e+00   1.3289402e+01   6.6442468e+00   2.1332073e+00   0.0000000e+00   3.0000000e+01   0.0000000e+00   0.0000000e+00
   1.1186099e+01  -3.3910028e+00   1.1345593e+01   1.2597320e+01   3.5920539e+00   1.5024617e+01  -1.8632239e+01   4.0159421e+00   3.4520832e+01   1.6514275e+01  -1.0330246e+00   2.5091171e+01  -2.1346475e+00  -1.4559407e+01  -9.7102363e+00   7.5378420e-01   3.8206924e+00   1.3930158e+01   6.8539138e+00   2.5358993e+00   0.0000000e+00   3.0000000e+01   0.0000000e+00   0.0000000e+00
   1.1261893e+01  -3.2497107e+00   1.1403365e+01   1.2263171e+01   3.5342455e+00   1.4572746e+01  -1.7536152e+01   4.1980354e+00   3.4473465e+01   1.7203956e+01  -5.9376287e-01   2.4816761e+01  -1.9761515e+00  -1.3954069e+01  -8.9430163e+00   1.2998209e+00   3.8243383e+00   1.4112694e+01   7.3721208e+00   3.2427172e+00   0.0000000e+00   3.0000000e+01   0.0000000e+00   0.0000000e+00
   1.1594588e+01  -3.8354726e+00   1.1451353e+01   1.2075658e+01   3.3843134e+00   1.4256157e+01  -1.6594337e+01   4.5530322e+00   3.4272155e+01   1.7202199e+01  -1.5070240e-01   2.4535945e+01  -1.7623135e+00  -1.3186030e+01  -8.0100154e+00   1.8561414e+00   3.8871890e+00   1.4056524e+01   8.0036404e+00   3.9352824e+00   0.0000000e+00   3.0000000e+01   0.0000000e+00   0.0000000e+00
   1.1689150e+01  -5.2236666e+00   1.1339111e+01   1.2080414e+01   3.2082030e+00   1.4295700e+01  -1.5920807e+01   4.8558604e+00   3.3948230e+01   1.6560429e+01   1.8766019e-01   2.4641055e+01  -1.7270448e+00  -1.2551386e+01  -7.2055792e+00   2.0926473e+00   3.9234607e+00   1.3930522e+01   8.3970652e+00   4.2801387e+00   0.0000000e+00   3.0000000e+01   0.0000000e+00   0.0000000e+00
   1.1431716e+01  -6.4382108e+00   1.1089804e+01   1.2085789e+01   3.1237874e+00   1.4715301e+01  -1.5370903e+01   4.7928646e+00   3.3467916e+01   1.5955368e+01   4.2466297e-01   2.4821340e+01  -2.1416511e+00  -1.2423935e+01  -6.7843389e+00   1.7788634e+00   3.7941583e+00   1.3428013e+01   8.3598990e+00   4.0657820e+00   0.0000000e+00   3.0000000e+01   0.0000000e+00   0.0000000e+00
   1.1085917e+01  -6.6531669e+00   1.0984742e+01   1.2010643e+01   3.2525094e+00   1.5419897e+01  -1.4804175e+01   4.2439651e+00   3.2739897e+01   1.5844519e+01   7.5317055e-01   2.4716715e+01  -2.9293958e+00  -1.2819386e+01  -6.6893241e+00   1.1169071e+00   3.5253309e+00   1.2439374e+01   7.9847697e+00   3.4631844e+00   0.0000000e+00   3.0000000e+01   0.0000000e+00   0.0000000e+00
   1.0824272e+01  -6.1262727e+00   1.1198096e+01   1.1884763e+01   3.4521294e+00   1.6104587e+01  -1.4446511e+01   3.4156685e+00   3.1931062e+01   1.6148508e+01   1.1693711e+00   2.4312783e+01  -3.9375800e+00  -1.3660022e+01  -6.9102035e+00   4.2745909e-01   3.0750464e+00   1.1392482e+01   7.2714259e+00   2.7531587e+00   0.0000000e+00   3.0000000e+01   0.0000000e+00   0.0000000e+00
   1.0898409e+01  -5.2227714e+00   1.1695762e+01   1.1772285e+01   3.4881314e+00   1.6385197e+01  -1.4556711e+01   2.7145346e+00   3.1356472e+01   1.6811832e+01   1.5032471e+00   2.3854882e+01  -4.9030233e+00  -1.4811051e+01  -7.4424829e+00  -1.1562141e-01   2.4871610e+00   1.0687308e+01   6.3216762e+00   2.1674963e+00   0.0000000e+00   3.0000000e+01   0.0000000e+00   0.0000000e+00
   1.1247268e+01  -4.1196105e+00   1.2314293e+01   1.1697013e+01   3.2909169e+00   1.6186957e+01  -1.4830861e+01   2.3841980e+00   3.1215354e+01   1.7802331e+01   1.6728888e+00   2.3659554e+01  -5.5112560e+00  -1.5779214e+01  -7.9229345e+00  -3.9284223e-01   1.9779757e+00   1.0216744e+01   5.6106261e+00   1.9605684e+00   0.0000000e+00   3.0000000e+01   0.0000000e+00   0.0000000e+00
   1.1405489e+01  -3.0352206e+00   1.2845709e+01   1.1403648e+01   2.7142030e+00   1.5576559e+01  -1.4912706e+01   2.4334060e+00   3.1160910e+01   1.8856924e+01   1.6044949e+00   2.3491824e+01  -5.9434534e+00  -1.6300473e+01  -8.1150479e+00  -3.6752289e-01   1.4715578e+00   9.6922128e+00   5.4453811e+00   2.2042542e+00   0.0000000e+00   3.0000000e+01   0.0000000e+00   0.0000000e+00
   1.1278213e+01  -1.9540536e+00   1.3462570e+01   1.0752090e+01   1.6597853e+00   1.4811523e+01  -1.4601893e+01   3.0739532e+00   3.0824581e+01   1.9821348e+01   1.5198591e+00   2.2931220e+01  -6.4906754e+00  -1.6328009e+01  -7.9449611e+00   3.7797891e-02   8.4877268e-01   9.4016257e+00   5.8768609e+00   2.9355505e+00   0.0000000e+00   3.0000000e+01   0.0000000e+00   0.0000000e+00
   1.0872827e+01  -1.0075247e+00   1.4314615e+01   9.7632781e+00   1.6141781e-01   1.4135728e+01  -1.3919026e+01   4.1389675e+00   3.0206651e+01   2.0829960e+01   1.5991517e+00   2.1993783e+01  -7.2135424e+00  -1.6010620e+01  -7.5455295e+00   6.4435895e-01   4.1975867e-02   9.5255046e+00   6.6332029e+00   3.9170395e+00   0.0000000e+00   3.0000000e+01   0.0000000e+00   0.0000000e+00
   9.7721663e+00  -8.9920306e-01   1.4989340e+01   8.2697681e+00  -1.9113163e+00   1.3370438e+01  -1.3385814e+01   4.8411974e+00   2.9147156e+01   2.1533842e+01   1.5627623e+00   2.0703546e+01  -8.2202528e+00  -1.5979077e+01  -7.4274673e+00   8.2981372e-01  -1.2079640e+00   9.2751709e+00   6.9913908e+00   4.4723783e+00   0.0000000e+00   3.0000000e+01   0.0000000e+00   0.0000000e+00
   8.3040487e+00  -1.7204416e+00   1.5270190e+01   6.5995670e+00  -4.2084242e+00   1.2475980e+01  -1.3273496e+01   4.8049500e+00   2.7670663e+01   2.1220077e+01   1.2673460e+00   1.9253713e+01  -9.3283834e+00  -1.6560568e+01  -7.8190942e+00   3.5028913e-01  -2.6763543e+00   8.2174402e+00   6.7072513e+00   4.3064726e+00   0.0000000e+00   3.0000000e+01   0.0000000e+00   0.0000000e+00
   7.5376644e+00  -2.5669872e+00   1.5537253e+01   5.5499869e+00  -5.7691677e+00   1.2013534e+01  -1.3209094e+01   4.4576726e+00   2.6339699e+01   2.0152111e+01   9.2510275e-01   1.8126421e+01  -9.8715889e+00  -1.7347055e+01  -8.3893307e+00  -3.0961004e-01  -3.5552213e+00   7.2120880e+00   6.4357318e+00   3.8641588e+00   0.0000000e+00   3.0000000e+01   0.0000000e+00   0.0000000e+00
   7.6491630e+00  -3.0540330e+00   1.5924787e+01   5.3750735e+00  -6.2417853e+00   1.2192890e+01  -1.3034899e+01   4.1025771e+00   2.5495642e+01   1.9438741e+01   6.2770539e-01   1.7623813e+01  -9.5374696e+00  -1.8070240e+01  -8.9246116e+00  -7.4004589e-01  -3.5642209e+00   6.8699031e+00   6.5090123e+00   3.4644104e+00   0.0000000e+00   3.0000000e+01   0.0000000e+00   0.0000000e+00
   7.9851473e+00  -3.4892339e+00   1.6315586e+01   5.5815306e+00  -6.1686662e+00   1.2575164e+01  -1.2952080e+01   3.7708570e+00   2.4837484e+01   1.9074961e+01   1.1603082e-01   1.7571683e+01  -8.8927163e+00  -1.8856934e+01  -9.5764155e+00  -8.6908288e-01  -3.1901060e+00   6.6962292e+00   6.5372574e+00   3.1537045e+00   0.0000000e+00   3.0000000e+01   5.0000000e+01   0.0000000e+00
   8.1995330e+00  -4.2515792e+00   1.6925605e+01   5.7290132e+00  -6.1427728e+00   1.2783514e+01  -1.2973184e+01   3.7801333e+00   2.4038227e+01   1.8747632e+01  -5.7788799e-01   1.7509705e+01  -8.5282911e+00  -1.9757096e+01  -1.0410385e+01  -5.8695984e-01  -2.8801655e+00   6.4004061e+00   6.2883849e+00   3.0982884e+00   0.0000000e+00   3.0000000e+01   5.0000000e+01   0.0000000e+00
   8.1801859e+00  -5.2875053e+00   1.7904934e+01   5.6213357e+00  -6.5146170e+00   1.2550439e+01  -1.3149631e+01   4.3134341e+00   2.2940686e+01   1.8514973e+01  -1.0362927e+00   1.7179055e+01  -8.6056865e+00  -2.0864319e+01  -1.1321508e+01   7.0462430e-02  -2.9002932e+00   6.2646688e+00   5.6935542e+00   3.3040881e+00   0.0000000e+00   3.0000000e+01   5.0000000e+01   0.0000000e+00
   7.5229575e+00  -6.2397278e+00   1.8886123e+01   4.9045570e+00  -7.6639132e+00   1.1506926e+01  -1.3994583e+01   4.9184258e+00   2.1276374e+01   1.8093324e+01  -1.1539276e+00   1.6169460e+01  -9.4656889e+00  -2.2454509e+01  -1.2396673e+01   6.7247107e-01  -3.6570066e+00   5.9753659e+00   4.4236067e+00   3.4002729e+00   0.0000000e+00   3.0000000e+01   5.0000000e+01   0.0000000e+00
   6.3344462e+00  -7.1876254e+00   1.9432762e+01   3.5341988e+00  -9.5995921e+00   9.6635404e+00  -1.5756541e+01   5.0265551e+00   1.9223057e+01   1.7310753e+01  -1.1170079e+00   1.4376704e+01  -1.1195189e+01  -2.4569938e+01  -1.3732526e+01   8.7597209e-01  -5.2083834e+00   4.8311290e+00   2.2481221e+00   2.9431154e+00   0.0000000e+00   3.0000000e+01   5.0000000e+01   0.0000000e+00
   4.9998766e+00  -8.0228654e+00   1.9424700e+01   1.8098002e+00  -1.1905372e+01   7.3545929e+00  -1.8078293e+01   4.4700086e+00   1.7150500e+01   1.6219886e+01  -1.2203234e+00   1.2080860e+01  -1.3271610e+01  -2.6905385e+01  -1.5284607e+01   6.2245659e-01  -7.2565006e+00   2.6946962e+00  -7.1154943e-01   1.7448956e+00   0.0000000e+00   3.0000000e+01   5.0000000e+01   0.0000000e+00
   3.5929593e+00  -8.4363308e+00   1.9085048e+01   4.5658592e-02  -1.4128361e+01   5.0110925e+00  -2.0333779e+01   3.5439664e+00   1.5133819e+01   1.4720942e+01  -1.6156644e+00   9.5928690e+00  -1.5057132e+01  -2.8889879e+01  -1.6784344e+01   7.4201400e-03  -9.3479725e+00   2.1067024e-01  -3.8926049e+00   1.2167841e-01   0.0000000e+00   3.0000000e+01   5.0000000e+01   0.0000000e+00
   2.3819027e+00  -8.4940955e+00   1.8844903e+01  -1.3986958e+00  -1.5690784e+01   3.3553074e+00  -2.1725514e+01   2.7830921e+00   1.3253557e+01   1.3064493e+01  -2.0516238e+00   7.4750844e+00  -1.6209205e+01  -2.9899439e+01  -1.7747398e+01  -6.1997758e-01  -1.0856951e+01  -1.7326552e+00  -6.3060546e+00  -1.2275463e+00   0.0000000e+00   3.0000000e+01   5.0000000e+01   0.0000000e+00
   1.8138106e+00  -7.9840757e+00   1.8969930e+01  -2.2005868e+00  -1.6164251e+01   2.9140589e+00  -2.1847418e+01   2.4852208e+00   1.1724108e+01   1.1937568e+01  -2.3482965e+00   6.1926811e+00  -1.6726869e+01  -2.9878354e+01  -1.7990663e+01  -9.0708562e-01  -1.1468074e+01  -2.9205305e+00  -7.3154634e+00  -1.8809802e+00   0.0000000e+00   3.0000000e+01   5.0000000e+01   0.0000000e+00
   1.6965056e+00  -6.7835759e+00   1.9228898e+01  -2.6048727e+00  -1.6079723e+01   3.2551379e+00  -2.1233601e+01   2.3959012e+00   1.0555431e+01   1.1144322e+01  -2.7605995e+00   5.2247847e+00  -1.7047082e+01  -2.9546032e+01  -1.7986749e+01  -1.0777530e+00  -1.1667189e+01  -3.9100318e+00  -7.3277522e+00  -2.1670106e+00   0.0000000e+00   3.0000000e+01   5.0000000e+01   0.0000000e+00
   1.6995560e+00  -5.8849824e+00   1.9413356e+01  -3.0051893e+00  -1.6217676e+01   3.6744379e+00  -2.0518230e+01   2.3738221e+00   9.4522237e+00   1.0522241e+01  -3.3227252e+00   3.7739141e+00  -1.7573293e+01  -2.9552090e+01  -1.8137577e+01  -1.3843197e+00  -1.2049203e+01  -4.9280292e+00  -6.9581409e+00  -2.4212305e+00   0.0000000e+00   3.0000000e+01   5.0000000e+01   0.0000000e+00
   2.1102848e+00  -5.6210912e+00   1.9913234e+01  -3.0922142e+00  -1.6455481e+01   4.1616743e+00  -1.9687434e+01   2.6755721e+00   8.5488274e+00   1.0457348e+01  -3.6866141e+00   2.5341062e+00  -1.8057316e+01  -2.9689842e+01  -1.8148735e+01  -1.4300199e+00  -1.2358070e+01  -5.5430685e+00  -6.2444493e+00  -2.3666139e+00   0.0000000e+00   3.0000000e+01   5.0000000e+01   0.0000000e+00
   2.7842855e+00  -5.3287636e+00   2.0697391e+01  -2.7149330e+00  -1.6524075e+01   4.7505251e+00  -1.8845064e+01   3.1245209e+00   7.9772773e+00   1.1026265e+01  -3.7460960e+00   2.2252110e+00  -1.8157716e+01  -2.9561234e+01  -1.7855705e+01  -1.0935591e+00  -1.2163252e+01  -5.7247795e+00  -5.3259507e+00  -2.0167082e+00   0.0000000e+00   3.0000000e+01   5.0000000e+01   0.0000000e+00
   3.1264626e+00  -5.0773122e+00   2.1228406e+01  -2.1561397e+00  -1.6428826e+01   5.3112388e+00  -1.8219355e+01   3.3733653e+00   7.5259412e+00   1.1726110e+01  -3.7756309e+00   2.4713525e+00  -1.7854635e+01  -2.9284822e+01  -1.7560422e+01  -8.1789348e-01  -1.1522834e+01  -5.7841341e+00  -4.6347314e+00  -1.8215960e+00   0.0000000e+00   3.0000000e+01   5.0000000e+01   0.0000000e+00
   3.2991919e+00  -4.8198174e+00   2.1536733e+01  -1.4796917e+00  -1.6027371e+01   5.9298993e+00  -1.7587156e+01   3.5778284e+00   7.1511557e+00   1.1670716e+01  -4.0860616e+00   2.8040894e+00  -1.7279004e+01  -2.8975136e+01  -1.7330662e+01  -7.6811870e-01  -1.0547167e+01  -5.3905904e+00  -4.1659089e+00  -1.8183695e+00   0.0000000e+00   3.0000000e+01   5.0000000e+01   0.0000000e+00
   3.7177176e+00  -4.4541159e+00   2.1843383e+01  -7.8444476e-01  -1.5486310e+01   6.4770379e+00  -1.6923231e+01   3.9119025e+00   6.5596871e+00   1.0895389e+01  -4.7879405e+00   2.9211879e+00  -1.6784566e+01  -2.8648980e+01  -1.7107942e+01  -8.7216945e-01  -9.5021073e+00  -4.2368741e+00  -3.6853935e+00  -1.8874570e+00   0.0000000e+00   3.0000000e+01   5.0000000e+01   0.0000000e+00
   4.2679655e+00  -4.5093433e+00   2.2029073e+01  -3.2890098e-01  -1.5218120e+01   6.6530662e+00  -1.6523731e+01   4.1540267e+00   5.5171733e+00   1.0298288e+01  -5.5401238e+00   2.7158684e+00  -1.6785852e+01  -2.8511788e+01  -1.6848145e+01  -1.0848573e+00  -8.8761880e+00  -2.8623950e+00  -3.1249003e+00  -2.1423236e+00   0.0000000e+00   3.0000000e+01   5.0000000e+01   0.0000000e+00
   4.7001552e+00  -4.9245673e+00   2.2292967e+01  -2.3515700e-01  -1.5264598e+01   6.5922865e+00  -1.6233772e+01   4.3624874e+00   4.3563203e+00   1.0430125e+01  -5.8202959e+00   2.2913228e+00  -1.7384528e+01  -2.8480150e+01  -1.6303538e+01  -1.0751614e+00  -8.8588464e+00  -1.7329975e+00  -2.3166151e+00  -2.3373918e+00   0.0000000e+00   3.0000000e+01   5.0000000e+01   0.0000000e+00
   4.7049107e+00  -5.2471404e+00   2.3009054e+01  -5.5404000e-01  -1.5593322e+01   6.5059635e+00  -1.5788223e+01   4.8078313e+00   3.4031336e+00   1.1122123e+01  -5.5958898e+00   1.7550597e+00  -1.8317330e+01  -2.8264338e+01  -1.5342584e+01  -6.8279626e-01  -9.3108667e+00  -7.9190557e-01  -1.2211851e+00  -2.1544645e+00   0.0000000e+00   3.0000000e+01   5.0000000e+01   0.0000000e+00
   4.2083575e+00  -5.5445676e+00   2.4017111e+01  -1.1262437e+00  -1.6199018e+01   6.4342413e+00  -1.5181570e+01   5.4258997e+00   2.7096529e+00   1.1960533e+01  -5.1704136e+00   1.1563902e+00  -1.9077140e+01  -2.7752717e+01  -1.4108175e+01  -1.3881164e-01  -9.9300340e+00   9.7424521e-02  -2.7804973e-03  -1.6275731e+00   0.0000000e+00   3.0000000e+01   5.0000000e+01   0.0000000e+00
   3.6710443e+00  -6.0604209e+00   2.4794039e+01  -1.6319116e+00  -1.7013414e+01   6.3493755e+00  -1.4521590e+01   5.9418913e+00   2.1356733e+00   1.2734781e+01  -4.8225410e+00   4.1429283e-01  -1.9513809e+01  -2.7197839e+01  -1.2909654e+01   3.3439607e-01  -1.0453638e+01   8.0136173e-01   1.2067573e+00  -9.8021249e-01   0.0000000e+00   3.0000000e+01   5.0000000e+01   0.0000000e+00
   3.8098454e+00  -6.6021552e+00   2.4964520e+01  -1.8432578e+00  -1.7893753e+01   6.2325733e+00  -1.3947715e+01   6.1883221e+00   1.5639898e+00   1.3486019e+01  -4.7152708e+00  -6.0365334e-01  -1.9778066e+01  -2.6958505e+01  -1.1920188e+01   5.7284987e-01  -1.0739778e+01   1.2474631e+00   2.2481099e+00  -5.0466577e-01   0.0000000e+00   3.0000000e+01   5.0000000e+01   0.0000000e+00
   4.7216787e+00  -6.7841754e+00   2.4660531e+01  -1.6549246e+00  -1.8561285e+01   6.1472691e+00  -1.3470899e+01   6.3964542e+00   1.1662362e+00   1.4349680e+01  -4.8105356e+00  -1.8171787e+00  -1.9752807e+01  -2.6970603e+01  -1.1147030e+01   6.4606872e-01  -1.0752166e+01   1.7610720e+00   2.8691430e+00  -2.2241150e-01   0.0000000e+00   3.0000000e+01   5.0000000e+01   0.0000000e+00
   5.7068458e+00  -6.5369060e+00   2.4231182e+01  -1.1884499e+00  -1.8907007e+01   5.9984918e+00  -1.3164460e+01   6.7530709e+00   1.0920519e+00   1.4945078e+01  -4.9555383e+00  -2.6489581e+00  -1.9427673e+01  -2.7026199e+01  -1.0666802e+01   8.5902150e-01  -1.0585268e+01   2.4287885e+00   2.9124746e+00   6.4223375e-03   0.0000000e+00   3.0000000e+01   5.0000000e+01   0.0000000e+00
   6.1095297e+00  -6.2967645e+00   2.3508690e+01  -9.1922947e-01  -1.9325295e+01   5.4056711e+00  -1.3280249e+01   6.7988385e+00   1.0461817e+00   1.4576023e+01  -5.1645498e+00  -2.9192858e+00  -1.9239774e+01  -2.7176039e+01  -1.0672182e+01   1.1049505e+00  -1.0596720e+01   2.6876129e+00   2.2144507e+00  -5.2877285e-02   0.0000000e+00   3.0000000e+01   5.0000000e+01   0.0000000e+00
   5.7591839e+00  -6.6496585e+00   2.2218181e+01  -1.0450635e+00  -2.0257954e+01   4.0063810e+00  -1.4076722e+01   6.2025570e+00   8.2847450e-01   1.3592650e+01  -5.5143835e+00  -3.0204162e+00  -1.9411784e+01  -2.7572326e+01  -1.1167439e+01   9.0864037e-01  -1.0989022e+01   2.1321041e+00   6.0046647e-01  -7.3462601e-01   0.0000000e+00   3.0000000e+01   5.0000000e+01   0.0000000e+00
   5.1595316e+00  -7.6232509e+00   2.0711269e+01  -9.7987709e-01  -2.1311319e+01   2.0619598e+00  -1.5330050e+01   5.3589896e+00   9.4969037e-01   1.3032035e+01  -5.8112217e+00  -2.7096130e+00  -1.9391776e+01  -2.7856113e+01  -1.1747598e+01   3.4184737e-01  -1.1214990e+01   1.3546770e+00  -1.4810657e+00  -1.7668273e+00   0.0000000e+00   3.0000000e+01   5.0000000e+01   0.0000000e+00
   4.9315306e+00  -8.6278211e+00   1.9379530e+01  -3.4549435e-01  -2.1920675e+01   1.7513665e-01  -1.6467849e+01   4.6464669e+00   1.8038440e+00   1.3397467e+01  -6.0100128e+00  -1.8176302e+00  -1.8651557e+01  -2.7469296e+01  -1.2083578e+01  -2.2230294e-01  -1.0841267e+01   1.0056834e+00  -3.2585952e+00  -2.6565945e+00   0.0000000e+00   3.0000000e+01   5.0000000e+01   0.0000000e+00
   4.8300746e+00  -9.1852477e+00   1.8454380e+01   6.7475803e-01  -2.2080057e+01  -1.1828332e+00  -1.7128302e+01   4.1107756e+00   3.1411729e+00   1.4218497e+01  -6.3368922e+00  -6.8379697e-01  -1.7195000e+01  -2.6389104e+01  -1.2138681e+01  -6.0199991e-01  -9.9974877e+00   9.6049665e-01  -4.2176813e+00  -3.1935091e+00   0.0000000e+00   3.0000000e+01   5.0000000e+01   0.0000000e+00
   4.5225095e+00  -9.3317053e+00   1.8098638e+01   1.9311333e+00  -2.1885339e+01  -1.7448481e+00  -1.7180227e+01   3.7213273e+00   4.4905715e+00   1.4675110e+01  -7.0612331e+00   4.6176488e-01  -1.5204986e+01  -2.5074285e+01  -1.2000403e+01  -8.1306897e-01  -8.8251590e+00   1.0599379e+00  -4.2279025e+00  -3.4362465e+00   0.0000000e+00   3.0000000e+01   5.0000000e+01   0.0000000e+00
   4.2735327e+00  -9.0960699e+00   1.8293398e+01   3.3702493e+00  -2.1409455e+01  -1.6223331e+00  -1.6716174e+01   3.4908374e+00   5.4512992e+00   1.4396127e+01  -8.2290712e+00   1.4846616e+00  -1.3082893e+01  -2.4131459e+01  -1.1804756e+01  -1.0516019e+00  -7.4570050e+00   1.3970049e+00  -3.6849297e+00  -3.6011064e+00   0.0000000e+00   3.0000000e+01   5.0000000e+01   0.0000000e+00
   4.1294686e+00  -8.9049260e+00   1.8765687e+01   4.5480091e+00  -2.1066571e+01  -1.3262648e+00  -1.5971626e+01   3.3779687e+00   5.6031904e+00   1.3272259e+01  -9.7636991e+00   2.0209207e+00  -1.1682942e+01  -2.4167793e+01  -1.1683594e+01  -1.5919914e+00  -6.4373404e+00   1.6128801e+00  -3.3418576e+00  -3.9219916e+00   0.0000000e+00   3.0000000e+01   5.0000000e+01   0.0000000e+00
   4.1448075e+00  -8.6695585e+00   1.9447377e+01   5.2264745e+00  -2.1139793e+01  -1.0841518e+00  -1.4931264e+01   3.4394544e+00   4.9809193e+00   1.1647047e+01  -1.1305957e+01   1.9305024e+00  -1.1501316e+01  -2.5209912e+01  -1.1192015e+01  -2.2699938e+00  -6.1643896e+00   1.1936438e+00  -3.4944232e+00  -4.1924302e+00   0.0000000e+00   3.0000000e+01   5.0000000e+01   0.0000000e+00
   4.2669459e+00  -7.7540936e+00   2.0430531e+01   5.5976198e+00  -2.1554355e+01  -7.9556574e-01  -1.3712910e+01   3.6968298e+00   3.9960186e+00   9.8524440e+00  -1.2336052e+01   1.4289286e+00  -1.2253388e+01  -2.6613134e+01  -9.8034259e+00  -2.6754839e+00  -6.6012704e+00   1.3456291e-01  -3.9450378e+00  -4.1247970e+00   0.0000000e+00   3.0000000e+01   5.0000000e+01   0.0000000e+00
   4.1921895e+00  -6.6161261e+00   2.1340829e+01   5.6170862e+00  -2.2353846e+01  -6.5805485e-01  -1.2871702e+01   3.8666021e+00   2.8849990e+00   8.2262710e+00  -1.2713280e+01   6.2894984e-01  -1.3504091e+01  -2.7888041e+01  -7.9144761e+00  -2.9177023e+00  -7.6876498e+00  -1.1791848e+00  -4.6887292e+00  -4.0373944e+00   0.0000000e+00   3.0000000e+01   5.0000000e+01   0.0000000e+00
   3.7507771e+00  -5.8849198e+00   2.1777591e+01   5.2813747e+00  -2.3366693e+01  -7.7688883e-01  -1.2695711e+01   3.7541610e+00   1.9103403e+00   7.6076656e+00  -1.2479458e+01  -2.8356461e-01  -1.4737098e+01  -2.8765430e+01  -5.9059520e+00  -3.1151678e+00  -8.9234717e+00  -2.2671834e+00  -5.6722178e+00  -4.1512956e+00   0.0000000e+00   3.0000000e+01   5.0000000e+01   0.0000000e+00
   3.1016407e+00  -5.6078171e+00   2.1744810e+01   4.9426366e+00  -2.4028512e+01  -8.0013876e-01  -1.2937724e+01   3.4396685e+00   1.4503646e+00   8.1227094e+00  -1.1764562e+01  -1.0818978e+00  -1.5377260e+01  -2.8894092e+01  -3.6762460e+00  -3.1614739e+00  -9.5330486e+00  -2.7935608e+00  -6.5274645e+00  -4.3538581e+00   0.0000000e+00   3.0000000e+01   5.0000000e+01   0.0000000e+00
   2.5506669e+00  -5.7225524e+00   2.1186113e+01   4.8212356e+00  -2.4163194e+01  -5.2733047e-01  -1.3473018e+01   2.9241984e+00   1.6998793e+00   9.2238219e+00  -1.0773705e+01  -1.5354964e+00  -1.5239988e+01  -2.8165003e+01  -1.3543719e+00  -3.0988562e+00  -9.3073142e+00  -2.6383741e+00  -6.9650174e+00  -4.6852732e+00   0.0000000e+00   3.0000000e+01   5.0000000e+01   0.0000000e+00
   2.2830240e+00  -6.0284837e+00   2.0145816e+01   4.9073540e+00  -2.3938494e+01  -1.5588178e-01  -1.4285727e+01   2.2808078e+00   2.5193649e+00   1.0436869e+01  -9.7495988e+00  -1.2995901e+00  -1.4486749e+01  -2.6799032e+01   7.6498959e-01  -2.9789988e+00  -8.4041401e+00  -1.7112433e+00  -6.9851566e+00  -5.1087018e+00   0.0000000e+00   3.0000000e+01   5.0000000e+01   0.0000000e+00
   2.1308456e+00  -6.3870389e+00   1.8791242e+01   5.0781520e+00  -2.3643035e+01  -2.7513407e-01  -1.5444514e+01   1.4366706e+00   3.4707591e+00   1.1167453e+01  -9.0625250e+00  -5.8004057e-01  -1.3587183e+01  -2.5272285e+01   2.3135794e+00  -3.0523693e+00  -7.2046201e+00  -4.0654962e-01  -7.0407061e+00  -5.6537632e+00   0.0000000e+00   0.0000000e+00   5.0000000e+01   0.0000000e+00
   1.8612797e+00  -6.9434612e+00   1.7206581e+01   5.1591057e+00  -2.3630263e+01  -1.3003586e+00  -1.6947981e+01   2.3934233e-01   4.0838291e+00   1.1098676e+01  -8.9697312e+00   6.5885040e-02  -1.3080518e+01  -2.4074428e+01   3.1222818e+00  -3.4814717e+00  -6.2248787e+00   4.5120821e-01  -7.5628586e+00  -6.3826134e+00   0.0000000e+00   0.0000000e+00   5.0000000e+01   0.0000000e+00
   1.5591006e+00  -7.7209961e+00   1.5696442e+01   5.0584707e+00  -2.4002040e+01  -2.9110912e+00  -1.8408571e+01  -1.1386778e+00   4.0208076e+00   1.0353969e+01  -9.5498832e+00   2.4338525e-01  -1.3179955e+01  -2.3512940e+01   3.2692564e+00  -4.0423272e+00  -5.7936846e+00   4.9016090e-01  -8.4381006e+00  -7.1552711e+00   0.0000000e+00   0.0000000e+00   5.0000000e+01   0.0000000e+00
   1.3542986e+00  -8.1942771e+00   1.4655386e+01   4.7650285e+00  -2.4560833e+01  -4.5057627e+00  -1.9572827e+01  -2.3530877e+00   3.3750881e+00   9.3458598e+00  -1.0690111e+01  -1.2881924e-01  -1.3692989e+01  -2.3613916e+01   2.8572506e+00  -4.5127462e+00  -5.9117818e+00   3.0937812e-02  -9.3601863e+00  -7.8478005e+00   0.0000000e+00   0.0000000e+00   5.0000000e+01   0.0000000e+00
   1.4635321e+00  -8.0299054e+00   1.4190371e+01   4.5881138e+00  -2.4879595e+01  -5.5430921e+00  -2.0303647e+01  -3.2213178e+00   2.6069008e+00   8.4619867e+00  -1.2012990e+01  -8.1788630e-01  -1.4274107e+01  -2.4133855e+01   2.0296033e+00  -4.9225081e+00  -6.2797774e+00  -5.9733543e-01  -1.0146875e+01  -8.4786825e+00   0.0000000e+00   0.0000000e+00   5.0000000e+01   0.0000000e+00
   1.9623751e+00  -7.6256535e+00   1.4140006e+01   4.5680977e+00  -2.4974272e+01  -5.8992826e+00  -2.0669299e+01  -3.7547734e+00   1.7350535e+00   7.5773851e+00  -1.3169078e+01  -1.7708328e+00  -1.5043049e+01  -2.5039470e+01   8.8145351e-01  -5.4158614e+00  -6.8931443e+00  -1.6087264e+00  -1.0787104e+01  -9.0907915e+00   0.0000000e+00   0.0000000e+00   5.0000000e+01   0.0000000e+00
   2.6196061e+00  -7.4897543e+00   1.4383820e+01   4.3470497e+00  -2.5276856e+01  -5.8255074e+00  -2.0861826e+01  -3.9078620e+00   5.4535455e-01   6.2066718e+00  -1.4027777e+01  -2.9933505e+00  -1.6284997e+01  -2.6393230e+01  -3.8868078e-01  -5.9406271e+00  -8.0379494e+00  -3.1226351e+00  -1.1311191e+01  -9.5292991e+00   0.0000000e+00   0.0000000e+00   5.0000000e+01   0.0000000e+00
   2.8612750e+00  -7.6039693e+00   1.4635742e+01   3.7256375e+00  -2.6061059e+01  -5.6359282e+00  -2.1019595e+01  -3.8419608e+00  -9.1560202e-01   4.6114823e+00  -1.4595744e+01  -4.4331237e+00  -1.7946021e+01  -2.7985727e+01  -1.4107040e+00  -6.4243384e+00  -9.7593980e+00  -4.7007709e+00  -1.1798758e+01  -9.7559784e+00   0.0000000e+00   0.0000000e+00   5.0000000e+01   0.0000000e+00
   2.5712874e+00  -7.5683017e+00   1.4566864e+01   3.0015086e+00  -2.7175802e+01  -5.4555352e+00  -2.1220338e+01  -3.8649036e+00  -2.3533110e+00   3.5478211e+00  -1.4893463e+01  -5.7569244e+00  -1.9497123e+01  -2.9342810e+01  -1.9309397e+00  -6.8667735e+00  -1.1562274e+01  -5.8583456e+00  -1.2297984e+01  -9.9122101e+00   0.0000000e+00   0.0000000e+00   5.0000000e+01   0.0000000e+00
   2.0895526e+00  -7.5078680e+00   1.3970877e+01   2.5565092e+00  -2.8275758e+01  -5.3207606e+00  -2.1417399e+01  -4.2000585e+00  -3.4957195e+00   3.1030968e+00  -1.4982052e+01  -6.5288994e+00  -2.0271383e+01  -2.9931484e+01  -2.0561091e+00  -7.3638253e+00  -1.2764924e+01  -6.5563461e+00  -1.2796463e+01  -1.0205436e+01   0.0000000e+00   0.0000000e+00   5.0000000e+01   0.0000000e+00
   1.4917072e+00  -7.8693759e+00   1.2676548e+01   2.1451761e+00  -2.9306932e+01  -5.6878230e+00  -2.1876461e+01  -4.9613990e+00  -4.4808713e+00   3.0267680e+00  -1.5081900e+01  -6.9574445e+00  -2.0291362e+01  -2.9718725e+01  -2.1449591e+00  -8.0484521e+00  -1.3295354e+01  -6.9760552e+00  -1.3589009e+01  -1.0931022e+01   0.0000000e+00   0.0000000e+00   5.0000000e+01   0.0000000e+00
   6.2836457e-01  -8.8108461e+00   1.0621136e+01   1.4082792e+00  -3.0503692e+01  -7.2455250e+00  -2.3081079e+01  -6.2713674e+00  -5.8533356e+00   2.8204377e+00  -1.5652330e+01  -7.6697166e+00  -2.0369936e+01  -2.9422961e+01  -2.7429945e+00  -9.2216159e+00  -1.3859176e+01  -7.3809296e+00  -1.5136215e+01  -1.2380792e+01   0.0000000e+00   0.0000000e+00   5.0000000e+01   0.0000000e+00
  -7.4632874e-01  -1.0115964e+01   8.2464197e+00   3.2751084e-01  -3.1998651e+01  -9.8867255e+00  -2.4894154e+01  -7.9280341e+00  -7.7314317e+00   2.1146140e+00  -1.6674541e+01  -8.8612559e+00  -2.0996592e+01  -2.9457110e+01  -3.9149726e+00  -1.0917492e+01  -1.4915126e+01  -8.0181414e+00  -1.7133780e+01  -1.4307573e+01   0.0000000e+00   0.0000000e+00   5.0000000e+01   0.0000000e+00
  -2.2793775e+00  -1.1274611e+01   6.3901034e+00  -6.7043597e-01  -3.3415847e+01  -1.2637004e+01  -2.6570069e+01  -9.3490256e+00  -9.5036192e+00   1.1240366e+00  -1.7730346e+01  -1.0103735e+01  -2.1815674e+01  -2.9510295e+01  -5.0194035e+00  -1.2364012e+01  -1.6041968e+01  -8.9185072e+00  -1.8683676e+01  -1.5893316e+01   0.0000000e+00   0.0000000e+00   5.0000000e+01   0.0000000e+00
  -3.2910793e+00  -1.1939299e+01   5.6307609e+00  -1.1952631e+00  -3.4315803e+01  -1.4579858e+01  -2.7376332e+01  -9.9390075e+00  -1.0714027e+01   1.9326136e-01  -1.8652871e+01  -1.0890474e+01  -2.2388010e+01  -2.9260424e+01  -5.4194608e+00  -1.2840935e+01  -1.6724005e+01  -9.7772437e+00  -1.9266399e+01  -1.6491954e+01   0.0000000e+00   0.0000000e+00   5.0000000e+01   0.0000000e+00
  -3.6487873e+00  -1.2233976e+01   5.9670416e+00  -1.3433761e+00  -3.4662859e+01  -1.5297711e+01  -2.6938472e+01  -9.4852476e+00  -1.1395706e+01  -4.1624901e-01  -1.9252793e+01  -1.1166997e+01  -2.2616411e+01  -2.8601458e+01  -4.9811393e+00  -1.2338526e+01  -1.6918740e+01  -1.0048995e+01  -1.8877241e+01  -1.5892977e+01   0.0000000e+00   0.0000000e+00   5.0000000e+01   0.0000000e+00
  -3.7005464e+00  -1.2172444e+01   6.9011225e+00  -1.4485350e+00  -3.4612737e+01  -1.4992097e+01  -2.5431890e+01  -8.3646425e+00  -1.1768256e+01  -8.6973967e-01  -1.9305447e+01  -1.1480890e+01  -2.2626456e+01  -2.7521090e+01  -4.0563253e+00  -1.1347029e+01  -1.6844585e+01  -9.5632912e+00  -1.7776084e+01  -1.4364859e+01   0.0000000e+00   0.0000000e+00   5.0000000e+01   0.0000000e+00
  -3.9960799e+00  -1.1760757e+01   7.9805969e+00  -1.7990459e+00  -3.4311049e+01  -1.4147900e+01  -2.3356618e+01  -7.0459494e+00  -1.2116779e+01  -1.0238499e+00  -1.8771394e+01  -1.2445666e+01  -2.2593167e+01  -2.6302988e+01  -2.9797902e+00  -1.0363602e+01  -1.6741431e+01  -8.7832570e+00  -1.6337037e+01  -1.2489545e+01   0.0000000e+00   0.0000000e+00   5.0000000e+01   0.0000000e+00
  -4.4595384e+00  -1.1036075e+01   9.1505820e+00  -2.0749136e+00  -3.3602609e+01  -1.2652062e+01  -2.0991398e+01  -5.6650573e+00  -1.2377193e+01  -4.4280026e-01  -1.7762799e+01  -1.3521635e+01  -2.2447495e+01  -2.5161188e+01  -1.8033101e+00  -9.4888868e+00  -1.6430306e+01  -7.9141330e+00  -1.4744204e+01  -1.0652341e+01   0.0000000e+00   0.0000000e+00   5.0000000e+01   0.0000000e+00
  -4.1918939e+00  -9.5338481e+00   1.0523795e+01  -1.5201079e+00  -3.2003381e+01  -1.0020924e+01  -1.8311218e+01  -4.1985312e+00  -1.2032002e+01   7.0912125e-01  -1.6474573e+01  -1.3540666e+01  -2.1769959e+01  -2.3801893e+01  -4.7893988e-01  -8.5549550e+00  -1.5294830e+01  -6.3281821e+00  -1.2914122e+01  -8.9303048e+00   0.0000000e+00   0.0000000e+00   5.0000000e+01   0.0000000e+00
  -2.8771444e+00  -7.1977964e+00   1.1876993e+01   1.2098453e-02  -2.9571388e+01  -6.5094746e+00  -1.5520045e+01  -2.9017002e+00  -1.0957860e+01   2.0498807e+00  -1.5140643e+01  -1.2363726e+01  -2.0438928e+01  -2.2119331e+01   8.6236719e-01  -7.6260313e+00  -1.3227239e+01  -3.7225846e+00  -1.1038688e+01  -7.5330420e+00   0.0000000e+00   0.0000000e+00   5.0000000e+01   0.0000000e+00
  -1.2613527e+00  -4.8389801e+00   1.2646605e+01   1.9907059e+00  -2.7104667e+01  -3.1075914e+00  -1.3146931e+01  -2.1853833e+00  -9.7203153e+00   3.2516538e+00  -1.3914508e+01  -1.0838456e+01  -1.8980503e+01  -2.0531914e+01   1.9362075e+00  -7.0561674e+00  -1.0965486e+01  -9.5614375e-01  -9.5987360e+00  -6.7912282e+00   0.0000000e+00   0.0000000e+00   5.0000000e+01   0.0000000e+00
  -1.4218601e-01  -3.0296523e+00   1.2646827e+01   3.8763943e+00  -2.5275242e+01  -5.7882438e-01  -1.1471179e+01  -2.0407679e+00  -8.7490919e+00   4.3042786e+00  -1.2759815e+01  -9.5330032e+00  -1.7913871e+01  -1.9306586e+01   2.7353546e+00  -6.9810076e+00  -9.2154106e+00   1.1321892e+00  -8.7246897e+00  -6.6330591e+00   0.0000000e+00   0.0000000e+00   5.0000000e+01   0.0000000e+00
   4.3583672e-01  -1.8159375e+00   1.2093563e+01   5.4635610e+00  -2.4145147e+01   9.4070397e-01  -1.0350954e+01  -2.2440797e+00  -7.7954877e+00   5.5455165e+00  -1.1588610e+01  -8.2140478e+00  -1.7144621e+01  -1.8229406e+01   3.5479429e+00  -7.3533987e+00  -7.9849244e+00   2.6336892e+00  -8.2285834e+00  -6.7391615e+00   0.0000000e+00   0.0000000e+00   5.0000000e+01   0.0000000e+00
   1.3148964e+00  -1.1577900e+00   1.1091725e+01   7.1007104e+00  -2.3274580e+01   1.7272721e+00  -9.5786834e+00  -2.7846907e+00  -6.2630970e+00   7.1768143e+00  -1.0536997e+01  -6.3530567e+00  -1.6089600e+01  -1.6956500e+01   4.4051970e+00  -8.2411596e+00  -6.7365485e+00   3.9658704e+00  -7.9477011e+00  -7.0142674e+00   0.0000000e+00   0.0000000e+00   5.0000000e+01   0.0000000e+00
   3.0050509e+00  -8.3589347e-01   9.9693555e+00   9.1333706e+00  -2.2379906e+01   2.0422717e+00  -9.0999651e+00  -3.4691715e+00  -4.1998761e+00   8.8734191e+00  -9.8947320e+00  -3.9517780e+00  -1.4487266e+01  -1.5563424e+01   4.9902614e+00  -9.5895908e+00  -5.1260783e+00   5.0262905e+00  -7.8899420e+00  -7.3965558e+00   0.0000000e+00   0.0000000e+00   5.0000000e+01   0.0000000e+00
   4.9606890e+00  -4.0503818e-01   9.3033761e+00   1.0975884e+01  -2.1885272e+01   1.7917447e+00  -9.0102561e+00  -3.7656535e+00  -2.6235643e+00   9.6735221e+00  -9.9017587e+00  -2.0233368e+00  -1.2999350e+01  -1.4691386e+01   4.9643512e+00  -1.0960739e+01  -3.7683531e+00   5.2846071e+00  -8.2781774e+00  -7.7842122e+00   0.0000000e+00   0.0000000e+00   5.0000000e+01   0.0000000e+00
   6.3225814e+00  -7.1200582e-02   9.3040855e+00   1.1568210e+01  -2.2564787e+01   7.8100237e-01  -9.3673374e+00  -3.2919029e+00  -2.5255603e+00   9.0455632e+00  -1.0525267e+01  -1.6939499e+00  -1.2637388e+01  -1.4980350e+01   4.2891120e+00  -1.1620273e+01  -3.6821576e+00   4.5594980e+00  -9.2383239e+00  -8.0359300e+00   0.0000000e+00   0.0000000e+00   5.0000000e+01   0.0000000e+00
   6.4293396e+00  -3.2238686e-01   9.6668281e+00   1.0484249e+01  -2.4632724e+01  -9.9498537e-01  -1.0017788e+01  -2.1622250e+00  -3.8470627e+00   7.8463073e+00  -1.1311943e+01  -2.9934834e+00  -1.3734392e+01  -1.6386864e+01   3.3546897e+00  -1.1295823e+01  -5.1343659e+00   3.0395198e+00  -1.0542603e+01  -8.0213336e+00   0.0000000e+00   0.0000000e+00   5.0000000e+01   0.0000000e+00
   5.5907091e+00  -7.1867886e-01   1.0100801e+01   8.4764706e+00  -2.7229619e+01  -3.0330969e+00  -1.0596245e+01  -8.2746494e-01  -5.5026887e+00   7.0233049e+00  -1.1603788e+01  -4.8443073e+00  -1.5598828e+01  -1.8069935e+01   2.7856409e+00  -1.0353805e+01  -7.3116926e+00   1.0910717e+00  -1.1625416e+01  -7.7179458e+00   0.0000000e+00   0.0000000e+00   5.0000000e+01   0.0000000e+00
   4.6770794e+00  -1.1025470e+00   1.0423357e+01   6.5710309e+00  -2.9393136e+01  -4.7150035e+00  -1.0912457e+01   3.3192200e-01  -6.6734342e+00   6.7073828e+00  -1.1167163e+01  -6.3151168e+00  -1.7378051e+01  -1.9406022e+01   2.7154867e+00  -9.2794514e+00  -9.3081616e+00  -8.7319255e-01  -1.2212612e+01  -7.2689605e+00   0.0000000e+00   0.0000000e+00   5.0000000e+01   0.0000000e+00
   3.6916949e+00  -1.7818984e+00   1.0314900e+01   4.9980284e+00  -3.1052855e+01  -6.0901561e+00  -1.1388367e+01   1.0796952e+00  -7.5657092e+00   6.4575491e+00  -1.0479557e+01  -7.3543331e+00  -1.8840962e+01  -2.0512218e+01   2.5501208e+00  -8.4813279e+00  -1.0897558e+01  -2.5629852e+00  -1.2739036e+01  -7.1011203e+00   0.0000000e+00   0.0000000e+00   5.0000000e+01   0.0000000e+00
   2.5764323e+00  -2.5490681e+00   9.8575890e+00   3.8540776e+00  -3.2180095e+01  -7.1482701e+00  -1.2163143e+01   1.4827200e+00  -8.2919816e+00   6.0289429e+00  -9.9691247e+00  -8.0193858e+00  -1.9687702e+01  -2.1433280e+01   1.9563902e+00  -7.9352365e+00  -1.1875533e+01  -3.6633981e+00  -1.3536212e+01  -7.3650207e+00   0.0000000e+00   0.0000000e+00   5.0000000e+01   0.0000000e+00
   1.9628069e+00  -3.1227631e+00   9.3813767e+00   3.4124659e+00  -3.2447012e+01  -7.6233038e+00  -1.2761581e+01   1.7724832e+00  -8.4124821e+00   5.9048531e+00  -9.4777045e+00  -8.0800247e+00  -1.9496256e+01  -2.1821885e+01   1.2216227e+00  -7.3709228e+00  -1.1932188e+01  -4.0885143e+00  -1.4466670e+01  -7.8153895e+00   0.0000000e+00   0.0000000e+00   5.0000000e+01   0.0000000e+00
   2.1976820e+00  -3.1678510e+00   9.1260209e+00   3.7650907e+00  -3.1836761e+01  -7.3722608e+00  -1.2740068e+01   2.2233707e+00  -7.7201343e+00   6.5404063e+00  -8.7524886e+00  -7.4635130e+00  -1.8362680e+01  -2.1346726e+01   9.0323097e-01  -6.5997012e+00  -1.1078852e+01  -3.8691860e+00  -1.5129253e+01  -8.0668516e+00   0.0000000e+00   0.0000000e+00   5.0000000e+01   0.0000000e+00
   2.6478963e+00  -2.6902685e+00   9.1884144e+00   4.6469286e+00  -3.0834954e+01  -6.5228194e+00  -1.2253655e+01   3.0299407e+00  -6.5351540e+00   7.7221361e+00  -7.9502766e+00  -6.6999000e+00  -1.6823533e+01  -2.0324929e+01   1.1347369e+00  -5.7603546e+00  -9.7640769e+00  -3.0265092e+00  -1.5424106e+01  -7.9672560e+00   0.0000000e+00   0.0000000e+00   5.0000000e+01   0.0000000e+00
   2.7380724e+00  -2.3425860e+00   9.2750109e+00   5.5610483e+00  -3.0016808e+01  -5.5694950e+00  -1.1944276e+01   3.9054338e+00  -5.4508867e+00   8.6920228e+00  -7.2576843e+00  -6.4529893e+00  -1.5463435e+01  -1.9482694e+01   1.3381977e+00  -5.2234166e+00  -8.6876910e+00  -1.9787394e+00  -1.5763232e+01  -7.8143654e+00   0.0000000e+00   0.0000000e+00   5.0000000e+01   0.0000000e+00
   2.5207726e+00  -2.5131971e+00   9.2054197e+00   6.1360206e+00  -2.9605966e+01  -4.9158584e+00  -1.1956800e+01   4.5589739e+00  -4.7928604e+00   9.0694904e+00  -6.7444173e+00  -6.5109624e+00  -1.4621544e+01  -1.9109300e+01   1.0288015e+00  -5.0337767e+00  -8.2515482e+00  -1.3267813e+00  -1.6424127e+01  -7.7933244e+00   0.0000000e+00   0.0000000e+00   5.0000000e+01   0.0000000e+00
   2.2137747e+00  -2.8780395e+00   9.3512023e+00   6.3126687e+00  -2.9549496e+01  -4.6133428e+00  -1.1747285e+01   5.2601800e+00  -4.4188188e+00   9.6244681e+00  -6.2709199e+00  -6.5040053e+00  -1.4250503e+01  -1.9023482e+01   5.0374748e-01  -4.8243735e+00  -8.2902528e+00  -1.1824069e+00  -1.7174568e+01  -7.6265095e+00   0.0000000e+00   0.0000000e+00   5.0000000e+01   0.0000000e+00
   2.2112882e+00  -2.7433263e+00   9.9262554e+00   6.2704428e+00  -2.9631145e+01  -4.4412427e+00  -1.1026262e+01   6.2704960e+00  -4.1493309e+00   1.0828128e+01  -5.5040847e+00  -6.4430532e+00  -1.4027548e+01  -1.8836807e+01   4.2150314e-01  -4.3636724e+00  -8.3607633e+00  -1.0105222e+00  -1.7483162e+01  -7.1127611e+00   0.0000000e+00   0.0000000e+00   5.0000000e+01   0.0000000e+00
   2.3490956e+00  -2.0846902e+00   1.0149158e+01   5.9727143e+00  -2.9896346e+01  -4.5799274e+00  -1.0406784e+01   7.0168553e+00  -4.2511179e+00   1.1913449e+01  -4.6788748e+00  -6.5513493e+00  -1.3993520e+01  -1.8614491e+01   6.5888552e-01  -4.1678750e+00  -8.4539882e+00  -7.2800213e-01  -1.7490028e+01  -6.8160033e+00   0.0000000e+00   0.0000000e+00   5.0000000e+01   0.0000000e+00
   2.5509987e+00  -1.3939946e+00   9.7095509e+00   5.6081115e+00  -3.0079105e+01  -5.0278695e+00  -1.0175023e+01   7.0748071e+00  -4.5300695e+00   1.2331907e+01  -4.1784691e+00  -6.6510831e+00  -1.4020956e+01  -1.8394638e+01   9.4124110e-01  -4.4577258e+00  -8.4867424e+00  -5.6476780e-01  -1.7431151e+01  -7.0340339e+00   0.0000000e+00   0.0000000e+00   5.0000000e+01   0.0000000e+00
   3.2214056e+00  -5.7613245e-01   9.3017075e+00   5.6165867e+00  -2.9670052e+01  -5.2361224e+00  -9.9461558e+00   6.8809586e+00  -4.3704735e+00   1.2312877e+01  -3.9500907e+00  -6.2942300e+00  -1.3646398e+01  -1.7894187e+01   1.4832428e+00  -4.7096231e+00  -8.1602325e+00  -3.3887310e-01  -1.6992657e+01  -7.2247083e+00   0.0000000e+00   0.0000000e+00   5.0000000e+01   0.0000000e+00
   4.5166704e+00   4.5780184e-01   9.3678362e+00   6.0700778e+00  -2.8762051e+01  -5.0280854e+00  -9.6321144e+00   6.9428344e+00  -3.7927437e+00   1.2116116e+01  -3.7569724e+00  -5.6140246e+00  -1.2857352e+01  -1.7086948e+01   2.3134694e+00  -4.5229383e+00  -7.5723958e+00   2.5086995e-01  -1.6132863e+01  -6.9598390e+00   0.0000000e+00   0.0000000e+00   5.0000000e+01   0.0000000e+00
   5.9389398e+00   1.2886006e+00   9.8022865e+00   6.6453724e+00  -2.7926639e+01  -4.7890914e+00  -9.4788554e+00   7.2575994e+00  -3.3932208e+00   1.1614754e+01  -3.6355630e+00  -5.0694530e+00  -1.2084454e+01  -1.6189489e+01   3.0222509e+00  -4.0175473e+00  -7.1060949e+00   1.0703837e+00  -1.5293798e+01  -6.4663668e+00   0.0000000e+00   0.0000000e+00   5.0000000e+01   0.0000000e+00
   6.7858525e+00   1.6704751e+00   1.0430903e+01   6.9831670e+00  -2.7630158e+01  -4.7955923e+00  -9.3762622e+00   7.6746071e+00  -3.5412772e+00   1.0849658e+01  -3.5876735e+00  -4.8358109e+00  -1.1617297e+01  -1.5353806e+01   3.4566869e+00  -3.3714933e+00  -6.9995485e+00   1.5365664e+00  -1.4758207e+01  -5.9288728e+00   0.0000000e+00   0.0000000e+00   5.0000000e+01   0.0000000e+00
   6.8983115e+00   1.4910549e+00   1.1124576e+01   7.0148150e+00  -2.7741906e+01  -4.7912230e+00  -8.9057042e+00   8.1847741e+00  -3.8333071e+00   1.0231107e+01  -3.3194906e+00  -4.6573200e+00  -1.1175001e+01  -1.4384823e+01   3.8647538e+00  -2.5631553e+00  -7.0384950e+00   1.5696671e+00  -1.4488926e+01  -5.2095204e+00   0.0000000e+00   0.0000000e+00   5.0000000e+01   0.0000000e+00
   6.6438886e+00   6.4253476e-01   1.1621636e+01   6.9546899e+00  -2.7707035e+01  -4.4175759e+00  -7.9386763e+00   8.5487989e+00  -3.6678647e+00   9.7567599e+00  -2.7049908e+00  -4.2543870e+00  -1.0294584e+01  -1.3112622e+01   4.4161829e+00  -1.7497096e+00  -6.8237128e+00   1.8333921e+00  -1.4454038e+01  -4.4238840e+00   0.0000000e+00   0.0000000e+00   5.0000000e+01   0.0000000e+00
   6.3727820e+00  -3.7996065e-01   1.1691577e+01   6.9497002e+00  -2.7171764e+01  -3.5082610e+00  -6.7845163e+00   8.4648128e+00  -2.9239878e+00   9.4732872e+00  -1.9535168e+00  -3.6459483e+00  -8.9752659e+00  -1.1827672e+01   4.9930150e+00  -1.2857855e+00  -6.2482294e+00   2.7527673e+00  -1.4575612e+01  -3.9229083e+00   0.0000000e+00   0.0000000e+00   5.0000000e+01   0.0000000e+00
   6.0529918e+00  -1.0371813e+00   1.1516968e+01   6.9691380e+00  -2.6257251e+01  -2.1969608e+00  -5.6989434e+00   8.1222528e+00  -2.0179382e+00   9.6486924e+00  -1.4005571e+00  -3.1207103e+00  -7.6727802e+00  -1.0962674e+01   5.3911126e+00  -1.2210039e+00  -5.6107042e+00   3.9246841e+00  -1.4596614e+01  -3.7491412e+00   0.0000000e+00   0.0000000e+00   5.0000000e+01   0.0000000e+00
   5.6713682e+00  -1.3969275e+00   1.1504631e+01   6.9714844e+00  -2.5210781e+01  -7.6210431e-01  -4.6149579e+00   7.8705773e+00  -1.3542053e+00   1.0123392e+01  -1.1652197e+00  -2.8239312e+00  -6.8599931e+00  -1.0556464e+01   5.6991255e+00  -1.2718966e+00  -5.1495975e+00   4.9239567e+00  -1.4161448e+01  -3.6114957e+00   0.0000000e+00   0.0000000e+00   5.0000000e+01   0.0000000e+00
   5.5036932e+00  -1.4535626e+00   1.1826935e+01   7.0818906e+00  -2.4223105e+01   5.8067918e-01  -3.4951575e+00   7.8506758e+00  -8.9597680e-01   1.0938517e+01  -1.0493168e+00  -2.5315034e+00  -6.6059530e+00  -1.0270682e+01   6.2030496e+00  -1.1782710e+00  -4.8043991e+00   5.9313779e+00  -1.3087409e+01  -3.2339217e+00   0.0000000e+00   0.0000000e+00   5.0000000e+01   0.0000000e+00
   5.6799154e+00  -8.8504526e-01   1.2266897e+01   7.2430118e+00  -2.3617626e+01   1.4626446e+00  -2.5104054e+00   7.8931258e+00  -4.1372401e-01   1.2110812e+01  -8.8581274e-01  -2.0197314e+00  -6.6892317e+00  -9.7424487e+00   7.1051609e+00  -9.9947489e-01  -4.5530059e+00   7.0152338e+00  -1.1613495e+01  -2.6753369e+00   0.0000000e+00   0.0000000e+00   5.0000000e+01   0.0000000e+00
   5.9510793e+00   7.6649527e-02   1.2440045e+01   7.1603735e+00  -2.3589047e+01   1.4591859e+00  -1.9324835e+00   7.6537932e+00   2.2673061e-01   1.3406581e+01  -6.5073814e-01  -1.3171263e+00  -6.9215514e+00  -8.9227502e+00   8.2342146e+00  -9.7512647e-01  -4.3984256e+00   7.7218195e+00  -1.0349518e+01  -2.2766815e+00   0.0000000e+00   0.0000000e+00   5.0000000e+01   0.0000000e+00
   6.3061026e+00   1.1899545e+00   1.2492056e+01   7.1492121e+00  -2.3619600e+01   7.8295873e-01  -1.6941551e+00   7.3429513e+00   1.2717611e+00   1.4832579e+01  -7.7249286e-02  -3.2276332e-01  -6.8141623e+00  -7.7481334e+00   9.5044338e+00  -8.8594970e-01  -3.9431243e+00   8.0134632e+00  -9.6290967e+00  -2.0345980e+00   0.0000000e+00   0.0000000e+00   5.0000000e+01   0.0000000e+00
   7.0198384e+00   2.5824005e+00   1.2642999e+01   7.7789903e+00  -2.3104078e+01   5.3149279e-02  -1.6636364e+00   7.2583549e+00   2.7586033e+00   1.6281059e+01   9.1829762e-01   9.6069031e-01  -5.9164961e+00  -6.1912631e+00   1.0948132e+01  -6.0297809e-01  -2.7743359e+00   8.4309253e+00  -9.4402266e+00  -1.8791437e+00   0.0000000e+00   0.0000000e+00   5.0000000e+01   0.0000000e+00
   8.1507667e+00   4.0746076e+00   1.2775305e+01   9.0042877e+00  -2.1995319e+01  -4.8411580e-01  -1.9316479e+00   7.3390194e+00   4.2457685e+00   1.7374688e+01   1.8778822e+00   2.2922711e+00  -4.3747518e+00  -4.5501013e+00   1.2236708e+01  -3.4607765e-01  -1.0739581e+00   9.1249940e+00  -9.6931839e+00  -1.8981427e+00   0.0000000e+00   0.0000000e+00   5.0000000e+01   0.0000000e+00
   9.2582063e+00   5.2328104e+00   1.2787595e+01   1.0385269e+01  -2.0667539e+01  -9.3135746e-01  -2.3937382e+00   7.4995265e+00   5.1505155e+00   1.7890132e+01   2.4193602e+00   3.6811873e+00  -2.8372343e+00  -3.1758559e+00   1.3026590e+01  -2.6163885e-01   6.0953021e-01   9.6515687e+00  -1.0129521e+01  -2.0984116e+00   0.0000000e+00   0.0000000e+00   5.0000000e+01   0.0000000e+00
   9.9302380e+00   5.7074922e+00   1.2766950e+01   1.1520277e+01  -1.9494987e+01  -1.1671007e+00  -2.6363527e+00   7.7351417e+00   5.2464887e+00   1.7943271e+01   2.6235853e+00   4.9243935e+00  -1.8367847e+00  -2.1668756e+00   1.3575155e+01  -2.3171175e-01   1.9330827e+00   9.8943207e+00  -1.0333446e+01  -2.2965294e+00   0.0000000e+00   0.0000000e+00   5.0000000e+01   0.0000000e+00
   9.9862735e+00   5.3822846e+00   1.2793223e+01   1.2084346e+01  -1.8806820e+01  -1.1415427e+00  -2.4626778e+00   8.0648465e+00   4.6344889e+00   1.7451203e+01   2.7484043e+00   5.5285131e+00  -1.6131196e+00  -1.5451105e+00   1.4211506e+01  -9.5325163e-02   2.6232793e+00   1.0221598e+01  -1.0230739e+01  -2.3578661e+00   0.0000000e+00   0.0000000e+00   5.0000000e+01   0.0000000e+00
   9.2786163e+00   4.2975344e+00   1.2805880e+01   1.1974908e+01  -1.8958730e+01  -1.1834183e+00  -2.0431602e+00   8.4130967e+00   3.4703092e+00   1.6581296e+01   2.8027437e+00   5.2365781e+00  -2.2949920e+00  -1.4955488e+00   1.4678060e+01   1.7159148e-01   2.3914766e+00   1.0638440e+01  -1.0200298e+01  -2.3742173e+00   0.0000000e+00   0.0000000e+00   5.0000000e+01   0.0000000e+00
   7.9478177e+00   2.6268002e+00   1.2786079e+01   1.1349632e+01  -2.0093857e+01  -1.5702280e+00  -1.5366184e+00   8.6506175e+00   1.9659394e+00   1.5776617e+01   2.6032453e+00   4.2723484e+00  -3.6970327e+00  -2.1393165e+00   1.4626370e+01   4.6266211e-01   1.2977529e+00   1.0549073e+01  -1.0584274e+01  -2.3957631e+00   0.0000000e+00   0.0000000e+00   5.0000000e+01   0.0000000e+00
   6.4235419e+00   7.3981660e-01   1.2752339e+01   1.0301698e+01  -2.2020705e+01  -2.3995056e+00  -1.1350944e+00   8.6856825e+00   2.4057340e-01   1.4888616e+01   2.0711412e+00   2.9233396e+00  -5.5454833e+00  -3.2981814e+00   1.4163427e+01   5.8833273e-01  -3.9618833e-01   9.5903320e+00  -1.1347506e+01  -2.4174636e+00   0.0000000e+00   0.0000000e+00   5.0000000e+01   0.0000000e+00
   5.1147597e+00  -7.7466943e-01   1.2844467e+01   8.9175044e+00  -2.4225921e+01  -3.6100717e+00  -9.8801391e-01   8.5379336e+00  -1.6826306e+00   1.3609911e+01   1.2540171e+00   1.2738157e+00  -7.6604478e+00  -4.5804421e+00   1.3583920e+01   5.1436173e-01  -2.4009595e+00   8.1907920e+00  -1.2221277e+01  -2.4257304e+00   0.0000000e+00   0.0000000e+00   5.0000000e+01   0.0000000e+00
   4.2884104e+00  -1.3939121e+00   1.3319540e+01   7.7052008e+00  -2.5907710e+01  -4.7956673e+00  -8.0575825e-01   8.5213731e+00  -3.4357249e+00   1.2383922e+01   5.5374654e-01  -1.4079504e-01  -9.4789489e+00  -5.3718276e+00   1.3348311e+01   5.4417125e-01  -4.0206634e+00   7.1550916e+00  -1.2770971e+01  -2.1633447e+00   0.0000000e+00   0.0000000e+00   5.0000000e+01   0.0000000e+00
   4.0979858e+00  -1.1643070e+00   1.4146369e+01   7.1841639e+00  -2.6444399e+01  -5.5284647e+00  -3.2917945e-01   8.9181878e+00  -4.6473222e+00   1.1925039e+01   4.1420812e-01  -9.0195309e-01  -1.0430969e+01  -5.2670159e+00   1.3835650e+01   9.4163677e-01  -4.6113854e+00   6.7146536e+00  -1.2658943e+01  -1.4546042e+00   0.0000000e+00   0.0000000e+00   5.0000000e+01   0.0000000e+00
   4.4447304e+00  -5.0557684e-01   1.4937869e+01   7.2605544e+00  -2.5991676e+01  -5.8682993e+00   2.5597645e-01   9.5721983e+00  -5.5115207e+00   1.2090680e+01   6.4386762e-01  -1.2070422e+00  -1.0696210e+01  -4.4699551e+00   1.4793276e+01   1.4439294e+00  -4.4348168e+00   6.4720106e+00  -1.2143296e+01  -6.1355891e-01   0.0000000e+00   0.0000000e+00   5.0000000e+01   0.0000000e+00
   5.3195066e+00   4.2616452e-01   1.5321121e+01   7.6665275e+00  -2.4962950e+01  -6.0125014e+00   6.3317794e-01   1.0079947e+01  -6.2385868e+00   1.2644446e+01   8.8944768e-01  -1.1237212e+00  -1.0687338e+01  -3.3854187e+00   1.5751007e+01   1.7220634e+00  -3.9877468e+00   6.3849944e+00  -1.1771248e+01  -3.7711591e-02   0.0000000e+00   0.0000000e+00   5.0000000e+01   0.0000000e+00
   6.5560558e+00   1.4322680e+00   1.5205398e+01   8.1463259e+00  -2.3876928e+01  -6.1393576e+00   5.1624527e-01   1.0003271e+01  -6.9106975e+00   1.3458096e+01   1.0565023e+00  -8.0357293e-01  -1.0638143e+01  -2.4226953e+00   1.6356692e+01   1.6624577e+00  -3.5015979e+00   6.4369671e+00  -1.1914154e+01   8.7427093e-02   0.0000000e+00   0.0000000e+00   5.0000000e+01   0.0000000e+00
   7.8346547e+00   2.2156906e+00   1.5027995e+01   8.6547394e+00  -2.3088898e+01  -6.1970155e+00   1.0727282e-01   9.4515567e+00  -7.3716939e+00   1.3887702e+01   1.2101298e+00  -3.3368312e-01  -1.0342363e+01  -1.6702787e+00   1.6557357e+01   1.4527064e+00  -2.8428498e+00   6.4041770e+00  -1.2385632e+01  -7.2701815e-02   0.0000000e+00   0.0000000e+00   5.0000000e+01   0.0000000e+00
   8.7541234e+00   2.5499263e+00   1.5036206e+01   9.0779646e+00  -2.2741258e+01  -6.1453076e+00  -2.7139858e-01   8.7868823e+00  -7.4383443e+00   1.3340323e+01   1.2476436e+00   1.8927125e-01  -9.6249134e+00  -1.1943603e+00   1.6359484e+01   1.2612367e+00  -2.0110050e+00   6.2065507e+00  -1.2963267e+01  -4.7703614e-01   0.0000000e+00   0.0000000e+00   5.0000000e+01   0.0000000e+00
   8.9725333e+00   2.4283812e+00   1.5112100e+01   9.1035034e+00  -2.2982616e+01  -6.1695002e+00  -5.2436926e-01   8.2180788e+00  -7.1791183e+00   1.2430041e+01   1.0116170e+00   4.2377436e-01  -8.7650049e+00  -1.2007211e+00   1.5836165e+01   1.1085441e+00  -1.4214534e+00   6.0771298e+00  -1.3669262e+01  -1.1005402e+00   0.0000000e+00   0.0000000e+00   5.0000000e+01   0.0000000e+00
   8.7341193e+00   2.4103696e+00   1.5367109e+01   8.9126891e+00  -2.3512823e+01  -6.2326009e+00  -4.9408401e-01   7.8984671e+00  -6.6217649e+00   1.2002717e+01   7.7775009e-01   3.9126376e-01  -7.9789647e+00  -1.4278705e+00   1.5294681e+01   1.0688581e+00  -1.1667703e+00   6.3585413e+00  -1.4277999e+01  -1.5472310e+00   0.0000000e+00   0.0000000e+00   5.0000000e+01   0.0000000e+00
   8.2778111e+00   2.5689893e+00   1.5742615e+01   8.7251702e+00  -2.3963366e+01  -6.2440301e+00  -1.3674429e-01   7.7893602e+00  -6.0721065e+00   1.2032001e+01   8.0610026e-01   1.0120731e-01  -7.4550605e+00  -1.5419439e+00   1.4892425e+01   1.2053725e+00  -1.1533853e+00   6.8587746e+00  -1.4493746e+01  -1.5375798e+00   0.0000000e+00   0.0000000e+00   5.0000000e+01   0.0000000e+00
