nt = 720
nc = 24
channels = F7 T3 T5 Fp1 F3 C3 P3 O1 F8 T4 T6 Fp2 F4 C4 P4 O2 Fz Cz Pz Oz TR SOn Occ RAp
ne = 20
type = B
fsmp = 120.0000000000
band = 0.1 0.2 44 58 0
orig.file = s8_bl1
orig.nt = 286700
orig.sample_range = 85479 89074
orig.fsmp = 600
orig.subject = 8
orig.run = 15
  -3.5147041e-01   8.3681593e+00   5.0462125e+00  -5.8461739e-01   6.0863997e+00   3.5721024e+01   8.6967583e+00   3.2969474e+00   8.3067035e+00   6.7565996e+00   7.2019754e+00   1.4414955e+00   3.1642209e+00   1.7774618e+01   5.4621687e+00   2.7293928e+00   9.2341010e-01   6.2929672e+00   2.2620182e+01   3.0977519e+00   0.0000000e+00   0.0000000e+00   0.0000000e+00   0.0000000e+00
   1.5432886e+00   9.9034701e+00   6.3567695e+00   2.0542110e+00   5.9080384e+00   4.1879273e+01   1.0343262e+01   5.3873598e+00   8.4174180e+00   6.8471323e+00   7.7834975e+00   3.5702506e+00   4.1512514e+00   1.6973037e+01   6.1382554e+00   4.8235195e+00   4.7082085e+00   9.5619207e+00   2.5171755e+01   3.6510176e+00   0.0000000e+00   0.0000000e+00   0.0000000e+00   0.0000000e+00
   2.3525494e+00   9.7111306e+00   7.3022094e+00   3.7909661e+00   5.4379448e+00   4.6544903e+01   1.1643382e+01   7.1036524e+00   8.2194235e+00   6.2864261e+00   8.0946853e+00   4.8241830e+00   4.9505149e+00   1.6372112e+01   6.2786435e+00   5.7783539e+00   7.2466072e+00   1.1660779e+01   2.6655209e+01   3.6683203e+00   0.0000000e+00   0.0000000e+00   0.0000000e+00   0.0000000e+00
   2.4408999e+00   8.2673333e+00   7.7490330e+00   4.6362347e+00   4.5417034e+00   4.9675003e+01   1.2330010e+01   8.0301395e+00   7.6870120e+00   5.8332157e+00   8.1264933e+00   5.4519353e+00   4.7845880e+00   1.5420313e+01   5.6957368e+00   5.8800913e+00   8.3704483e+00   1.2617728e+01   2.7097138e+01   2.9796237e+00   0.0000000e+00   0.0000000e+00   0.0000000e+00   0.0000000e+00
   2.3245387e+00   7.0063962e+00   7.5375640e+00   4.7760472e+00   3.5821754e+00   5.0790175e+01   1.2025857e+01   7.9879755e+00   6.8724343e+00   5.3945845e+00   7.8502428e+00   5.6538035e+00   3.8188013e+00   1.4196644e+01   4.5878968e+00   5.6115019e+00   8.5487776e+00   1.3147917e+01   2.6770128e+01   1.8029521e+00   0.0000000e+00   0.0000000e+00   0.0000000e+00   0.0000000e+00
   2.0023791e+00   6.3346360e+00   6.9201851e+00   4.7562245e+00   2.9054480e+00   5.0731274e+01   1.1096662e+01   7.3599738e+00   5.9275025e+00   4.5474744e+00   7.3909377e+00   5.6520534e+00   2.6229657e+00   1.2995920e+01   3.2774495e+00   5.4255995e+00   8.4222852e+00   1.3802527e+01   2.6130158e+01   4.9734185e-01   0.0000000e+00   0.0000000e+00   0.0000000e+00   0.0000000e+00
   1.6816144e+00   6.5613269e+00   6.2393411e+00   4.8377001e+00   2.1174332e+00   4.9723331e+01   9.9701295e+00   6.6667592e+00   4.7904062e+00   3.3056498e+00   6.8267158e+00   5.6031637e+00   1.6016905e+00   1.2160273e+01   2.1385556e+00   5.4760983e+00   8.0598072e+00   1.4235661e+01   2.5453976e+01  -7.5698948e-01   0.0000000e+00   0.0000000e+00   0.0000000e+00   0.0000000e+00
   1.4967849e+00   7.0632748e+00   5.6935462e+00   4.8136660e+00   1.2156469e+00   4.8394011e+01   8.9733688e+00   6.1956082e+00   3.6309511e+00   2.1362610e+00   6.2650585e+00   5.6443644e+00   1.0441793e+00   1.1880739e+01   1.4748683e+00   5.4240755e+00   7.5413974e+00   1.4194311e+01   2.4985259e+01  -1.7222872e+00   0.0000000e+00   0.0000000e+00   0.0000000e+00   0.0000000e+00
   1.1176503e+00   7.0686231e+00   5.3879741e+00   4.2964318e+00   1.3879464e-01   4.7159728e+01   8.2518147e+00   6.0424167e+00   2.8569929e+00   1.2831235e+00   5.8750655e+00   5.6442050e+00   7.3395041e-01   1.1534774e+01   1.1986448e+00   5.1544208e+00   6.8414471e+00   1.4030042e+01   2.4745343e+01  -2.1998958e+00   0.0000000e+00   0.0000000e+00   0.0000000e+00   0.0000000e+00
   3.5724114e-01   6.8500759e+00   5.4713494e+00   3.3185370e+00  -1.2651167e+00   4.5361574e+01   7.5744630e+00   6.1203462e+00   2.2293714e+00   4.6017180e-01   5.6873859e+00   5.3635720e+00   3.4683472e-01   1.0540128e+01   9.3361227e-01   4.8783054e+00   5.7570781e+00   1.3888245e+01   2.4348580e+01  -2.4342270e+00   0.0000000e+00   0.0000000e+00   0.0000000e+00   0.0000000e+00
  -5.4939863e-01   6.5409648e+00   5.7923320e+00   2.3872228e+00  -2.7009495e+00   4.3595929e+01   7.0599790e+00   6.2250884e+00   1.5015799e+00  -2.3995090e-01   5.5997844e+00   4.9283307e+00  -2.0080092e-02   9.3908658e+00   4.6664294e-01   4.6864704e+00   4.5006821e+00   1.3503141e+01   2.3755735e+01  -2.7156471e+00   0.0000000e+00   0.0000000e+00   0.0000000e+00   0.0000000e+00
  -1.2852986e+00   5.9566013e+00   6.1744721e+00   1.7832616e+00  -3.7069847e+00   4.3531965e+01   7.3028515e+00   6.4281860e+00   1.1334841e+00   1.3065063e-02   5.7812132e+00   4.6679081e+00  -1.6428187e-01   8.8259250e+00   2.1213853e-01   4.8665025e+00   3.6981711e+00   1.3103168e+01   2.3609727e+01  -2.7186240e+00   0.0000000e+00   0.0000000e+00   0.0000000e+00   0.0000000e+00
  -1.3923810e+00   5.5083128e+00   6.4631872e+00   1.6405210e+00  -3.9004221e+00   4.4668100e+01   8.2066475e+00   6.8070833e+00   1.6401247e+00   1.6671167e+00   6.4397569e+00   4.9701098e+00   3.9275659e-01   9.3060034e+00   6.5112066e-01   5.5515409e+00   3.8234883e+00   1.3443665e+01   2.4231478e+01  -2.1499830e+00   0.0000000e+00   0.0000000e+00   0.0000000e+00   0.0000000e+00
  -5.8782774e-01   5.8658777e+00   6.7595415e+00   2.2592936e+00  -2.8763269e+00   4.5761908e+01   9.1950306e+00   7.3243055e+00   3.0210256e+00   3.3924100e+00   7.4261725e+00   6.0664515e+00   2.0533429e+00   1.0872769e+01   1.8273433e+00   6.7263961e+00   4.9864182e+00   1.4774764e+01   2.5342438e+01  -1.0116861e+00   0.0000000e+00   0.0000000e+00   0.0000000e+00   0.0000000e+00
   6.8927514e-01   6.7797229e+00   7.0676010e+00   3.5268962e+00  -8.0667763e-01   4.6895375e+01   1.0185718e+01   8.0036062e+00   4.6909273e+00   4.0187456e+00   8.4270047e+00   7.7691261e+00   4.2756379e+00   1.2996654e+01   3.4120230e+00   8.5481532e+00   6.8515813e+00   1.6433844e+01   2.6592215e+01   5.6475798e-01   0.0000000e+00   0.0000000e+00   0.0000000e+00   0.0000000e+00
   1.8256371e+00   7.7206828e+00   7.3696204e+00   4.8395368e+00   1.1624115e+00   4.7988407e+01   1.0855372e+01   8.3636737e+00   6.0378773e+00   4.1072988e+00   9.0766810e+00   9.3354323e+00   6.0379533e+00   1.5076600e+01   4.7544779e+00   1.0408373e+01   8.7206295e+00   1.7674752e+01   2.7537884e+01   1.9429298e+00   0.0000000e+00   0.0000000e+00   0.0000000e+00   0.0000000e+00
   2.6619345e+00   8.5857409e+00   7.5258830e+00   5.7912149e+00   2.4525014e+00   4.8413527e+01   1.0917442e+01   8.0971604e+00   7.1386758e+00   4.5682922e+00   9.3173072e+00   1.0317592e+01   6.9466251e+00   1.5883670e+01   5.3231821e+00   1.1319581e+01   1.0129305e+01   1.8580150e+01   2.7853220e+01   2.6541670e+00   0.0000000e+00   0.0000000e+00   0.0000000e+00   0.0000000e+00
   3.3306240e+00   9.4950331e+00   7.7794121e+00   6.3100066e+00   3.4766624e+00   4.8113959e+01   1.0756553e+01   7.8867833e+00   8.0403599e+00   5.3008100e+00   9.4482795e+00   1.0890142e+01   7.4685449e+00   1.5495871e+01   5.3249918e+00   1.1292755e+01   1.1191364e+01   1.9563042e+01   2.7756557e+01   2.9984118e+00   0.0000000e+00   0.0000000e+00   0.0000000e+00   0.0000000e+00
   3.6433350e+00   1.0369667e+01   8.0631089e+00   6.4756590e+00   4.4169381e+00   4.7438206e+01   1.0596058e+01   8.0705173e+00   8.3526614e+00   5.5478121e+00   9.4136466e+00   1.1140871e+01   7.7330423e+00   1.5036041e+01   5.0385679e+00   1.0497633e+01   1.1927744e+01   2.0172104e+01   2.7414635e+01   2.9749800e+00   0.0000000e+00   0.0000000e+00   0.0000000e+00   0.0000000e+00
   3.5112146e+00   1.0729379e+01   8.2466384e+00   6.3571007e+00   4.8768719e+00   4.6504524e+01   1.0465497e+01   8.4353390e+00   8.0903722e+00   5.3111033e+00   9.1253674e+00   1.1164575e+01   7.7153507e+00   1.4758564e+01   4.4717058e+00   9.2382826e+00   1.2224995e+01   1.9883560e+01   2.6841188e+01   2.4436309e+00   0.0000000e+00   0.0000000e+00   0.0000000e+00   0.0000000e+00
   3.3113221e+00   1.0372941e+01   8.4802223e+00   6.2862056e+00   4.9123673e+00   4.6126955e+01   1.0655219e+01   8.8295277e+00   7.9306418e+00   5.2114440e+00   9.0002490e+00   1.1310535e+01   7.7376658e+00   1.4499314e+01   3.8186637e+00   8.4258092e+00   1.2412551e+01   1.9271935e+01   2.6478099e+01   1.9428508e+00   0.0000000e+00   0.0000000e+00   0.0000000e+00   0.0000000e+00
   3.1360422e+00   1.0163160e+01   8.3576464e+00   6.4494874e+00   4.7650313e+00   4.6005781e+01   1.0928412e+01   9.1634498e+00   8.1210748e+00   5.2142630e+00   9.1720809e+00   1.1356389e+01   7.6935762e+00   1.4051931e+01   3.2867213e+00   8.3477486e+00   1.2550289e+01   1.8734429e+01   2.6483842e+01   1.7285687e+00   0.0000000e+00   0.0000000e+00   0.0000000e+00   0.0000000e+00
   2.9242130e+00   1.0690624e+01   8.0106183e+00   6.6855453e+00   4.5839900e+00   4.5233460e+01   1.1037184e+01   9.5789481e+00   8.1056868e+00   4.9636995e+00   9.3265666e+00   1.0993031e+01   7.4640247e+00   1.3697316e+01   3.0478423e+00   8.4522763e+00   1.2459920e+01   1.7969759e+01   2.6658673e+01   1.5358238e+00   0.0000000e+00   0.0000000e+00   0.0000000e+00   0.0000000e+00
   2.7575816e+00   1.1414328e+01   7.4938305e+00   6.6961081e+00   4.2834481e+00   4.4145322e+01   1.0963055e+01   9.8052791e+00   7.6289292e+00   4.8575303e+00   9.2234697e+00   1.0263338e+01   7.0549572e+00   1.3204990e+01   2.7543677e+00   8.0910052e+00   1.2006875e+01   1.6847100e+01   2.6728543e+01   1.0229832e+00   0.0000000e+00   0.0000000e+00   0.0000000e+00   0.0000000e+00
   2.4793013e+00   1.1647833e+01   7.1719753e+00   6.2064613e+00   3.7575905e+00   4.3166911e+01   1.0648695e+01   9.5276069e+00   6.9566464e+00   5.1559311e+00   8.8623605e+00   9.2568100e+00   6.4132698e+00   1.2426883e+01   2.2030374e+00   7.3411377e+00   1.1270082e+01   1.5846235e+01   2.6563536e+01   2.1020501e-01   0.0000000e+00   0.0000000e+00   0.0000000e+00   0.0000000e+00
   2.0628646e+00   1.1853769e+01   7.1148049e+00   5.5953800e+00   3.2718084e+00   4.1866570e+01   1.0304392e+01   8.9436101e+00   6.3856615e+00   5.2618295e+00   8.3574570e+00   8.2962299e+00   5.7852783e+00   1.1752350e+01   1.6277594e+00   6.5997111e+00   1.0585098e+01   1.5405622e+01   2.6297205e+01  -5.4682967e-01   0.0000000e+00   0.0000000e+00   0.0000000e+00   0.0000000e+00
   1.9649759e+00   1.2535233e+01   6.9386061e+00   5.2430640e+00   2.8052590e+00   3.9722901e+01   1.0011093e+01   8.2885986e+00   5.9017124e+00   4.9795724e+00   7.6401147e+00   7.5065141e+00   5.1994846e+00   1.1042192e+01   8.9907010e-01   5.9944663e+00   9.8844466e+00   1.5161463e+01   2.5858808e+01  -1.0882873e+00   0.0000000e+00   0.0000000e+00   0.0000000e+00   0.0000000e+00
   2.1003625e+00   1.2649967e+01   6.3586787e+00   4.8165996e+00   2.3419883e+00   3.7908992e+01   9.6527832e+00   7.4724487e+00   5.3354130e+00   4.4471260e+00   6.5603749e+00   6.7295417e+00   4.4361065e+00   1.0453091e+01   4.9672179e-02   5.3257819e+00   9.0594725e+00   1.4777895e+01   2.5290992e+01  -1.6261694e+00   0.0000000e+00   0.0000000e+00   0.0000000e+00   0.0000000e+00
   1.9793318e+00   1.1795111e+01   5.6594935e+00   4.0843828e+00   2.1588981e+00   3.8068719e+01   9.4400495e+00   6.5959067e+00   4.9123088e+00   3.5780158e+00   5.4720858e+00   5.8600374e+00   3.8564386e+00   1.0270766e+01  -3.7203354e-01   4.5724312e+00   8.4754928e+00   1.4817637e+01   2.4946600e+01  -2.1248310e+00   0.0000000e+00   0.0000000e+00   0.0000000e+00   0.0000000e+00
   1.3486725e+00   1.0916773e+01   5.1112105e+00   2.7284192e+00   1.8063747e+00   3.9389209e+01   9.3148013e+00   6.0459032e+00   4.4236867e+00   2.5420651e+00   4.7797281e+00   4.5381163e+00   3.6774827e+00   1.0355823e+01  -4.0671519e-01   3.9767351e+00   7.9888143e+00   1.5412921e+01   2.4652087e+01  -2.5311034e+00   0.0000000e+00   0.0000000e+00   0.0000000e+00   0.0000000e+00
   4.0925472e-01   1.0124399e+01   4.5016853e+00   1.2869130e+00   1.1697634e+00   3.9900050e+01   9.0399195e+00   5.8928952e+00   3.5723351e+00   1.4940226e+00   4.2896249e+00   3.0949051e+00   3.6671874e+00   1.0646636e+01  -6.8972100e-01   3.3376034e+00   7.1387113e+00   1.5761946e+01   2.3879229e+01  -3.1646268e+00   0.0000000e+00   0.0000000e+00   0.0000000e+00   0.0000000e+00
  -5.2449481e-01   9.1431369e+00   3.8857737e+00   6.3959808e-01   6.0635905e-01   3.9282676e+01   8.6685029e+00   5.6854633e+00   2.9448927e+00   9.1357041e-01   3.9163608e+00   2.3611264e+00   3.6116613e+00   1.1167618e+01  -1.2349972e+00   2.5810411e+00   5.9832192e+00   1.5525391e+01   2.2689216e+01  -4.0194811e+00   0.0000000e+00   0.0000000e+00   0.0000000e+00   0.0000000e+00
  -1.1632382e+00   8.5039956e+00   3.2148174e+00   5.3261244e-01  -5.7570202e-02   3.8060999e+01   8.2215025e+00   5.2184071e+00   2.9300859e+00   1.3018816e+00   3.8048071e+00   2.2501234e+00   3.4738429e+00   1.1757939e+01  -1.4966767e+00   2.1177234e+00   4.8736129e+00   1.5242429e+01   2.1650293e+01  -4.7830895e+00   0.0000000e+00   0.0000000e+00   0.0000000e+00   0.0000000e+00
  -1.4230013e+00   8.2914254e+00   2.7195392e+00   5.8808703e-01  -7.2404285e-01   3.6921617e+01   8.0243114e+00   4.8079724e+00   3.3228141e+00   2.9872278e+00   3.9290202e+00   2.2751846e+00   3.4062668e+00   1.1913058e+01  -1.2595246e+00   2.0500892e+00   4.1311170e+00   1.5361629e+01   2.1159456e+01  -5.3189161e+00   0.0000000e+00   0.0000000e+00   0.0000000e+00   0.0000000e+00
  -1.4905222e+00   8.0363853e+00   2.4258619e+00   6.4583101e-01  -1.0597610e+00   3.6596607e+01   8.4203328e+00   4.6197792e+00   3.6399514e+00   5.0695156e+00   3.9676096e+00   2.2397048e+00   3.3251135e+00   1.1399079e+01  -9.4166419e-01   1.9862437e+00   3.7541587e+00   1.5477074e+01   2.1132352e+01  -5.7901150e+00   0.0000000e+00   0.0000000e+00   0.0000000e+00   0.0000000e+00
  -1.2837459e+00   7.7163152e+00   2.3088342e+00   5.7747841e-01  -1.1453232e+00   3.7240734e+01   9.3576349e+00   4.7335367e+00   3.5772813e+00   5.6557243e+00   3.7794749e+00   2.1089382e+00   3.4242037e+00   1.0678811e+01  -6.8458786e-01   1.7990052e+00   3.6748019e+00   1.5340559e+01   2.1471914e+01  -6.1762614e+00   0.0000000e+00   0.0000000e+00   0.0000000e+00   0.0000000e+00
  -8.1651907e-01   8.0773532e+00   2.8379429e+00   4.1030416e-01  -1.1180026e+00   3.8139875e+01   1.0445115e+01   5.2005153e+00   3.2771985e+00   4.6134033e+00   3.6193691e+00   1.7847689e+00   3.8253348e+00   1.0264402e+01  -4.7300422e-02   1.5017724e+00   3.8757990e+00   1.5549112e+01   2.2117697e+01  -6.1862912e+00   0.0000000e+00   0.0000000e+00   0.0000000e+00   0.0000000e+00
  -2.8361498e-01   9.0873781e+00   3.5495359e+00   2.8687420e-01  -1.2832321e+00   3.8130523e+01   1.1031583e+01   5.4713016e+00   2.8993340e+00   3.3337009e+00   3.3612441e+00   1.2081797e+00   3.8056128e+00   9.2305154e+00   4.5960172e-01   7.5623270e-01   3.8518360e+00   1.6154360e+01   2.2380200e+01  -6.2004910e+00   0.0000000e+00   0.0000000e+00   0.0000000e+00   0.0000000e+00
   3.2677965e-01   9.8577308e+00   3.8588735e+00   5.7148889e-01  -1.5343593e+00   3.7513265e+01   1.0966023e+01   4.9113092e+00   2.4552180e+00   2.5898581e+00   2.7662276e+00   6.8703858e-01   3.2246375e+00   7.5680254e+00   6.5867890e-02  -4.2412624e-01   3.5106386e+00   1.6527143e+01   2.1838193e+01  -6.8589748e+00   0.0000000e+00   0.0000000e+00   0.0000000e+00   0.0000000e+00
   1.2273997e+00   1.0571855e+01   3.7126288e+00   1.5359506e+00  -1.3714880e+00   3.7257257e+01   1.0458846e+01   3.8014751e+00   1.9947015e+00   2.5122311e+00   2.1172768e+00   5.5527562e-01   2.7095670e+00   6.4254969e+00  -8.8788600e-01  -1.8460003e+00   3.3731339e+00   1.6544072e+01   2.0882810e+01  -8.0537767e+00   0.0000000e+00   0.0000000e+00   0.0000000e+00   0.0000000e+00
   2.3265660e+00   1.1601306e+01   3.4122817e+00   2.8428311e+00  -9.6892893e-01   3.6915728e+01   9.7367009e+00   2.6732622e+00   1.7645802e+00   2.8892347e+00   1.7432754e+00   7.8974503e-01   2.4917688e+00   5.7039836e+00  -1.9500854e+00  -3.7657598e+00   3.4388046e+00   1.6582777e+01   1.9828426e+01  -9.3955322e+00   0.0000000e+00   0.0000000e+00   0.0000000e+00   0.0000000e+00
   3.1670784e+00   1.2162936e+01   2.9196367e+00   3.9682972e+00  -6.2683486e-01   3.6239219e+01   9.1920279e+00   1.8379812e+00   1.7571606e+00   3.2715767e+00   1.5638237e+00   1.1409732e+00   2.4319388e+00   4.8736723e+00  -2.9108412e+00  -5.8845854e+00   3.3588017e+00   1.6729075e+01   1.8825768e+01  -1.0513751e+01   0.0000000e+00   0.0000000e+00   0.0000000e+00   0.0000000e+00
   3.5201204e+00   1.1785160e+01   2.2136083e+00   4.8003434e+00  -3.1734946e-01   3.5769166e+01   9.0142496e+00   1.5140929e+00   1.8081432e+00   3.6019395e+00   1.4402328e+00   1.5328464e+00   2.3889970e+00   4.1915070e+00  -3.5251316e+00  -7.2408292e+00   3.0560546e+00   1.6609337e+01   1.8131498e+01  -1.1038876e+01   0.0000000e+00   0.0000000e+00   0.0000000e+00   0.0000000e+00
   3.7103748e+00   1.1150765e+01   1.5343695e+00   5.5099731e+00  -8.1124569e-02   3.5356758e+01   9.1740574e+00   1.7549428e+00   2.0409222e+00   4.0945564e+00   1.5417752e+00   2.0869482e+00   2.5438664e+00   4.2949656e+00  -3.4938977e+00  -7.0781501e+00   2.7567552e+00   1.6209948e+01   1.8104178e+01  -1.0652311e+01   0.0000000e+00   0.0000000e+00   0.0000000e+00   0.0000000e+00
   4.0263105e+00   1.0507608e+01   1.0670540e+00   6.2228890e+00   9.1199229e-02   3.5533671e+01   9.9754903e+00   2.4167285e+00   2.7682663e+00   5.2179964e+00   2.0280729e+00   2.8705270e+00   3.1664904e+00   5.3061340e+00  -2.5949969e+00  -5.1825317e+00   2.9349647e+00   1.6330463e+01   1.9152466e+01  -9.1061400e+00   0.0000000e+00   0.0000000e+00   0.0000000e+00   0.0000000e+00
   4.4037667e+00   1.0095000e+01   1.0310432e+00   6.9336210e+00   2.2166934e-01   3.6224553e+01   1.1243717e+01   3.0942768e+00   4.0142193e+00   6.4285435e+00   2.5654115e+00   3.7607933e+00   3.8366225e+00   6.4525752e+00  -1.4624589e+00  -3.0419166e+00   3.4965825e+00   1.7143808e+01   2.0851271e+01  -7.3105451e+00   0.0000000e+00   0.0000000e+00   0.0000000e+00   0.0000000e+00
   4.8293249e+00   1.0417365e+01   1.1159065e+00   7.6377477e+00   5.9093250e-01   3.6430612e+01   1.2283086e+01   3.4610350e+00   5.3343607e+00   7.0055750e+00   2.7982614e+00   4.6467636e+00   4.2471197e+00   6.9519455e+00  -8.5381076e-01  -2.1362913e+00   4.0192785e+00   1.7853203e+01   2.2186355e+01  -6.4849158e+00   0.0000000e+00   0.0000000e+00   0.0000000e+00   0.0000000e+00
   5.2279829e+00   1.1080613e+01   1.4125901e+00   8.0749845e+00   1.1885915e+00   3.6807666e+01   1.2856554e+01   3.6148400e+00   6.3501975e+00   7.3294600e+00   2.7913730e+00   5.2752835e+00   4.6512885e+00   7.2607303e+00  -7.1925339e-01  -2.1987786e+00   4.4842347e+00   1.8170231e+01   2.2728130e+01  -6.5341357e+00   0.0000000e+00   0.0000000e+00   0.0000000e+00   0.0000000e+00
   5.3790645e+00   1.1864016e+01   1.8286166e+00   7.9387901e+00   1.2696825e+00   3.7706122e+01   1.2942713e+01   3.5801295e+00   7.2160677e+00   7.7819210e+00   2.7687074e+00   5.3810931e+00   4.9135200e+00   7.7180932e+00  -8.4037501e-01  -2.5761830e+00   4.7953175e+00   1.8501631e+01   2.2458210e+01  -6.8751175e+00   0.0000000e+00   0.0000000e+00   0.0000000e+00   0.0000000e+00
   5.2213772e+00   1.2933528e+01   2.1299984e+00   7.2765899e+00   4.9655244e-01   3.7472130e+01   1.2527221e+01   3.1972406e+00   8.0448430e+00   7.9960475e+00   2.7169406e+00   5.1327204e+00   4.7820015e+00   8.0715928e+00  -1.2340160e+00  -2.9263349e+00   4.6968082e+00   1.8883699e+01   2.1379376e+01  -7.4640985e+00   0.0000000e+00   0.0000000e+00   0.0000000e+00   0.0000000e+00
   4.6909783e+00   1.3536225e+01   2.2597422e+00   6.5176145e+00  -4.8472330e-01   3.6107903e+01   1.1972598e+01   2.6830976e+00   8.6638205e+00   7.6815511e+00   2.6293218e+00   4.9132984e+00   4.4796122e+00   8.3229989e+00  -1.8250055e+00  -3.3193516e+00   4.3201777e+00   1.8783833e+01   1.9917255e+01  -8.4889221e+00   0.0000000e+00   0.0000000e+00   0.0000000e+00   0.0000000e+00
   4.0822505e+00   1.3281866e+01   1.9667371e+00   6.1886513e+00  -1.0330629e+00   3.4848232e+01   1.1533173e+01   2.4340165e+00   9.1195059e+00   7.3719741e+00   2.7510133e+00   4.9805976e+00   4.3085313e+00   8.4223115e+00  -2.3428972e+00  -3.6466685e+00   4.0485501e+00   1.8103307e+01   1.8756724e+01  -9.6526814e+00   0.0000000e+00   0.0000000e+00   0.0000000e+00   0.0000000e+00
   3.9235542e+00   1.2812582e+01   1.7103939e+00   6.5013706e+00  -1.0317793e+00   3.4252460e+01   1.1337325e+01   2.5733527e+00   9.3711915e+00   7.0357162e+00   3.1900239e+00   5.2485096e+00   4.3608117e+00   8.5277048e+00  -2.4617116e+00  -3.6487053e+00   4.1200068e+00   1.7511652e+01   1.8397005e+01  -1.0472086e+01   0.0000000e+00   0.0000000e+00   0.0000000e+00   0.0000000e+00
   4.0543189e+00   1.2406657e+01   1.7500436e+00   7.0936119e+00  -8.5272837e-01   3.4277615e+01   1.1451458e+01   2.9481769e+00   9.1938240e+00   6.3472848e+00   3.6328338e+00   5.4727035e+00   4.6123451e+00   8.4730774e+00  -2.3785642e+00  -3.6285712e+00   4.3124877e+00   1.7318554e+01   1.8637736e+01  -1.1020863e+01   0.0000000e+00   0.0000000e+00   0.0000000e+00   0.0000000e+00
   3.8794370e+00   1.1880449e+01   1.8020676e+00   7.2636150e+00  -1.2010863e+00   3.3728725e+01   1.1454217e+01   3.1690364e+00   8.4861205e+00   5.5993892e+00   3.5255490e+00   5.4169141e+00   4.4283493e+00   7.6605871e+00  -2.7587401e+00  -3.8700567e+00   3.8503790e+00   1.6827856e+01   1.8542669e+01  -1.1730617e+01   0.0000000e+00   0.0000000e+00   0.0000000e+00   0.0000000e+00
   3.1480430e+00   1.0947740e+01   1.5139584e+00   6.6970393e+00  -2.3807157e+00   3.2183957e+01   1.0998292e+01   3.2133255e+00   7.3876167e+00   5.1582322e+00   3.0029627e+00   5.0164727e+00   3.4476860e+00   6.5846140e+00  -3.5812047e+00  -3.9939970e+00   2.5726074e+00   1.5637546e+01   1.7769082e+01  -1.2412477e+01   0.0000000e+00   0.0000000e+00   0.0000000e+00   0.0000000e+00
   2.2041506e+00   9.9032597e+00   8.9246957e-01   5.7466413e+00  -3.9338941e+00   3.0220280e+01   1.0252755e+01   3.5356913e+00   6.1240418e+00   4.8458690e+00   2.7861591e+00   4.4357817e+00   2.0742881e+00   5.9506629e+00  -4.3056359e+00  -3.3846478e+00   1.1423890e+00   1.4373047e+01   1.6733420e+01  -1.2391171e+01   0.0000000e+00   0.0000000e+00   0.0000000e+00   0.0000000e+00
   1.2904827e+00   8.8732064e+00   1.9582915e-01   4.9114031e+00  -5.3457778e+00   2.8099129e+01   9.4620122e+00   4.2361863e+00   4.7996782e+00   4.6367094e+00   3.0128150e+00   3.7467618e+00   7.6393358e-01   5.3577845e+00  -4.8942132e+00  -2.1787668e+00  -4.8006235e-02   1.3468469e+01   1.5526971e+01  -1.1693161e+01   0.0000000e+00   0.0000000e+00   0.0000000e+00   0.0000000e+00
   5.4586375e-01   7.8183482e+00  -2.5059238e-01   4.3430932e+00  -6.4454513e+00   2.6327224e+01   8.6332584e+00   4.9721756e+00   3.6149245e+00   4.5950814e+00   3.2466819e+00   2.9724691e+00   1.5700282e-02   4.6472644e+00  -5.6310186e+00  -1.1944357e+00  -1.0238872e+00   1.2672139e+01   1.4018608e+01  -1.1101400e+01   0.0000000e+00   0.0000000e+00   0.0000000e+00   0.0000000e+00
   7.8777420e-02   6.8889428e+00  -1.2634391e-01   3.9053151e+00  -7.1037835e+00   2.5859697e+01   8.0356138e+00   5.6173144e+00   2.7015411e+00   3.6527525e+00   3.2941347e+00   2.2011053e+00  -9.9858787e-02   4.4726620e+00  -6.1410192e+00  -6.6726065e-01  -1.6303285e+00   1.2099280e+01   1.2793276e+01  -1.0809059e+01   0.0000000e+00   0.0000000e+00   0.0000000e+00   0.0000000e+00
  -2.2177431e-01   6.2294101e+00   3.2984347e-01   3.2676886e+00  -7.7282741e+00   2.5763569e+01   7.5987454e+00   5.9112627e+00   1.9193947e+00   1.9792840e+00   3.1207436e+00   1.3569053e+00  -3.3978857e-01   4.2412375e+00  -6.4534133e+00  -4.9649857e-01  -2.1182254e+00   1.2020367e+01   1.2041285e+01  -1.0737194e+01   0.0000000e+00   0.0000000e+00   0.0000000e+00   0.0000000e+00
  -4.5396487e-01   5.9879857e+00   5.2044585e-01   2.3089523e+00  -8.6448119e+00   2.5081640e+01   7.1115040e+00   5.5860395e+00   1.1843139e+00   7.8085357e-01   2.6687588e+00   3.6138019e-01  -9.5734452e-01   3.1354829e+00  -7.1031510e+00  -5.0036466e-01  -2.8144908e+00   1.2189560e+01   1.1343604e+01  -1.1074704e+01   0.0000000e+00   0.0000000e+00   0.0000000e+00   0.0000000e+00
  -8.1229821e-01   5.9909187e+00   4.2177998e-01   1.3280462e+00  -9.5499985e+00   2.4250365e+01   6.9336968e+00   5.0495809e+00   6.2561903e-01   3.2101522e-01   2.0509135e+00  -5.3832847e-01  -1.4305446e+00   1.7631358e+00  -7.9417749e+00  -4.0321697e-01  -3.5028739e+00   1.2095465e+01   1.0785645e+01  -1.1676568e+01   0.0000000e+00   0.0000000e+00   0.0000000e+00   0.0000000e+00
  -1.3705450e+00   5.8865577e+00   4.0526017e-01   3.6880055e-01  -1.0222002e+01   2.3829200e+01   7.4247421e+00   4.7583527e+00   4.3883789e-01   4.8411335e-01   1.4517138e+00  -1.2409108e+00  -1.6182143e+00   7.4715798e-01  -8.5806015e+00  -4.0047412e-01  -4.0485779e+00   1.1582927e+01   1.0704330e+01  -1.2219022e+01   0.0000000e+00   0.0000000e+00   0.0000000e+00   0.0000000e+00
  -1.8728861e+00   5.6093971e+00   2.1907723e-01  -5.4949392e-01  -1.0760680e+01   2.3766767e+01   8.4001115e+00   4.7323097e+00   6.7248395e-01   7.9226825e-01   1.1471455e+00  -1.8395472e+00  -1.5336645e+00   2.8537053e-01  -8.6946861e+00  -6.2013780e-01  -4.4411211e+00   1.1143751e+01   1.1184551e+01  -1.2463865e+01   0.0000000e+00   0.0000000e+00   0.0000000e+00   0.0000000e+00
  -2.0198251e+00   5.4929444e+00  -1.8278536e-01  -1.0111529e+00  -1.0967770e+01   2.3644794e+01   9.2162459e+00   4.8064097e+00   1.1423720e+00   1.2754945e+00   1.2536162e+00  -1.9759714e+00  -8.6305508e-01   2.5107222e-01  -8.3333308e+00  -8.1561045e-01  -4.3613936e+00   1.1166116e+01   1.1819999e+01  -1.2407451e+01   0.0000000e+00   0.0000000e+00   0.0000000e+00   0.0000000e+00
  -1.7167920e+00   5.7746033e+00  -7.0359920e-01  -6.8880127e-01  -1.0597996e+01   2.3206421e+01   9.5214123e+00   4.9256911e+00   1.8791822e+00   2.1293303e+00   1.5296558e+00  -1.2478704e+00   6.2899541e-01   6.6978141e-01  -7.8442501e+00  -1.0251671e+00  -3.5596361e+00   1.1299221e+01   1.2023070e+01  -1.2373231e+01   0.0000000e+00   0.0000000e+00   0.0000000e+00   0.0000000e+00
  -1.0064611e+00   6.0283754e+00  -1.3505118e+00   5.0121215e-01  -9.6761496e+00   2.2443057e+01   9.2245540e+00   4.6659720e+00   3.3059967e+00   3.1940806e+00   1.8832962e+00   2.3228023e-01   2.5750411e+00   1.2895105e+00  -7.4616020e+00  -1.5819469e+00  -2.2724347e+00   1.1093497e+01   1.1461288e+01  -1.2751108e+01   0.0000000e+00   0.0000000e+00   0.0000000e+00   0.0000000e+00
   1.1537146e-01   5.9947202e+00  -1.7884432e+00   2.1826212e+00  -8.3048374e+00   2.2126142e+01   8.4023103e+00   3.8172673e+00   5.5410414e+00   4.7776888e+00   2.5546607e+00   2.1807035e+00   4.5627637e+00   1.4477315e+00  -7.2825239e+00  -2.2944510e+00  -6.6344135e-01   1.0942055e+01   1.0252486e+01  -1.3351952e+01   0.0000000e+00   0.0000000e+00   0.0000000e+00   0.0000000e+00
   1.6209908e+00   5.9534008e+00  -1.9980178e+00   3.8922791e+00  -6.7827778e+00   2.2661552e+01   7.3693134e+00   2.8087623e+00   8.0450597e+00   6.6840494e+00   3.4764483e+00   4.3406695e+00   6.5786268e+00   1.3614525e+00  -7.1426179e+00  -2.9686789e+00   1.2293903e+00   1.1331387e+01   8.8096985e+00  -1.3912669e+01   0.0000000e+00   0.0000000e+00   0.0000000e+00   0.0000000e+00
   3.2917790e+00   5.9211768e+00  -2.0095884e+00   5.4392107e+00  -5.4152750e+00   2.3689966e+01   6.4642934e+00   1.9320003e+00   1.0179420e+01   8.0629400e+00   4.1823235e+00   6.3147760e+00   8.4297229e+00   1.7084964e+00  -6.8653715e+00  -3.4802542e+00   3.1989107e+00   1.1947921e+01   7.5356347e+00  -1.4460018e+01   0.0000000e+00   0.0000000e+00   0.0000000e+00   0.0000000e+00
   4.8842174e+00   6.3067760e+00  -1.9618104e+00   6.5807739e+00  -4.3561892e+00   2.4507354e+01   5.6534637e+00   1.2145400e+00   1.1513844e+01   8.7797153e+00   4.4367742e+00   7.5387661e+00   9.7174526e+00   2.1657318e+00  -6.7428122e+00  -3.4125075e+00   4.9201449e+00   1.2307666e+01   6.4795062e+00  -1.4865710e+01   0.0000000e+00   0.0000000e+00   0.0000000e+00   0.0000000e+00
   5.9361029e+00   6.8765491e+00  -1.9768693e+00   6.9423232e+00  -3.8587785e+00   2.4901039e+01   4.7541145e+00   5.8177162e-01   1.1830161e+01   9.2267443e+00   4.2190294e+00   7.6439750e+00   1.0156973e+01   2.1700897e+00  -7.0993912e+00  -3.0106547e+00   6.0454798e+00   1.2451715e+01   5.5083552e+00  -1.5112026e+01   0.0000000e+00   0.0000000e+00   0.0000000e+00   0.0000000e+00
   6.0167454e+00   6.9568773e+00  -2.0205931e+00   6.3405842e+00  -4.1945842e+00   2.4650491e+01   3.9341318e+00   2.0770216e-01   1.1274996e+01   9.0024204e+00   3.7462837e+00   6.8914788e+00   9.7972525e+00   2.0233417e+00  -7.7127628e+00  -2.3766613e+00   6.3472985e+00   1.2493801e+01   4.7457786e+00  -1.5196048e+01   0.0000000e+00   0.0000000e+00   0.0000000e+00   0.0000000e+00
   5.3687829e+00   6.4350890e+00  -2.1934462e+00   5.4142997e+00  -4.7012595e+00   2.4002306e+01   3.5521176e+00   3.7283971e-01   1.0441686e+01   7.9557765e+00   3.4054414e+00   6.1053994e+00   9.0163762e+00   2.1114913e+00  -8.2920850e+00  -1.6008667e+00   6.0925922e+00   1.2172528e+01   4.4349583e+00  -1.5137710e+01   0.0000000e+00   0.0000000e+00   0.0000000e+00   0.0000000e+00
   4.3900470e+00   5.1586447e+00  -2.6661098e+00   4.6851177e+00  -5.0414741e+00   2.3400877e+01   3.6534939e+00   7.3741193e-01   9.7094336e+00   6.9823204e+00   3.2205066e+00   5.6349601e+00   8.2067013e+00   2.3378992e+00  -8.6989549e+00  -1.0916083e+00   5.6292485e+00   1.1313361e+01   4.6110857e+00  -1.5094491e+01   0.0000000e+00   0.0000000e+00   0.0000000e+00   0.0000000e+00
   3.1721798e+00   3.6760790e+00  -3.2845112e+00   3.9046542e+00  -5.8794080e+00   2.2473142e+01   3.6192525e+00   6.1274666e-01   8.9892724e+00   6.5599175e+00   2.8248733e+00   5.1110960e+00   7.2667026e+00   2.0563371e+00  -9.2301150e+00  -1.3210271e+00   4.7853543e+00   1.0103603e+01   4.7593002e+00  -1.5344181e+01   0.0000000e+00   0.0000000e+00   0.0000000e+00   0.0000000e+00
   1.9907000e+00   2.6546996e+00  -3.7496737e+00   2.9855154e+00  -7.2334050e+00   2.1042684e+01   3.2257852e+00  -1.3952843e-02   8.1749518e+00   6.6976752e+00   2.0847472e+00   4.3406642e+00   5.9648453e+00   1.1484671e+00  -1.0222138e+01  -2.2998118e+00   3.4924715e+00   8.8181179e+00   4.4511480e+00  -1.5867017e+01   0.0000000e+00   0.0000000e+00   0.0000000e+00   0.0000000e+00
   1.1498086e+00   1.8398208e+00  -4.2062689e+00   2.2561812e+00  -8.3336294e+00   1.9767762e+01   2.7802514e+00  -6.9866005e-01   7.3433703e+00   6.6074998e+00   1.2249117e+00   3.6758251e+00   4.8181340e+00   1.3523580e-01  -1.1566995e+01  -3.5918646e+00   2.1739076e+00   7.3848603e+00   3.7784231e+00  -1.6487938e+01   0.0000000e+00   0.0000000e+00   0.0000000e+00   0.0000000e+00
   6.8993307e-01   1.2557808e+00  -4.9031238e+00   1.8423764e+00  -8.9347541e+00   1.8991848e+01   2.2551805e+00  -1.2677455e+00   6.4525956e+00   5.3346908e+00   4.0189855e-01   3.2164440e+00   4.1095111e+00  -6.8627779e-01  -1.2927087e+01  -5.0243908e+00   1.1485473e+00   5.7561063e+00   2.9557525e+00  -1.7165541e+01   0.0000000e+00   0.0000000e+00   0.0000000e+00   0.0000000e+00
   4.7278911e-01   1.0545257e+00  -5.5151861e+00   1.6224659e+00  -9.5214575e+00   1.8395379e+01   1.5388461e+00  -1.7503563e+00   5.5650362e+00   3.4688036e+00  -1.2834598e-01   2.7162332e+00   3.4253073e+00  -1.4984671e+00  -1.3811729e+01  -5.9286531e+00   3.6162454e-01   4.4841592e+00   2.2231239e+00  -1.7463774e+01   0.0000000e+00   0.0000000e+00   0.0000000e+00   0.0000000e+00
   4.9051792e-02   1.0327995e+00  -5.6194066e+00   1.4176979e+00  -1.0163772e+01   1.7753743e+01   8.1437196e-01  -1.9669531e+00   4.7867657e+00   2.0870616e+00  -3.0100385e-01   2.1979476e+00   2.7460506e+00  -2.3348626e+00  -1.4238657e+01  -6.0255538e+00  -2.6049673e-01   3.9158911e+00   1.6825734e+00  -1.7224298e+01   0.0000000e+00   0.0000000e+00   0.0000000e+00   0.0000000e+00
  -5.9153968e-01   1.0064416e+00  -5.3642291e+00   1.1082331e+00  -1.0734775e+01   1.7246986e+01   4.3124348e-01  -1.5993293e+00   3.9908126e+00   1.6578022e+00  -3.8229494e-01   1.8211732e+00   2.1723862e+00  -2.8071955e+00  -1.4357495e+01  -6.0187905e+00  -8.2430301e-01   3.5400896e+00   1.3931267e+00  -1.6913272e+01   0.0000000e+00   0.0000000e+00   0.0000000e+00   0.0000000e+00
  -1.2502903e+00   5.1958900e-01  -5.1446106e+00   6.6963319e-01  -1.1619071e+01   1.7049481e+01   3.5301709e-01  -9.5096509e-01   3.0749034e+00   1.7617292e+00  -5.0777084e-01   1.4192434e+00   1.4467312e+00  -3.1267416e+00  -1.4260510e+01  -6.3928723e+00  -1.6296195e+00   2.7489162e+00   1.2754482e+00  -1.6893465e+01   0.0000000e+00   0.0000000e+00   0.0000000e+00   0.0000000e+00
  -1.8926011e+00  -4.0313837e-02  -4.9693666e+00   2.0832095e-03  -1.3081213e+01   1.6114334e+01   6.3660276e-02  -6.3174555e-01   1.9649529e+00   1.3526400e+00  -7.2593594e-01   5.1093159e-01   4.8063763e-01  -3.9153780e+00  -1.4382389e+01  -6.9941610e+00  -2.8586255e+00   1.6813150e+00   1.0257737e+00  -1.7100097e+01   0.0000000e+00   0.0000000e+00   0.0000000e+00   0.0000000e+00
  -2.4665715e+00  -1.4406750e-01  -4.8162639e+00  -8.4733888e-01  -1.4809490e+01   1.4366050e+01  -5.1881912e-01  -7.4274179e-01   6.7211247e-01   4.9974360e-01  -1.1912989e+00  -9.1862280e-01  -5.6018284e-01  -4.9895781e+00  -1.4942827e+01  -7.6597135e+00  -4.2154434e+00   7.9024155e-01   5.9884900e-01  -1.7418373e+01   0.0000000e+00   0.0000000e+00   0.0000000e+00   0.0000000e+00
  -3.0207750e+00  -7.7280124e-02  -4.8323868e+00  -1.7055854e+00  -1.6423342e+01   1.2707709e+01  -1.0469334e+00  -9.2417235e-01  -6.7337592e-01  -3.0255332e-01  -1.9339724e+00  -2.4680133e+00  -1.8009794e+00  -5.8862519e+00  -1.5981170e+01  -8.5436392e+00  -5.4973723e+00  -1.5882505e-01   1.4517278e-01  -1.7996099e+01   0.0000000e+00   0.0000000e+00   0.0000000e+00   0.0000000e+00
  -3.7240075e+00  -5.5022545e-01  -4.9421028e+00  -2.6474379e+00  -1.7682957e+01   1.1504950e+01  -1.4561099e+00  -7.6677474e-01  -1.9443921e+00  -1.1476551e+00  -2.6311930e+00  -3.9073712e+00  -3.1646966e+00  -6.6232587e+00  -1.7214445e+01  -9.4944292e+00  -6.7781072e+00  -1.4013710e+00  -1.9775258e-01  -1.8737648e+01   0.0000000e+00   0.0000000e+00   0.0000000e+00   0.0000000e+00
  -4.4883334e+00  -1.5233281e+00  -4.9849655e+00  -3.8156233e+00  -1.8591000e+01   1.0432788e+01  -2.0132665e+00  -3.8431979e-01  -3.2009595e+00  -2.0826604e+00  -2.9446900e+00  -5.2909481e+00  -4.5306651e+00  -7.4789158e+00  -1.8231748e+01  -9.7484399e+00  -8.1245488e+00  -2.4170976e+00  -4.7526658e-01  -1.9191705e+01   0.0000000e+00   0.0000000e+00   0.0000000e+00   0.0000000e+00
  -4.9407949e+00  -2.2951943e+00  -4.9661210e+00  -4.9576277e+00  -1.9201666e+01   9.7001631e+00  -2.5996442e+00   9.6009815e-02  -4.4619958e+00  -2.7679869e+00  -2.8535661e+00  -6.7202772e+00  -5.8968660e+00  -8.8320350e+00  -1.8947875e+01  -8.8589126e+00  -9.3368617e+00  -2.7368354e+00  -7.5998329e-01  -1.9044835e+01   0.0000000e+00   0.0000000e+00   0.0000000e+00   0.0000000e+00
  -5.2024121e+00  -2.8249333e+00  -4.7442155e+00  -5.6225880e+00  -1.9429348e+01   1.0206438e+01  -2.7508538e+00   6.1724740e-01  -5.6872389e+00  -3.1437972e+00  -2.6232735e+00  -8.0821193e+00  -6.8692141e+00  -1.0060191e+01  -1.9359542e+01  -7.0538402e+00  -1.0007114e+01  -2.6037747e+00  -9.3630186e-01  -1.8500254e+01   0.0000000e+00   0.0000000e+00   0.0000000e+00   0.0000000e+00
  -5.2428867e+00  -2.7485848e+00  -4.1948541e+00  -5.7450283e+00  -1.9167597e+01   1.1387955e+01  -2.3591837e+00   8.5567955e-01  -6.7505489e+00  -3.6301165e+00  -2.4791628e+00  -8.9911052e+00  -7.0538084e+00  -1.0104698e+01  -1.9509159e+01  -5.4146094e+00  -9.9266477e+00  -2.4149403e+00  -9.3877058e-01  -1.8161671e+01   0.0000000e+00   0.0000000e+00   0.0000000e+00   0.0000000e+00
  -4.7175391e+00  -1.5989683e+00  -3.3612405e+00  -5.5034239e+00  -1.8665779e+01   1.2080232e+01  -1.7645090e+00   9.2542841e-01  -7.2081535e+00  -3.9904397e+00  -2.3187781e+00  -9.1797769e+00  -6.6297654e+00  -9.0352060e+00  -1.9233183e+01  -4.6375236e+00  -9.2379245e+00  -1.9313341e+00  -6.6816757e-01  -1.7979608e+01   0.0000000e+00   0.0000000e+00   0.0000000e+00   0.0000000e+00
  -3.7801241e+00   7.9090230e-02  -2.5131058e+00  -4.9345364e+00  -1.7987866e+01   1.2617527e+01  -1.1520974e+00   1.0738600e+00  -6.9047749e+00  -3.8051726e+00  -2.0833617e+00  -8.7640460e+00  -5.7060936e+00  -6.8454655e+00  -1.8108366e+01  -4.4708383e+00  -8.0238894e+00  -8.0653058e-01   1.3627741e-01  -1.7550571e+01   0.0000000e+00   0.0000000e+00   0.0000000e+00   0.0000000e+00
  -2.9205668e+00   1.4537436e+00  -2.1213595e+00  -4.0792294e+00  -1.6851099e+01   1.3615971e+01  -5.0347912e-01   1.4579151e+00  -6.0958763e+00  -3.0348574e+00  -1.7786144e+00  -7.9495511e+00  -4.3674066e+00  -3.8720290e+00  -1.6514594e+01  -4.3351121e+00  -6.4868925e+00   4.7697513e-01   1.4227600e+00  -1.6811543e+01   0.0000000e+00   0.0000000e+00   0.0000000e+00   0.0000000e+00
  -2.3007113e+00   2.0903679e+00  -2.1169898e+00  -2.9014060e+00  -1.5105902e+01   1.4855985e+01   1.8475596e-01   2.3231556e+00  -4.8023593e+00  -1.4677855e+00  -1.0733778e+00  -6.7088188e+00  -2.7937372e+00  -1.1867053e+00  -1.4922128e+01  -3.4433272e+00  -4.8448576e+00   1.4879848e+00   2.9960088e+00  -1.5546717e+01   0.0000000e+00   0.0000000e+00   0.0000000e+00   0.0000000e+00
  -1.6322109e+00   2.2539328e+00  -2.3309991e+00  -1.4928118e+00  -1.3182452e+01   1.5895993e+01   6.2951675e-01   3.0701038e+00  -2.9860511e+00   9.7097185e-01  -1.2281170e-02  -4.9943390e+00  -8.1996363e-01   8.3600803e-01  -1.3354333e+01  -2.3063441e+00  -3.1013506e+00   2.4839910e+00   4.5134924e+00  -1.4167951e+01   0.0000000e+00   0.0000000e+00   0.0000000e+00   0.0000000e+00
  -7.9073470e-01   2.1014322e+00  -2.5845054e+00  -3.0447446e-02  -1.1657222e+01   1.6768728e+01   5.7587181e-01   3.2320698e+00  -9.1800062e-01   3.4068897e+00   8.6162146e-01  -2.9549380e+00   1.3815375e+00   2.1204874e+00  -1.2018174e+01  -1.9134435e+00  -1.5191704e+00   3.5069304e+00   5.5780760e+00  -1.3435046e+01   0.0000000e+00   0.0000000e+00   0.0000000e+00   0.0000000e+00
  -1.9560073e-02   1.5164883e+00  -2.8228779e+00   1.4398572e+00  -1.0459305e+01   1.7915241e+01   3.7763802e-01   3.0921932e+00   9.4254250e-01   4.6734175e+00   1.2491361e+00  -8.0250064e-01   3.2830218e+00   2.7405508e+00  -1.0981011e+01  -2.1583415e+00  -3.1647889e-01   4.0986855e+00   6.2586994e+00  -1.3322660e+01   0.0000000e+00   0.0000000e+00   0.0000000e+00   0.0000000e+00
   7.1888647e-01   1.2581004e+00  -2.9194785e+00   2.7625227e+00  -9.4088949e+00   1.9130368e+01   4.2187935e-01   2.7897966e+00   2.3697050e+00   5.2247787e+00   1.0958672e+00   1.0864964e+00   4.6045253e+00   2.7898525e+00  -1.0332867e+01  -2.8027859e+00   5.6419237e-01   4.1077681e+00   6.7278993e+00  -1.3659784e+01   0.0000000e+00   0.0000000e+00   0.0000000e+00   0.0000000e+00
   1.6001363e+00   2.0564622e+00  -3.1668889e+00   3.8133869e+00  -8.5881970e+00   1.9766408e+01   5.5849460e-01   2.3622629e+00   3.3903731e+00   5.5803759e+00   5.5115599e-01   2.4455471e+00   5.4518175e+00   2.3187988e+00  -1.0056556e+01  -3.4186555e+00   1.2664125e+00   4.0404174e+00   7.0275863e+00  -1.4071024e+01   0.0000000e+00   0.0000000e+00   0.0000000e+00   0.0000000e+00
   2.4387575e+00   3.2377288e+00  -3.6201687e+00   4.7295833e+00  -7.7914999e+00   2.0188100e+01   6.2394695e-01   1.9944555e+00   4.3024288e+00   5.8062257e+00  -2.3562755e-02   3.4809780e+00   6.2448743e+00   1.6064347e+00  -9.9147422e+00  -3.2113660e+00   2.1410800e+00   4.3440375e+00   7.2200390e+00  -1.3928822e+01   0.0000000e+00   0.0000000e+00   0.0000000e+00   0.0000000e+00
   3.1525896e+00   3.9500551e+00  -4.1188327e+00   5.5678499e+00  -7.1102060e+00   2.0781017e+01   6.0936979e-01   1.7467348e+00   5.1104353e+00   5.8069984e+00  -6.6357506e-01   4.4699809e+00   7.2132022e+00   1.0426736e+00  -9.9973852e+00  -2.4791122e+00   3.1861850e+00   4.6177448e+00   7.2265591e+00  -1.3415942e+01   0.0000000e+00   0.0000000e+00   0.0000000e+00   0.0000000e+00
   3.8905745e+00   3.9299600e+00  -4.4913703e+00   6.3513377e+00  -6.8644903e+00   2.1521117e+01   4.7315599e-01   1.5276199e+00   5.7285679e+00   5.3143200e+00  -1.4782584e+00   5.5385900e+00   8.1512616e+00   6.6849453e-01  -1.0442147e+01  -2.3165401e+00   4.0192893e+00   4.4418060e+00   6.9082572e+00  -1.3202479e+01   0.0000000e+00   0.0000000e+00   0.0000000e+00   0.0000000e+00
   4.7338316e+00   3.5647375e+00  -4.7057319e+00   7.1195158e+00  -6.8130072e+00   2.2796086e+01   1.4584362e-01   1.4189040e+00   6.3403288e+00   4.8273070e+00  -2.2123742e+00   6.5885895e+00   9.0141661e+00   1.1381501e-01  -1.1011095e+01  -2.8007650e+00   4.4980580e+00   4.1680279e+00   6.3711786e+00  -1.3261047e+01   0.0000000e+00   0.0000000e+00   0.0000000e+00   0.0000000e+00
   5.4914590e+00   3.5412581e+00  -4.9287297e+00   7.7119045e+00  -6.6933335e+00   2.4941711e+01  -3.5449112e-01   1.6254874e+00   6.8077765e+00   4.7700034e+00  -2.8408762e+00   7.3915766e+00   9.7862592e+00  -3.7758099e-01  -1.1427101e+01  -3.2625703e+00   4.6902168e+00   4.0407097e+00   5.7453504e+00  -1.3262067e+01   0.0000000e+00   0.0000000e+00   0.0000000e+00   0.0000000e+00
   5.8998716e+00   3.6257580e+00  -4.8622922e+00   7.9946053e+00  -6.5446474e+00   2.7893199e+01  -8.3211417e-01   2.1426450e+00   6.8058616e+00   5.0015310e+00  -3.6133864e+00   7.8713634e+00   1.0102891e+01  -8.5593020e-01  -1.2010062e+01  -3.6474675e+00   4.5058278e+00   3.4711605e+00   4.8650241e+00  -1.3466122e+01   0.0000000e+00   0.0000000e+00   0.0000000e+00   0.0000000e+00
   5.9587668e+00   3.6551808e+00  -4.6230675e+00   7.9873421e+00  -6.3341147e+00   3.1012579e+01  -1.1123983e+00   2.7569459e+00   6.3117406e+00   5.0532029e+00  -4.3419587e+00   8.0270995e+00   1.0013997e+01  -1.4652037e+00  -1.2943199e+01  -4.0940100e+00   3.9719434e+00   2.1639394e+00   3.7763677e+00  -1.4019472e+01   0.0000000e+00   0.0000000e+00   0.0000000e+00   0.0000000e+00
   5.6616758e+00   3.5110549e+00  -4.3387374e+00   7.8320943e+00  -6.0020059e+00   3.4149252e+01  -1.1317690e+00   3.2377118e+00   5.7877530e+00   4.7851249e+00  -4.3660055e+00   8.0330553e+00   1.0005342e+01  -1.6648650e+00  -1.3522853e+01  -3.7583364e+00   3.5386621e+00   9.9318083e-01   3.1078008e+00  -1.4239795e+01   0.0000000e+00   0.0000000e+00   0.0000000e+00   0.0000000e+00
   5.1763493e+00   2.8944395e+00  -4.3495956e+00   7.7714399e+00  -5.7320020e+00   3.6665747e+01  -1.2799371e+00   3.3257700e+00   5.6448961e+00   4.6825730e+00  -3.7485365e+00   8.1090031e+00   1.0241840e+01  -1.5528643e+00  -1.3561035e+01  -2.8824822e+00   3.3410521e+00   4.1410947e-01   2.8529819e+00  -1.4105306e+01   0.0000000e+00   0.0000000e+00   0.0000000e+00   0.0000000e+00
   5.0087712e+00   2.0991994e+00  -4.6175755e+00   7.7944711e+00  -5.7337844e+00   3.7134309e+01  -1.9402353e+00   3.1225928e+00   5.8537345e+00   5.0913893e+00  -3.1978417e+00   8.2994053e+00   1.0831047e+01  -1.3587717e+00  -1.3579984e+01  -2.5839920e+00   3.1744986e+00  -1.4680643e-01   2.4315981e+00  -1.4236358e+01   0.0000000e+00   0.0000000e+00   0.0000000e+00   0.0000000e+00
   4.9189711e+00   8.2210925e-01  -4.8622863e+00   7.4447319e+00  -5.9947692e+00   3.6534452e+01  -2.7869935e+00   2.9649749e+00   6.2782626e+00   5.4547301e+00  -2.6901993e+00   8.4479117e+00   1.1651922e+01  -8.2097489e-01  -1.3507689e+01  -2.3668888e+00   3.1080405e+00  -9.1362345e-01   1.9384715e+00  -1.4490570e+01   0.0000000e+00   0.0000000e+00   0.0000000e+00   0.0000000e+00
   4.6154178e+00  -3.8155816e-01  -4.9664709e+00   6.5267520e+00  -6.5193441e+00   3.5467135e+01  -3.4943242e+00   3.0013349e+00   6.8919078e+00   5.9939297e+00  -1.7804741e+00   8.3948067e+00   1.2244609e+01  -4.5473180e-01  -1.3188122e+01  -1.5187170e+00   3.0758160e+00  -1.4233741e+00   1.6169928e+00  -1.4341552e+01   0.0000000e+00   0.0000000e+00   0.0000000e+00   0.0000000e+00
   4.5341107e+00  -6.2575613e-01  -4.8709845e+00   5.6229887e+00  -6.9568426e+00   3.3876874e+01  -3.8178234e+00   3.3776058e+00   7.6366795e+00   7.0296602e+00  -5.5819050e-01   8.3545887e+00   1.2628123e+01  -4.7154113e-01  -1.2686961e+01  -5.9447543e-01   3.1314905e+00  -1.4146803e+00   1.5847139e+00  -1.3852785e+01   0.0000000e+00   0.0000000e+00   0.0000000e+00   0.0000000e+00
   4.5068263e+00  -6.2645972e-01  -4.7613379e+00   5.0568136e+00  -7.0566913e+00   3.2461160e+01  -3.6108174e+00   3.7925165e+00   8.3945580e+00   7.9897295e+00   5.0591115e-01   8.3358327e+00   1.2990085e+01  -7.0847903e-01  -1.2133943e+01  -3.5095471e-01   3.3097285e+00  -1.5029249e+00   1.8018701e+00  -1.3727619e+01   1.0000000e+03   0.0000000e+00   0.0000000e+00   0.0000000e+00
   4.0998000e+00  -1.0116297e+00  -4.7053688e+00   4.4971419e+00  -7.0228778e+00   3.1347130e+01  -3.0333879e+00   3.7816728e+00   9.0170363e+00   8.4610193e+00   1.1366222e+00   8.0531652e+00   1.3553529e+01  -1.0554179e+00  -1.1575212e+01  -6.2522844e-01   3.5407116e+00  -2.1522892e+00   2.1437929e+00  -1.4217068e+01   1.0000000e+03   0.0000000e+00   0.0000000e+00   0.0000000e+00
   3.2886913e+00  -1.5725528e+00  -4.8732713e+00   3.6255958e+00  -7.1568901e+00   3.0355448e+01  -2.5934360e+00   3.6278919e+00   9.4299796e+00   8.4851213e+00   1.4677867e+00   7.5167680e+00   1.4300703e+01  -1.3135923e+00  -1.0919274e+01  -8.5122941e-01   3.8079183e+00  -2.9308635e+00   2.5544350e+00  -1.4765308e+01   1.0000000e+03   3.0000000e+01   0.0000000e+00   0.0000000e+00
   2.4299569e+00  -2.1117054e+00  -4.9636641e+00   2.6228941e+00  -7.6641242e+00   2.9319735e+01  -2.6522119e+00   3.8704461e+00   9.6883664e+00   8.4186849e+00   1.7080881e+00   6.9135718e+00   1.4821133e+01  -1.7020302e+00  -1.0422913e+01  -8.4920533e-01   3.8254170e+00  -3.5438769e+00   2.7338866e+00  -1.4903413e+01   1.0000000e+03   3.0000000e+01   0.0000000e+00   0.0000000e+00
   1.6503809e+00  -2.9741450e+00  -4.8452859e+00   1.5661248e+00  -8.5880250e+00   2.7766246e+01  -2.9819079e+00   4.4900884e+00   9.6214061e+00   8.5940104e+00   1.8004769e+00   6.1362574e+00   1.4797697e+01  -2.2365585e+00  -1.0457694e+01  -4.9832147e-01   3.2113265e+00  -4.5184400e+00   2.4183458e+00  -1.4722461e+01   1.0000000e+03   3.0000000e+01   0.0000000e+00   0.0000000e+00
   7.9953492e-01  -3.6941105e+00  -4.4291534e+00   2.8113341e-01  -9.9845153e+00   2.5205099e+01  -3.4151072e+00   5.1230509e+00   9.2167327e+00   8.7764217e+00   1.8318161e+00   4.9909497e+00   1.4128821e+01  -2.6923496e+00  -1.0919655e+01   6.7687892e-01   1.9348313e+00  -6.0926675e+00   1.7578353e+00  -1.4334387e+01   0.0000000e+00   3.0000000e+01   0.0000000e+00   0.0000000e+00
  -7.9498683e-02  -3.6874056e+00  -3.7730771e+00  -1.1684409e+00  -1.1582871e+01   2.2215794e+01  -3.8811246e+00   5.4821146e+00   8.7881010e+00   8.4516698e+00   1.8762989e+00   3.5665130e+00   1.2938139e+01  -3.0982026e+00  -1.1410441e+01   2.9170591e+00   4.0917529e-01  -7.5519732e+00   1.0680391e+00  -1.3519823e+01   0.0000000e+00   3.0000000e+01   0.0000000e+00   0.0000000e+00
  -1.0418779e+00  -3.3443799e+00  -3.4353119e+00  -2.3594055e+00  -1.3064590e+01   1.9622056e+01  -4.3341628e+00   5.3526844e+00   8.4202022e+00   7.5127976e+00   1.6091593e+00   2.2938511e+00   1.1510228e+01  -3.9371107e+00  -1.2041536e+01   4.7665055e+00  -9.7480861e-01  -8.4664742e+00   2.9334928e-01  -1.2787419e+01   0.0000000e+00   3.0000000e+01   0.0000000e+00   0.0000000e+00
  -2.2904109e+00  -3.1025746e+00  -3.4200340e+00  -3.2210914e+00  -1.4382059e+01   1.7929459e+01  -4.7266762e+00   4.9495607e+00   7.9230012e+00   6.0674171e+00   9.2745057e-01   1.2665253e+00   9.9715264e+00  -5.3776620e+00  -1.3066471e+01   4.6979167e+00  -2.1609627e+00  -9.1461134e+00  -6.9613464e-01  -1.2957870e+01   0.0000000e+00   3.0000000e+01   0.0000000e+00   0.0000000e+00
  -3.6921760e+00  -2.6694279e+00  -3.5963468e+00  -4.1579329e+00  -1.5681981e+01   1.6653261e+01  -4.8750303e+00   4.8229962e+00   7.1005269e+00   4.6283611e+00   1.2388896e-01   1.0143128e-01   8.2765317e+00  -6.9935077e+00  -1.4356203e+01   3.3583252e+00  -3.2813365e+00  -9.7558751e+00  -1.7127336e+00  -1.3691305e+01   0.0000000e+00   3.0000000e+01   0.0000000e+00   0.0000000e+00
  -4.9214064e+00  -2.3760605e+00  -3.5727305e+00  -5.2834055e+00  -1.6845630e+01   1.5565735e+01  -4.6074024e+00   4.8935972e+00   6.0108169e+00   3.0688564e+00  -7.3067368e-01  -1.3329720e+00   6.1260478e+00  -8.6483615e+00  -1.5670561e+01   2.1104142e+00  -4.3291114e+00  -9.9709898e+00  -2.4677669e+00  -1.4158274e+01   0.0000000e+00   3.0000000e+01   0.0000000e+00   0.0000000e+00
  -5.9036861e+00  -2.6140938e+00  -3.2885869e+00  -6.4411754e+00  -1.8086943e+01   1.4342509e+01  -4.2343599e+00   4.9882717e+00   4.7583825e+00   1.3774784e+00  -1.7541869e+00  -2.9641369e+00   3.3094717e+00  -1.0835202e+01  -1.7010768e+01   1.5384139e+00  -5.5830007e+00  -9.8283137e+00  -3.0607007e+00  -1.4242479e+01   0.0000000e+00   3.0000000e+01   0.0000000e+00   0.0000000e+00
  -6.5754844e+00  -2.8497834e+00  -3.0111700e+00  -7.2667617e+00  -1.9314507e+01   1.3107226e+01  -3.9895693e+00   5.2188969e+00   3.5664344e+00   1.1577547e-01  -2.7704603e+00  -4.4448201e+00   6.5909172e-01  -1.3343599e+01  -1.8337036e+01   1.1363276e+00  -7.0426964e+00  -9.7766153e+00  -3.5470910e+00  -1.4575848e+01   0.0000000e+00   3.0000000e+01   0.0000000e+00   0.0000000e+00
  -6.8805474e+00  -2.6408657e+00  -2.7811247e+00  -7.6549288e+00  -1.9702112e+01   1.2758213e+01  -3.6132322e+00   5.5677868e+00   2.6550166e+00  -2.7238367e-01  -3.6466836e+00  -5.3815097e+00  -8.2014241e-01  -1.5222925e+01  -1.9402450e+01   5.8893108e-01  -8.0538079e+00  -9.8497941e+00  -3.7051868e+00  -1.5363756e+01   0.0000000e+00   3.0000000e+01   0.0000000e+00   0.0000000e+00
  -7.0677315e+00  -2.0312466e+00  -2.6180284e+00  -7.8297193e+00  -1.9250677e+01   1.2860828e+01  -3.1067517e+00   5.6951869e+00   1.8231118e+00  -4.9438886e-01  -4.6548295e+00  -5.9884503e+00  -1.3288632e+00  -1.6224853e+01  -2.0214680e+01   2.9622515e-01  -8.4519607e+00  -9.7778759e+00  -3.6664591e+00  -1.6139699e+01   0.0000000e+00   3.0000000e+01   0.0000000e+00   0.0000000e+00
  -7.2918641e+00  -1.2722290e+00  -2.6339247e+00  -7.7803857e+00  -1.8451132e+01   1.2963317e+01  -2.5714484e+00   5.6139361e+00   1.0198578e+00  -1.6443992e+00  -5.9031880e+00  -6.4402350e+00  -1.4272458e+00  -1.6388577e+01  -2.0744616e+01   9.4088532e-02  -8.3482087e+00  -9.3423283e+00  -3.5145764e+00  -1.6479579e+01   0.0000000e+00   3.0000000e+01   0.0000000e+00   0.0000000e+00
  -7.5594006e+00  -5.0436242e-01  -2.8830815e+00  -7.5223777e+00  -1.7747806e+01   1.2772283e+01  -2.1622271e+00   5.7620758e+00   4.9959893e-01  -3.0011061e+00  -7.1040061e+00  -6.6518741e+00  -1.4293131e+00  -1.6202429e+01  -2.1170815e+01  -5.5705239e-01  -7.9379339e+00  -8.7892927e+00  -3.3506911e+00  -1.6464001e+01   0.0000000e+00   3.0000000e+01   0.0000000e+00   0.0000000e+00
  -7.6068660e+00   1.3990786e-01  -3.0067596e+00  -7.0080453e+00  -1.6993374e+01   1.2360836e+01  -2.0112885e+00   6.0447138e+00   3.8428664e-01  -3.8399605e+00  -7.9982811e+00  -6.5394232e+00  -1.2832605e+00  -1.6221549e+01  -2.1603875e+01  -1.7407767e+00  -7.1809128e+00  -8.2291075e+00  -3.2811927e+00  -1.6493881e+01   0.0000000e+00   3.0000000e+01   0.0000000e+00   0.0000000e+00
  -6.9248998e+00   8.0189786e-01  -2.6757181e+00  -6.2653753e+00  -1.6071638e+01   1.1681643e+01  -2.0578648e+00   5.9437790e+00   6.2706605e-01  -4.1764876e+00  -8.4075442e+00  -6.1702596e+00  -8.6169571e-01  -1.6717280e+01  -2.1758045e+01  -2.6707594e+00  -5.9960602e+00  -7.1278321e+00  -3.1643986e+00  -1.6470838e+01   0.0000000e+00   3.0000000e+01   0.0000000e+00   0.0000000e+00
  -5.7518249e+00   1.5047992e+00  -1.7316450e+00  -5.5710398e+00  -1.5377139e+01   1.0416252e+01  -2.1580531e+00   5.5526584e+00   1.0897485e+00  -3.9041907e+00  -8.3250109e+00  -5.6875583e+00  -4.9892219e-01  -1.7826327e+01  -2.1540618e+01  -2.3669887e+00  -4.7586521e+00  -5.2875786e+00  -3.0306573e+00  -1.5945760e+01   0.0000000e+00   3.0000000e+01   0.0000000e+00   0.0000000e+00
  -4.8562249e+00   1.7190838e+00  -5.9847878e-01  -5.2424545e+00  -1.5129983e+01   8.9370299e+00  -2.1518471e+00   5.2803080e+00   1.4598493e+00  -3.5102191e+00  -8.0377645e+00  -5.2202890e+00  -4.3417323e-01  -1.8930873e+01  -2.1185471e+01  -1.3162509e+00  -3.9178555e+00  -3.4027327e+00  -3.0418711e+00  -1.5035466e+01   0.0000000e+00   3.0000000e+01   0.0000000e+00   0.0000000e+00
  -4.4337742e+00   1.8494941e+00   5.8832267e-01  -5.2304404e+00  -1.5320998e+01   7.8503437e+00  -1.7169634e+00   5.3846596e+00   1.6248396e+00  -3.2212447e+00  -7.7387296e+00  -4.8601461e+00  -4.3013029e-01  -1.9210732e+01  -2.0649516e+01  -9.7800173e-01  -3.4780104e+00  -1.9740543e+00  -3.0659493e+00  -1.4199555e+01   0.0000000e+00   3.0000000e+01   0.0000000e+00   0.0000000e+00
  -4.1136785e+00   2.4171194e+00   1.7183895e+00  -5.1331528e+00  -1.5469929e+01   8.0958967e+00  -8.2538284e-01   5.7721749e+00   1.8571339e+00  -2.9807596e+00  -7.3087822e+00  -4.3899993e+00   9.3850881e-03  -1.8530527e+01  -1.9540996e+01  -1.4406999e+00  -2.9062643e+00  -6.4036417e-01  -2.7503483e+00  -1.3486979e+01   0.0000000e+00   3.0000000e+01   0.0000000e+00   0.0000000e+00
  -3.6997211e+00   2.8610368e+00   2.1330443e+00  -4.7748964e+00  -1.5035533e+01   9.8181591e+00   4.5666774e-01   6.4329095e+00   2.4327802e+00  -2.3019748e+00  -6.5762873e+00  -3.6272455e+00   9.5218585e-01  -1.7110681e+01  -1.7852842e+01  -1.7927898e+00  -1.9664365e+00   8.7567634e-01  -1.9326781e+00  -1.2646238e+01   0.0000000e+00   3.0000000e+01   0.0000000e+00   0.0000000e+00
  -3.5765339e+00   2.7544408e+00   1.9850536e+00  -4.5772080e+00  -1.4510815e+01   1.1653615e+01   1.8829615e+00   7.3563521e+00   3.1662644e+00  -8.0168741e-01  -5.6799511e+00  -2.7799308e+00   2.0470835e+00  -1.5375974e+01  -1.6132287e+01  -1.6542635e+00  -1.2240126e+00   1.9787729e+00  -8.7449616e-01  -1.1779151e+01   0.0000000e+00   3.0000000e+01   0.0000000e+00   0.0000000e+00
  -4.0953547e+00   2.1347716e+00   1.5663575e+00  -4.8461206e+00  -1.4408879e+01   1.2508458e+01   3.0093854e+00   8.0749282e+00   3.6515142e+00   7.3560541e-01  -4.9038311e+00  -2.2046950e+00   3.0696613e+00  -1.3628105e+01  -1.4750021e+01  -1.1830158e+00  -1.0103582e+00   2.2717496e+00   1.6779791e-01  -1.1328938e+01   0.0000000e+00   3.0000000e+01   0.0000000e+00   0.0000000e+00
  -5.0907739e+00   1.6607863e+00   1.2820621e+00  -5.4591186e+00  -1.4789612e+01   1.1815159e+01   3.4469552e+00   8.4217149e+00   3.5927443e+00   1.7149070e+00  -4.2278198e+00  -2.1881355e+00   3.4897829e+00  -1.2244892e+01  -1.3479007e+01  -8.3457836e-02  -1.2515122e+00   2.3668417e+00   1.1757835e+00  -1.0974582e+01   0.0000000e+00   3.0000000e+01   0.0000000e+00   0.0000000e+00
  -6.1564526e+00   1.3776233e+00   1.2118597e+00  -6.0755888e+00  -1.5429350e+01   9.9998485e+00   3.1057380e+00   8.5489859e+00   3.0018959e+00   2.6543452e+00  -3.6138618e+00  -2.6000666e+00   3.0032805e+00  -1.1809996e+01  -1.2535354e+01   1.3279072e+00  -1.8398851e+00   2.6568687e+00   1.8136128e+00  -1.0555028e+01   0.0000000e+00   3.0000000e+01   0.0000000e+00   0.0000000e+00
  -7.2676928e+00   7.5467017e-01   1.0077100e+00  -6.6983631e+00  -1.6259519e+01   8.0335213e+00   2.2946670e+00   8.6743076e+00   2.2667870e+00   3.5943018e+00  -3.2094217e+00  -3.1974093e+00   1.9686734e+00  -1.2606356e+01  -1.2555745e+01   1.9187055e+00  -2.7807276e+00   2.5531634e+00   1.6377533e+00  -1.0608837e+01   0.0000000e+00   3.0000000e+01   0.0000000e+00   0.0000000e+00
  -8.3131195e+00  -5.5910218e-02   7.5591085e-01  -7.4074737e+00  -1.7371070e+01   6.2996927e+00   1.3725153e+00   8.8442225e+00   1.7473471e+00   4.0249636e+00  -2.9968478e+00  -3.8132757e+00   1.1239970e+00  -1.3933241e+01  -1.3239812e+01   1.4455626e+00  -3.9085900e+00   1.7915158e+00   9.1786063e-01  -1.1225211e+01   0.0000000e+00   3.0000000e+01   0.0000000e+00   0.0000000e+00
  -8.9850475e+00  -9.6500012e-01   5.5506989e-01  -8.2171966e+00  -1.8560433e+01   4.7810537e+00   4.4160814e-01   8.5310589e+00   1.2174372e+00   3.6750890e+00  -3.0300394e+00  -4.5911530e+00   6.3927525e-01  -1.4616033e+01  -1.3884219e+01   3.8766041e-01  -4.8924484e+00   9.7878648e-01   1.9160160e-01  -1.2117528e+01   0.0000000e+00   3.0000000e+01   0.0000000e+00   0.0000000e+00
  -9.0776468e+00  -1.8314619e+00   2.9992316e-01  -9.0627159e+00  -1.9502020e+01   3.1524772e+00  -6.2834072e-01   7.6491958e+00   5.6843218e-01   2.6070897e+00  -3.4566575e+00  -5.5130414e+00   8.4718925e-02  -1.4997921e+01  -1.4651334e+01  -6.7360808e-01  -5.6103663e+00   5.5498885e-01  -5.2873538e-01  -1.3088784e+01   0.0000000e+00   3.0000000e+01   0.0000000e+00   0.0000000e+00
  -8.8248003e+00  -2.5150789e+00  -1.2711262e-01  -9.6569269e+00  -1.9845948e+01   1.8529631e+00  -1.6013845e+00   6.7660065e+00   1.2024618e-01   1.6331091e+00  -4.0988430e+00  -6.1466915e+00  -4.2449397e-01  -1.5600574e+01  -1.5763269e+01  -1.3441774e+00  -5.8720941e+00   3.9808424e-01  -1.2940962e+00  -1.3942214e+01   0.0000000e+00   3.0000000e+01   0.0000000e+00   0.0000000e+00
  -8.5537005e+00  -2.5832639e+00  -4.7395975e-01  -9.9800705e+00  -1.9770652e+01   1.3373608e+00  -2.0251384e+00   6.5250250e+00   2.2335295e-02   1.3288585e+00  -4.5915808e+00  -6.3155053e+00  -6.2574484e-01  -1.6127250e+01  -1.6827076e+01  -1.3361253e+00  -5.6410299e+00   4.4863419e-01  -1.8897496e+00  -1.4313082e+01   0.0000000e+00   3.0000000e+01   0.0000000e+00   0.0000000e+00
  -8.0904858e+00  -1.8932571e+00  -3.9578663e-01  -9.9393191e+00  -1.9331267e+01   1.7427106e+00  -1.6415169e+00   7.1944397e+00   3.3635478e-01   1.8961232e+00  -4.7879320e+00  -6.2244915e+00  -5.0294675e-01  -1.6257515e+01  -1.7423584e+01  -6.6222525e-01  -4.9959914e+00   1.0799897e+00  -1.9914657e+00  -1.3954690e+01   0.0000000e+00   3.0000000e+01   0.0000000e+00   0.0000000e+00
  -7.3714152e+00  -7.5100099e-01   4.4129542e-02  -9.5459169e+00  -1.8481170e+01   2.5999845e+00  -8.5762461e-01   8.1095264e+00   8.3182471e-01   2.8213576e+00  -5.0844795e+00  -6.2416970e+00  -2.6804365e-01  -1.5691886e+01  -1.7621289e+01  -1.0150247e-01  -4.0872950e+00   2.1495920e+00  -1.7453799e+00  -1.3375658e+01   0.0000000e+00   3.0000000e+01   0.0000000e+00   0.0000000e+00
  -6.4565657e+00   6.9737000e-01   3.8866219e-01  -8.8573934e+00  -1.7410986e+01   3.0312052e+00  -2.7071909e-01   8.6364971e+00   1.3155594e+00   3.2990330e+00  -5.6920496e+00  -6.1788936e+00   1.4834404e-01  -1.4517943e+01  -1.7675664e+01   1.7556131e-01  -3.0357668e+00   2.8958185e+00  -1.5591943e+00  -1.3087394e+01   0.0000000e+00   3.0000000e+01   0.0000000e+00   0.0000000e+00
  -5.3034185e+00   1.6303759e+00   4.0724492e-01  -7.7039506e+00  -1.5983129e+01   3.7571962e+00   1.7402844e-01   8.8538839e+00   1.8408685e+00   3.6066638e+00  -6.1754375e+00  -5.5323008e+00   1.1946080e+00  -1.3239694e+01  -1.7637308e+01   8.2694239e-01  -1.5651765e+00   3.1936598e+00  -1.3761585e+00  -1.2897598e+01   0.0000000e+00   3.0000000e+01   0.0000000e+00   0.0000000e+00
  -3.9524697e+00   1.6690815e+00   1.2059610e-01  -6.3338196e+00  -1.4153612e+01   5.2396705e+00   3.1062350e-01   8.6781486e+00   2.4082450e+00   3.7413536e+00  -6.4051147e+00  -4.5222771e+00   2.5535987e+00  -1.2527913e+01  -1.7771471e+01   1.3702981e+00   3.3787731e-01   3.4907579e+00  -1.2418315e+00  -1.2825109e+01   0.0000000e+00   3.0000000e+01   0.0000000e+00   0.0000000e+00
  -2.6762699e+00   1.4720395e+00  -3.0603102e-01  -5.1389956e+00  -1.2328160e+01   6.3479951e+00   1.4507138e-01   8.0436243e+00   2.8746307e+00   3.1151285e+00  -6.7848296e+00  -3.7386155e+00   3.5233887e+00  -1.2567909e+01  -1.8365065e+01   8.5828697e-01   2.1827289e+00   3.9364647e+00  -1.4148832e+00  -1.3267431e+01   0.0000000e+00   3.0000000e+01   0.0000000e+00   0.0000000e+00
  -1.9936303e+00   1.4938188e+00  -5.5398526e-01  -4.3864084e+00  -1.1209565e+01   6.2172836e+00  -1.9403350e-01   7.1208377e+00   3.1533702e+00   2.0235267e+00  -7.5710484e+00  -3.4245436e+00   3.8169040e+00  -1.3585072e+01  -1.9417724e+01  -6.5790396e-01   3.3619970e+00   4.0555824e+00  -2.1105923e+00  -1.4382292e+01   0.0000000e+00   3.0000000e+01   0.0000000e+00   0.0000000e+00
  -1.7781555e+00   1.6320106e+00  -6.6295197e-01  -3.8713789e+00  -1.0654614e+01   5.5717528e+00  -5.8951795e-01   6.1877619e+00   3.6620812e+00   1.5372237e+00  -8.2734734e+00  -3.1838275e+00   3.8883478e+00  -1.4810110e+01  -2.0257024e+01  -2.1013500e+00   4.1246434e+00   3.9900459e+00  -2.9295288e+00  -1.5556175e+01   0.0000000e+00   3.0000000e+01   0.0000000e+00   0.0000000e+00
  -1.3335733e+00   1.8544944e+00  -6.9955989e-01  -3.2285818e+00  -1.0068275e+01   4.9914902e+00  -8.8850550e-01   5.3130211e+00   4.5868297e+00   2.1851009e+00  -8.3355407e+00  -2.6411012e+00   4.2544397e+00  -1.5252844e+01  -2.0310936e+01  -2.7785243e+00   5.0763824e+00   4.5613482e+00  -3.3380310e+00  -1.6183655e+01   0.0000000e+00   3.0000000e+01   0.0000000e+00   0.0000000e+00
  -6.1447286e-01   1.7234594e+00  -7.4897617e-01  -2.6149423e+00  -9.4185909e+00   4.6283407e+00  -1.0264908e+00   4.5719316e+00   5.5573173e+00   3.2938567e+00  -8.0991227e+00  -1.8466438e+00   4.8042242e+00  -1.5139971e+01  -1.9906152e+01  -3.4748359e+00   6.1402130e+00   5.7710873e+00  -3.4236903e+00  -1.6509815e+01   0.0000000e+00   3.0000000e+01   0.0000000e+00   0.0000000e+00
  -1.1968224e-01   1.3094553e+00  -9.5693231e-01  -2.2533372e+00  -9.1064802e+00   4.0553296e+00  -1.1893705e+00   3.8830701e+00   6.0802186e+00   4.1839304e+00  -8.1944902e+00  -1.1436089e+00   5.1591681e+00  -1.5311960e+01  -1.9856412e+01  -4.5783816e+00   6.7336339e+00   6.6130272e+00  -3.6848167e+00  -1.6992748e+01   0.0000000e+00   3.0000000e+01   0.0000000e+00   0.0000000e+00
  -1.8210562e-01   1.0199889e+00  -1.3761336e+00  -2.2407917e+00  -9.3777288e+00   2.7493883e+00  -1.4603038e+00   3.2675348e+00   5.9232316e+00   4.6281691e+00  -8.6175446e+00  -9.4204104e-01   4.9623377e+00  -1.6270141e+01  -2.0410423e+01  -5.1407571e+00   6.4388910e+00   6.4609081e+00  -4.3150651e+00  -1.7342880e+01   0.0000000e+00   3.0000000e+01   0.0000000e+00   0.0000000e+00
  -8.3667836e-01   6.7244890e-01  -1.8965658e+00  -2.8441545e+00  -1.0101100e+01   1.9511795e+00  -1.6264709e+00   3.1816008e+00   5.1975942e+00   4.0571125e+00  -8.9017587e+00  -1.5135723e+00   4.1721120e+00  -1.7431157e+01  -2.0969385e+01  -4.4881891e+00   5.5054607e+00   5.8814398e+00  -4.8788495e+00  -1.6834973e+01   0.0000000e+00   3.0000000e+01   0.0000000e+00   0.0000000e+00
  -1.9616375e+00   2.1875149e-01  -2.2894665e+00  -3.9793099e+00  -1.0827115e+01   2.8107337e+00  -1.6309312e+00   3.8962637e+00   4.0508710e+00   2.7269843e+00  -8.7424064e+00  -2.6277119e+00   3.1028984e+00  -1.8024705e+01  -2.1064138e+01  -3.1356778e+00   4.4947726e+00   5.5298125e+00  -5.0041169e+00  -1.5456337e+01   0.0000000e+00   3.0000000e+01   0.0000000e+00   0.0000000e+00
  -3.3813997e+00  -4.4018941e-01  -2.4660229e+00  -5.2606942e+00  -1.1425648e+01   3.9340518e+00  -1.5869970e+00   4.9902001e+00   2.8144688e+00   1.6804130e+00  -8.3028004e+00  -3.7920734e+00   1.9910790e+00  -1.8431704e+01  -2.0969067e+01  -1.9020526e+00   3.4545125e+00   5.0719795e+00  -4.8602221e+00  -1.4029893e+01   0.0000000e+00   3.0000000e+01   0.0000000e+00   0.0000000e+00
  -4.5441916e+00  -1.6413375e+00  -2.3831393e+00  -6.3379480e+00  -1.2115525e+01   3.9590170e+00  -1.3449102e+00   5.9615499e+00   1.8277334e+00   1.3022839e+00  -7.7424253e+00  -4.6516675e+00   1.1858851e+00  -1.8661784e+01  -2.0810780e+01  -3.4344465e-01   2.4708548e+00   4.2985390e+00  -4.4991816e+00  -1.2864198e+01   0.0000000e+00   3.0000000e+01   0.0000000e+00   0.0000000e+00
  -5.3330856e+00  -3.4089310e+00  -2.0165299e+00  -7.2148155e+00  -1.3051764e+01   2.8494826e+00  -1.1330311e+00   6.5837762e+00   1.0214166e+00   1.2030537e+00  -7.0294046e+00  -5.1804799e+00   6.0275544e-01  -1.8685693e+01  -2.0416461e+01   1.8292223e+00   1.6156258e+00   3.6444687e+00  -4.0546766e+00  -1.1893092e+01   0.0000000e+00   3.0000000e+01   0.0000000e+00   0.0000000e+00
  -6.1535376e+00  -4.9857923e+00  -1.4622631e+00  -8.1430544e+00  -1.4376341e+01   6.5825906e-01  -1.4807488e+00   6.7408885e+00   3.1006305e-01   1.1578887e+00  -6.3931803e+00  -5.6296171e+00  -3.7948031e-01  -1.9355752e+01  -2.0182746e+01   3.3511206e+00   5.3528186e-01   3.1418648e+00  -4.0639657e+00  -1.1453602e+01   0.0000000e+00   3.0000000e+01   0.0000000e+00   0.0000000e+00
  -7.1369453e+00  -6.1801517e+00  -1.0071405e+00  -9.1530073e+00  -1.5894508e+01  -1.6971672e+00  -2.0145261e+00   6.7987524e+00   2.9489701e-02   1.2338924e+00  -5.8657063e+00  -6.0927664e+00  -1.5944514e+00  -2.0675830e+01  -2.0165235e+01   3.7478414e+00  -7.2083934e-01   2.4553769e+00  -4.4187938e+00  -1.1468829e+01   0.0000000e+00   3.0000000e+01   0.0000000e+00   0.0000000e+00
  -8.2211865e+00  -7.0517745e+00  -1.0298216e+00  -1.0049222e+01  -1.7202215e+01  -2.9425272e+00  -2.2275119e+00   7.0665738e+00   3.9133415e-01   1.2130008e+00  -5.1977927e+00  -6.4692776e+00  -2.3068923e+00  -2.1732176e+01  -1.9844214e+01   3.5851148e+00  -1.6738585e+00   1.6443509e+00  -4.5979584e+00  -1.1619696e+01   0.0000000e+00   3.0000000e+01   0.0000000e+00   0.0000000e+00
  -9.2201224e+00  -7.3933942e+00  -1.6084988e+00  -1.0912673e+01  -1.8163647e+01  -3.1774492e+00  -2.1785259e+00   7.3037684e+00   7.0376349e-01   1.0733921e+00  -4.3312277e+00  -6.9366767e+00  -2.5044553e+00  -2.2050371e+01  -1.9129841e+01   3.1869322e+00  -2.2069643e+00   1.1043840e+00  -4.5204110e+00  -1.1764698e+01   0.0000000e+00   3.0000000e+01   0.0000000e+00   0.0000000e+00
  -9.9133902e+00  -7.0855231e+00  -2.2886628e+00  -1.1806231e+01  -1.8801424e+01  -3.5030173e+00  -1.9084160e+00   7.4486319e+00   4.3300298e-01   1.2490605e+00  -3.3740353e+00  -7.5961931e+00  -2.5718545e+00  -2.1892408e+01  -1.8288869e+01   2.7882895e+00  -2.6300019e+00   9.0681826e-01  -4.3657547e+00  -1.1891464e+01   0.0000000e+00   3.0000000e+01   0.0000000e+00   0.0000000e+00
  -1.0326908e+01  -6.6747065e+00  -2.7611286e+00  -1.2434998e+01  -1.9063282e+01  -4.0175354e+00  -1.3068538e+00   7.7497553e+00  -1.8516243e-01   2.1698504e+00  -2.4822243e+00  -8.1162353e+00  -2.4950091e+00  -2.1556959e+01  -1.7552565e+01   2.7238705e+00  -3.0917125e+00   5.9547682e-01  -4.1607910e+00  -1.1999521e+01   0.0000000e+00   3.0000000e+01   0.0000000e+00   0.0000000e+00
  -1.0621339e+01  -6.8220274e+00  -3.0618031e+00  -1.2800405e+01  -1.8895340e+01  -3.9122004e+00  -3.0825065e-01   8.4743941e+00  -8.5136453e-01   3.8249994e+00  -1.7789443e+00  -8.3205185e+00  -2.0973177e+00  -2.0836999e+01  -1.6878398e+01   3.4434567e+00  -3.2682524e+00  -4.8685325e-03  -3.6631555e+00  -1.1826665e+01   0.0000000e+00   3.0000000e+01   0.0000000e+00   0.0000000e+00
  -1.0824012e+01  -7.3102317e+00  -3.1931023e+00  -1.3094325e+01  -1.8525490e+01  -3.0432669e+00   7.8813009e-01   9.4633621e+00  -1.2724477e+00   4.8659288e+00  -1.3600638e+00  -8.3955771e+00  -1.4509657e+00  -1.9687361e+01  -1.6006026e+01   4.8690483e+00  -2.9723773e+00  -5.0919888e-01  -2.7004281e+00  -1.1205990e+01   0.0000000e+00   3.0000000e+01   0.0000000e+00   0.0000000e+00
  -1.0862570e+01  -7.6651281e+00  -3.2263473e+00  -1.3296000e+01  -1.8315667e+01  -2.6827247e+00   1.3716450e+00   9.9278168e+00  -1.4093556e+00   4.7689217e+00  -1.5050801e+00  -8.3513061e+00  -9.0491267e-01  -1.8824079e+01  -1.5324690e+01   5.5026638e+00  -2.5069153e+00  -8.8832825e-01  -1.7916724e+00  -1.0870477e+01   0.0000000e+00   3.0000000e+01   0.0000000e+00   0.0000000e+00
  -1.0700040e+01  -7.5152976e+00  -3.2011594e+00  -1.3324014e+01  -1.8556956e+01  -3.8677386e+00   1.0991382e+00   9.4956403e+00  -1.4659656e+00   4.4696288e+00  -2.4096453e+00  -8.1710841e+00  -9.1599120e-01  -1.8809840e+01  -1.5427769e+01   4.7099563e+00  -2.2784433e+00  -1.6069202e+00  -1.6308052e+00  -1.1516483e+01   0.0000000e+00   3.0000000e+01   0.0000000e+00   0.0000000e+00
  -1.0489834e+01  -6.6711762e+00  -3.1500827e+00  -1.3233620e+01  -1.9227842e+01  -5.7010579e+00   4.4026128e-01   8.7350487e+00  -1.5395121e+00   4.0317835e+00  -3.5741929e+00  -7.9732792e+00  -1.4352415e+00  -1.9516036e+01  -1.5945633e+01   4.2588959e+00  -2.3894187e+00  -2.5517344e+00  -2.0467054e+00  -1.2439008e+01   0.0000000e+00   3.0000000e+01   0.0000000e+00   0.0000000e+00
  -1.0476756e+01  -5.4070600e+00  -3.0653964e+00  -1.3306855e+01  -1.9983459e+01  -7.1347119e+00  -2.6707257e-01   8.0345498e+00  -1.6966504e+00   3.1871776e+00  -4.5416869e+00  -7.9576653e+00  -2.1357583e+00  -2.0928240e+01  -1.6612084e+01   4.8942117e+00  -2.7391291e+00  -3.0569633e+00  -2.7117091e+00  -1.2908256e+01   0.0000000e+00   3.0000000e+01   0.0000000e+00   0.0000000e+00
  -1.0373550e+01  -4.4107181e+00  -2.8839885e+00  -1.3388730e+01  -2.0232423e+01  -8.1165104e+00  -9.4242629e-01   7.4861694e+00  -1.9287254e+00   2.0341594e+00  -5.4114764e+00  -8.0312803e+00  -2.6694315e+00  -2.2769495e+01  -1.7523486e+01   5.1594348e+00  -3.0531037e+00  -2.8347192e+00  -3.6029904e+00  -1.3181615e+01   0.0000000e+00   3.0000000e+01   0.0000000e+00   0.0000000e+00
  -9.7948871e+00  -4.0131892e+00  -2.7870723e+00  -1.3378589e+01  -2.0329695e+01  -9.2029293e+00  -1.4035087e+00   7.3524579e+00  -2.2597386e+00   8.5424609e-01  -6.2448710e+00  -7.9455459e+00  -3.0373966e+00  -2.4771660e+01  -1.8553336e+01   4.7949631e+00  -3.4160771e+00  -2.4429964e+00  -4.6799773e+00  -1.3412618e+01   0.0000000e+00   3.0000000e+01   0.0000000e+00   0.0000000e+00
  -9.0791358e+00  -4.3006458e+00  -3.0890639e+00  -1.3555323e+01  -2.0789496e+01  -1.0366265e+01  -1.6427914e+00   7.4687105e+00  -2.7263698e+00   3.8533675e-02  -6.8772904e+00  -7.8536796e+00  -3.6644558e+00  -2.6883597e+01  -1.9524793e+01   4.7266217e+00  -4.1098912e+00  -2.3946789e+00  -5.8656311e+00  -1.3518964e+01   0.0000000e+00   3.0000000e+01   0.0000000e+00   0.0000000e+00
  -8.5203872e+00  -4.9254914e+00  -3.7548266e+00  -1.3995092e+01  -2.1536267e+01  -1.1328065e+01  -2.0644888e+00   7.1682624e+00  -3.4236284e+00  -3.1567876e-01  -7.4219674e+00  -8.0467622e+00  -4.6227971e+00  -2.8396693e+01  -2.0431448e+01   4.6023929e+00  -5.1561396e+00  -2.4070056e+00  -7.1523419e+00  -1.3804320e+01   0.0000000e+00   3.0000000e+01   0.0000000e+00   0.0000000e+00
  -7.9590175e+00  -4.9938328e+00  -4.4921239e+00  -1.4392371e+01  -2.2424573e+01  -1.2489849e+01  -2.7846613e+00   6.5346432e+00  -4.3689103e+00  -4.3359431e-01  -8.1011524e+00  -8.3430942e+00  -5.4260201e+00  -2.8656041e+01  -2.1114210e+01   3.8504248e+00  -6.3622237e+00  -2.1555655e+00  -8.4087437e+00  -1.4436607e+01   0.0000000e+00   3.0000000e+01   0.0000000e+00   0.0000000e+00
  -7.6636754e+00  -4.6565378e+00  -5.2979556e+00  -1.4537031e+01  -2.3114578e+01  -1.4174852e+01  -3.4915256e+00   5.9749039e+00  -5.5514087e+00  -5.7669936e-01  -8.9102679e+00  -8.5276574e+00  -5.9528683e+00  -2.8389571e+01  -2.1559855e+01   2.7167830e+00  -7.6441967e+00  -2.1605333e+00  -9.5806923e+00  -1.5313014e+01   0.0000000e+00   3.0000000e+01   0.0000000e+00   0.0000000e+00
  -8.0534234e+00  -4.7514184e+00  -6.4093721e+00  -1.4560043e+01  -2.3576610e+01  -1.5762036e+01  -4.4542815e+00   5.3270499e+00  -6.9155922e+00  -7.5163802e-01  -9.8476861e+00  -8.6588886e+00  -6.5181352e+00  -2.8434435e+01  -2.2052617e+01   1.3894787e+00  -9.0376481e+00  -2.9492928e+00  -1.0843250e+01  -1.6450466e+01   0.0000000e+00   3.0000000e+01   0.0000000e+00   0.0000000e+00
  -8.7568174e+00  -5.5709678e+00  -7.7812816e+00  -1.4540957e+01  -2.4199602e+01  -1.7017916e+01  -6.1486286e+00   4.3072402e+00  -8.2027581e+00  -1.4115947e+00  -1.0921797e+01  -8.7540343e+00  -7.1208279e+00  -2.9198073e+01  -2.2864343e+01  -1.7029207e-01  -1.0447581e+01  -4.1416889e+00  -1.2357511e+01  -1.7850175e+01   0.0000000e+00   3.0000000e+01   0.0000000e+00   0.0000000e+00
  -8.9350832e+00  -6.9408381e+00  -8.8865348e+00  -1.4088815e+01  -2.4546241e+01  -1.8392166e+01  -8.1405797e+00   3.2308230e+00  -9.0551842e+00  -2.8667015e+00  -1.2010992e+01  -8.4232154e+00  -7.4811744e+00  -3.0989062e+01  -2.4186775e+01  -1.8025422e+00  -1.1504596e+01  -5.1163923e+00  -1.4098056e+01  -1.9183449e+01   0.0000000e+00   3.0000000e+01   0.0000000e+00   0.0000000e+00
  -8.4919046e+00  -8.3886226e+00  -9.6561819e+00  -1.3299076e+01  -2.4382966e+01  -1.9988935e+01  -9.6727789e+00   2.5777627e+00  -9.5149182e+00  -4.3041723e+00  -1.2947636e+01  -7.6461137e+00  -7.7409536e+00  -3.3713031e+01  -2.5895367e+01  -3.1118241e+00  -1.2153890e+01  -6.0358548e+00  -1.5826509e+01  -2.0043657e+01   0.0000000e+00   3.0000000e+01   0.0000000e+00   0.0000000e+00
  -7.6522169e+00  -9.1070736e+00  -9.8452117e+00  -1.2623721e+01  -2.3960201e+01  -2.1254643e+01  -1.0434003e+01   2.6230098e+00  -9.7832275e+00  -4.9146183e+00  -1.3564542e+01  -6.8404552e+00  -8.1631512e+00  -3.6680571e+01  -2.7462156e+01  -3.7045802e+00  -1.2451836e+01  -7.0376766e+00  -1.7090553e+01  -2.0112312e+01   0.0000000e+00   3.0000000e+01   0.0000000e+00   0.0000000e+00
  -6.6304685e+00  -8.7127532e+00  -9.1273648e+00  -1.2134420e+01  -2.3301034e+01  -2.2029550e+01  -1.0621111e+01   3.2222803e+00  -1.0024911e+01  -4.9670233e+00  -1.3673739e+01  -6.2499968e+00  -8.4853455e+00  -3.8783950e+01  -2.8301044e+01  -2.9561324e+00  -1.2252660e+01  -7.5949624e+00  -1.7528144e+01  -1.9165020e+01   0.0000000e+00   3.0000000e+01   0.0000000e+00   0.0000000e+00
  -5.6977489e+00  -7.4860635e+00  -7.8259102e+00  -1.1617059e+01  -2.2434659e+01  -2.2798430e+01  -1.0577199e+01   3.8591398e+00  -1.0246461e+01  -5.3251587e+00  -1.3251088e+01  -5.9048619e+00  -8.5061391e+00  -3.9722135e+01  -2.8348216e+01  -1.1043061e+00  -1.1721509e+01  -7.5536026e+00  -1.7417059e+01  -1.7642098e+01   0.0000000e+00   3.0000000e+01   0.0000000e+00   0.0000000e+00
  -5.3159507e+00  -6.7471070e+00  -6.7242535e+00  -1.1267942e+01  -2.1778827e+01  -2.3248417e+01  -1.0394016e+01   4.1227571e+00  -1.0444573e+01  -6.0771979e+00  -1.2685306e+01  -5.8650281e+00  -8.6541603e+00  -3.9887088e+01  -2.8146150e+01   2.8384184e-01  -1.1419173e+01  -7.7398358e+00  -1.7411034e+01  -1.6573182e+01   0.0000000e+00   3.0000000e+01   0.0000000e+00   0.0000000e+00
  -5.7009059e+00  -7.1017325e+00  -6.3180112e+00  -1.1559423e+01  -2.1960735e+01  -2.3452584e+01  -1.0240492e+01   4.0081090e+00  -1.0825448e+01  -6.6064634e+00  -1.2316146e+01  -6.2098235e+00  -9.2142548e+00  -3.9507117e+01  -2.8019458e+01   7.1201357e-01  -1.1702030e+01  -8.7316601e+00  -1.7805401e+01  -1.6429547e+01   0.0000000e+00   3.0000000e+01   0.0000000e+00   0.0000000e+00
  -6.3772388e+00  -7.6370250e+00  -6.3757924e+00  -1.2315685e+01  -2.2581449e+01  -2.3988459e+01  -1.0391257e+01   3.9060764e+00  -1.1272436e+01  -6.6423242e+00  -1.2189504e+01  -6.8476736e+00  -1.0111377e+01  -3.9081128e+01  -2.7872658e+01   6.8628660e-01  -1.2337174e+01  -1.0014803e+01  -1.8378424e+01  -1.6736481e+01   0.0000000e+00   3.0000000e+01   0.0000000e+00   0.0000000e+00
  -6.7697828e+00  -7.8715713e+00  -6.6269435e+00  -1.2871753e+01  -2.2842780e+01  -2.4749167e+01  -1.0744783e+01   4.2048306e+00  -1.1597416e+01  -5.9307356e+00  -1.2275807e+01  -7.4558441e+00  -1.0815278e+01  -3.8949293e+01  -2.7780093e+01   2.8394850e-01  -1.3024647e+01  -1.1081987e+01  -1.8898549e+01  -1.7127445e+01   0.0000000e+00   3.0000000e+01   0.0000000e+00   0.0000000e+00
  -6.7902666e+00  -7.9164152e+00  -6.7975529e+00  -1.2979460e+01  -2.2595477e+01  -2.5697945e+01  -1.1234061e+01   4.5798878e+00  -1.1880319e+01  -4.8433477e+00  -1.2540588e+01  -7.8587375e+00  -1.1050855e+01  -3.9059672e+01  -2.7851086e+01  -5.1829172e-01  -1.3789873e+01  -1.2273432e+01  -1.9287862e+01  -1.7680956e+01   0.0000000e+00   3.0000000e+01   0.0000000e+00   0.0000000e+00
  -6.5495739e+00  -8.2361333e+00  -7.0399508e+00  -1.2985672e+01  -2.2058948e+01  -2.6262311e+01  -1.1566836e+01   4.7247081e+00  -1.2049391e+01  -4.5537376e+00  -1.2919560e+01  -8.1924826e+00  -1.1229672e+01  -3.9394033e+01  -2.7834359e+01  -1.5568416e+00  -1.4450950e+01  -1.3724236e+01  -1.9300242e+01  -1.8306853e+01   0.0000000e+00   3.0000000e+01   0.0000000e+00   0.0000000e+00
  -6.1702691e+00  -8.7421830e+00  -7.1840859e+00  -1.3431623e+01  -2.1707160e+01  -2.5962723e+01  -1.1375856e+01   4.6830146e+00  -1.2149041e+01  -5.1937519e+00  -1.3251914e+01  -8.8735399e+00  -1.1284882e+01  -3.9706869e+01  -2.7453139e+01  -2.4830766e+00  -1.4591456e+01  -1.4687732e+01  -1.8765737e+01  -1.8739533e+01   0.0000000e+00   3.0000000e+01   0.0000000e+00   0.0000000e+00
  -6.1829757e+00  -8.3095318e+00  -7.1072694e+00  -1.4672265e+01  -2.1910611e+01  -2.5649690e+01  -1.0691746e+01   4.6654016e+00  -1.2319852e+01  -5.7752320e+00  -1.3267850e+01  -1.0225919e+01  -1.0982814e+01  -3.9885359e+01  -2.6897896e+01  -2.8996163e+00  -1.4275237e+01  -1.4697775e+01  -1.7936330e+01  -1.8827463e+01   0.0000000e+00   3.0000000e+01   5.0000000e+01   0.0000000e+00
  -6.6027608e+00  -6.9220439e+00  -7.1819784e+00  -1.6000495e+01  -2.2312205e+01  -2.5413724e+01  -9.6666767e+00   4.8727270e+00  -1.2419020e+01  -5.7927512e+00  -1.2947417e+01  -1.1501179e+01  -1.0412929e+01  -4.0033461e+01  -2.6559020e+01  -2.9061799e+00  -1.3800966e+01  -1.4132003e+01  -1.7125057e+01  -1.8663247e+01   0.0000000e+00   3.0000000e+01   5.0000000e+01   0.0000000e+00
  -6.9948172e+00  -5.7640568e+00  -7.3510472e+00  -1.6624658e+01  -2.2427568e+01  -2.4932932e+01  -8.5129418e+00   5.1743837e+00  -1.2404411e+01  -5.5408640e+00  -1.2469871e+01  -1.1896174e+01  -9.7196335e+00  -3.9893965e+01  -2.6412743e+01  -2.9548332e+00  -1.3313224e+01  -1.3388747e+01  -1.6439940e+01  -1.8448184e+01   0.0000000e+00   3.0000000e+01   5.0000000e+01   0.0000000e+00
  -7.5326655e+00  -5.6521803e+00  -7.3305576e+00  -1.6993715e+01  -2.2014990e+01  -2.4075757e+01  -7.4517711e+00   5.2739536e+00  -1.2480286e+01  -5.2919038e+00  -1.1818803e+01  -1.1924602e+01  -9.1511642e+00  -3.9340069e+01  -2.6084563e+01  -3.1844380e+00  -1.2877531e+01  -1.2331414e+01  -1.5777319e+01  -1.8230545e+01   0.0000000e+00   3.0000000e+01   5.0000000e+01   0.0000000e+00
  -8.0553181e+00  -6.1994902e+00  -7.0635284e+00  -1.7549872e+01  -2.1330316e+01  -2.2623528e+01  -6.4355035e+00   5.2926725e+00  -1.2724909e+01  -5.1669033e+00  -1.0925944e+01  -1.2186646e+01  -8.8320863e+00  -3.8138955e+01  -2.5181277e+01  -3.1907239e+00  -1.2496212e+01  -1.0759989e+01  -1.4777392e+01  -1.7791378e+01   0.0000000e+00   3.0000000e+01   5.0000000e+01   0.0000000e+00
  -8.2721986e+00  -6.7037366e+00  -6.8314357e+00  -1.8349152e+01  -2.1225969e+01  -2.1578693e+01  -5.6443807e+00   5.4068319e+00  -1.3195486e+01  -5.3414055e+00  -9.9032818e+00  -1.2727822e+01  -8.8004765e+00  -3.6595506e+01  -2.3954755e+01  -2.6967954e+00  -1.2504559e+01  -9.3027886e+00  -1.3606174e+01  -1.7228489e+01   0.0000000e+00   3.0000000e+01   5.0000000e+01   0.0000000e+00
  -8.6162850e+00  -7.1779556e+00  -6.6900924e+00  -1.9236347e+01  -2.1704814e+01  -2.1480099e+01  -5.1463906e+00   5.5612462e+00  -1.3717853e+01  -5.1044916e+00  -8.8233258e+00  -1.3365913e+01  -8.9433025e+00  -3.5545414e+01  -2.2883661e+01  -2.1367916e+00  -1.2983901e+01  -8.5477173e+00  -1.2707994e+01  -1.6985204e+01   0.0000000e+00   3.0000000e+01   5.0000000e+01   0.0000000e+00
  -9.2545276e+00  -7.1535254e+00  -6.6243312e+00  -2.0142591e+01  -2.2325480e+01  -2.2359841e+01  -5.0141879e+00   5.6568128e+00  -1.4172761e+01  -4.2843597e+00  -7.8392187e+00  -1.4163475e+01  -9.1543092e+00  -3.4921515e+01  -2.1995365e+01  -1.6001037e+00  -1.3615214e+01  -8.1977987e+00  -1.2151033e+01  -1.6959622e+01   0.0000000e+00   3.0000000e+01   5.0000000e+01   0.0000000e+00
  -9.7739253e+00  -6.3957306e+00  -6.7149340e+00  -2.0793932e+01  -2.2695922e+01  -2.3643659e+01  -5.2262197e+00   5.6301753e+00  -1.4653287e+01  -3.4947337e+00  -7.2683424e+00  -1.4981634e+01  -9.3026452e+00  -3.4516749e+01  -2.1393111e+01  -1.2800227e+00  -1.3967009e+01  -7.8816728e+00  -1.1913439e+01  -1.6966561e+01   0.0000000e+00   3.0000000e+01   5.0000000e+01   0.0000000e+00
  -9.9647619e+00  -5.8254441e+00  -6.8500286e+00  -2.0818842e+01  -2.2321588e+01  -2.3455281e+01  -5.0383482e+00   5.8404415e+00  -1.5053039e+01  -3.2260227e+00  -7.1019567e+00  -1.5310297e+01  -9.0372489e+00  -3.4347674e+01  -2.0959043e+01  -1.1420495e+00  -1.3517140e+01  -7.5752977e+00  -1.1646181e+01  -1.6773207e+01   0.0000000e+00   3.0000000e+01   5.0000000e+01   0.0000000e+00
  -9.7897196e+00  -5.5410163e+00  -6.6782328e+00  -2.0275396e+01  -2.1162772e+01  -2.1827343e+01  -4.1378219e+00   6.3775588e+00  -1.5147392e+01  -3.2354004e+00  -7.2186332e+00  -1.5078113e+01  -8.3837069e+00  -3.4457512e+01  -2.0465255e+01  -1.0473933e+00  -1.2214807e+01  -7.1607691e+00  -1.1168300e+01  -1.6217048e+01   0.0000000e+00   3.0000000e+01   5.0000000e+01   0.0000000e+00
  -9.2335906e+00  -5.0209021e+00  -6.0799589e+00  -1.9575257e+01  -1.9774627e+01  -2.0473467e+01  -2.9573734e+00   6.6959565e+00  -1.5014953e+01  -3.2441389e+00  -7.5743008e+00  -1.4734689e+01  -7.7328560e+00  -3.4835460e+01  -2.0036900e+01  -1.3280278e+00  -1.0586781e+01  -6.3234810e+00  -1.0741054e+01  -1.5522708e+01   0.0000000e+00   3.0000000e+01   5.0000000e+01   0.0000000e+00
  -8.3868749e+00  -4.3548549e+00  -5.4347707e+00  -1.9101141e+01  -1.8571939e+01  -1.9518247e+01  -1.7275208e+00   6.8037585e+00  -1.4900674e+01  -3.2884229e+00  -8.0400713e+00  -1.4527234e+01  -6.9925236e+00  -3.5053215e+01  -1.9762021e+01  -1.5072669e+00  -8.9620224e+00  -4.9547652e+00  -1.0405287e+01  -1.4649543e+01   0.0000000e+00   3.0000000e+01   5.0000000e+01   0.0000000e+00
  -7.7027576e+00  -3.7546421e+00  -4.7259277e+00  -1.8898543e+01  -1.7654700e+01  -1.8445309e+01  -4.4248230e-01   7.0994277e+00  -1.4911154e+01  -2.9937120e+00  -8.5028873e+00  -1.4570370e+01  -6.0347563e+00  -3.4999987e+01  -1.9500255e+01  -1.1276814e+00  -7.5863075e+00  -3.5788430e+00  -1.0039882e+01  -1.3571830e+01   0.0000000e+00   3.0000000e+01   5.0000000e+01   0.0000000e+00
  -7.0800408e+00  -2.5789368e+00  -3.8636018e+00  -1.8525032e+01  -1.6903738e+01  -1.7258616e+01   1.0503463e+00   7.8652255e+00  -1.4803299e+01  -2.3558381e+00  -8.6682129e+00  -1.4561621e+01  -4.9617921e+00  -3.4609809e+01  -1.8793399e+01  -5.9262772e-01  -6.5151134e+00  -2.4147056e+00  -9.3657803e+00  -1.2454673e+01   0.0000000e+00   3.0000000e+01   5.0000000e+01   0.0000000e+00
  -6.1355163e+00  -4.5187175e-01  -2.7996595e+00  -1.7762395e+01  -1.6161118e+01  -1.6183978e+01   2.7832335e+00   9.0148423e+00  -1.4514397e+01  -1.9076138e+00  -8.2787465e+00  -1.4374851e+01  -4.1705495e+00  -3.3692719e+01  -1.7653516e+01  -2.8076779e-01  -5.6293025e+00  -1.0787976e+00  -8.3041503e+00  -1.1411238e+01   0.0000000e+00   3.0000000e+01   5.0000000e+01   0.0000000e+00
  -5.0164301e+00   1.8208716e+00  -1.5634515e+00  -1.6803892e+01  -1.5102574e+01  -1.4870077e+01   4.5373142e+00   1.0164008e+01  -1.4271356e+01  -1.4658524e+00  -7.4379770e+00  -1.4053136e+01  -3.7255033e+00  -3.2254592e+01  -1.6581730e+01   2.0313024e-01  -4.7212757e+00   4.8982397e-01  -7.0668799e+00  -1.0293223e+01   0.0000000e+00   3.0000000e+01   5.0000000e+01   0.0000000e+00
  -4.2377014e+00   3.2530915e+00  -5.3509067e-01  -1.5930073e+01  -1.3608420e+01  -1.2965394e+01   5.8998885e+00   1.1083662e+01  -1.4263230e+01  -5.8345904e-01  -6.5375161e+00  -1.3549896e+01  -3.3778450e+00  -3.0386596e+01  -1.5767734e+01   1.4551566e+00  -3.7476069e+00   1.6050922e+00  -5.9705907e+00  -9.0225358e+00   0.0000000e+00   3.0000000e+01   5.0000000e+01   0.0000000e+00
  -3.8683101e+00   3.6441208e+00   9.8267888e-02  -1.5222499e+01  -1.2255829e+01  -1.1514464e+01   6.4568731e+00   1.1529423e+01  -1.4493214e+01   7.0980877e-01  -5.9510190e+00  -1.3073190e+01  -3.0971838e+00  -2.8664550e+01  -1.5288898e+01   3.0965206e+00  -3.0489634e+00   1.6733119e+00  -5.3833383e+00  -8.1231218e+00   0.0000000e+00   3.0000000e+01   5.0000000e+01   0.0000000e+00
  -3.5543776e+00   3.4132182e+00   1.9892251e-01  -1.4614335e+01  -1.1533832e+01  -1.1831654e+01   6.0026748e+00   1.1157636e+01  -1.4619994e+01   2.1870803e+00  -5.8346039e+00  -1.2835650e+01  -3.0429454e+00  -2.8140778e+01  -1.5290441e+01   3.8214844e+00  -2.8133023e+00   1.0372916e+00  -5.5334664e+00  -8.1104556e+00   0.0000000e+00   3.0000000e+01   5.0000000e+01   0.0000000e+00
  -3.1164666e+00   2.9776960e+00  -1.3831996e-01  -1.3932385e+01  -1.0903920e+01  -1.3155662e+01   5.2876476e+00   1.0537850e+01  -1.4335653e+01   3.4412236e+00  -5.9048541e+00  -1.2592255e+01  -3.0758408e+00  -2.8839545e+01  -1.5497115e+01   3.6780332e+00  -2.6215753e+00   5.2795898e-01  -6.0050756e+00  -8.5147309e+00   0.0000000e+00   3.0000000e+01   5.0000000e+01   0.0000000e+00
  -2.5877566e+00   2.6911884e+00  -6.4496490e-01  -1.3273866e+01  -1.0201250e+01  -1.4332011e+01   4.8581382e+00   1.0385514e+01  -1.3884212e+01   4.0517879e+00  -5.9127294e+00  -1.2094251e+01  -2.8597397e+00  -3.0095021e+01  -1.5645097e+01   3.4567645e+00  -2.2677167e+00   1.6891188e-01  -6.3269511e+00  -8.7972654e+00   0.0000000e+00   3.0000000e+01   5.0000000e+01   0.0000000e+00
  -2.3346668e+00   2.4487600e+00  -8.9191710e-01  -1.2788939e+01  -9.8780159e+00  -1.5076705e+01   4.4739792e+00   1.0596422e+01  -1.3596070e+01   4.2047859e+00  -5.8727105e+00  -1.1680078e+01  -2.4745556e+00  -3.1225510e+01  -1.5775318e+01   3.0737666e+00  -1.9773107e+00  -2.7666022e-01  -6.5153849e+00  -8.9989646e+00   0.0000000e+00   3.0000000e+01   5.0000000e+01   0.0000000e+00
  -2.6392615e+00   2.1068495e+00  -7.4478793e-01  -1.2655233e+01  -1.0022418e+01  -1.5495004e+01   4.1234793e+00   1.0741294e+01  -1.3458915e+01   3.8422128e+00  -5.5763649e+00  -1.1784148e+01  -2.3095169e+00  -3.1978408e+01  -1.5644097e+01   2.8287602e+00  -2.0076530e+00  -3.5795399e-01  -6.5221978e+00  -8.9748419e+00   0.0000000e+00   3.0000000e+01   5.0000000e+01   0.0000000e+00
  -3.2129631e+00   1.9694008e+00  -4.8326794e-01  -1.2984216e+01  -1.0709525e+01  -1.5843554e+01   3.8170365e+00   1.0807822e+01  -1.3254289e+01   3.5970675e+00  -5.0649865e+00  -1.2309397e+01  -2.8449342e+00  -3.2960353e+01  -1.5252185e+01   2.9495156e+00  -2.8119704e+00   6.4938109e-02  -6.4049960e+00  -8.6960542e+00   0.0000000e+00   3.0000000e+01   5.0000000e+01   0.0000000e+00
  -3.6568306e+00   1.5974844e+00  -3.9171520e-01  -1.3472760e+01  -1.1790015e+01  -1.6033805e+01   3.5241719e+00   1.0921644e+01  -1.2985349e+01   3.9079879e+00  -4.7222252e+00  -1.2869061e+01  -3.9311268e+00  -3.4209290e+01  -1.5192364e+01   3.0516463e+00  -4.3670698e+00   3.0250677e-01  -6.4046951e+00  -8.4632614e+00   0.0000000e+00   3.0000000e+01   5.0000000e+01   0.0000000e+00
  -3.9915335e+00   6.7353249e-01  -8.8570716e-01  -1.3998611e+01  -1.2963663e+01  -1.6138835e+01   3.2196101e+00   1.0790447e+01  -1.2919009e+01   4.3613303e+00  -4.6466270e+00  -1.3334658e+01  -5.0707330e+00  -3.5084301e+01  -1.5519455e+01   2.8225914e+00  -6.0701581e+00  -8.6253278e-02  -6.5363840e+00  -8.5635497e+00   0.0000000e+00   3.0000000e+01   5.0000000e+01   0.0000000e+00
  -4.4302109e+00  -7.8794911e-02  -1.8414711e+00  -1.4928765e+01  -1.4345043e+01  -1.6665331e+01   2.6217131e+00   1.0058433e+01  -1.3254280e+01   4.5949651e+00  -4.8765639e+00  -1.4181528e+01  -6.3051406e+00  -3.5651544e+01  -1.5995395e+01   2.1727140e+00  -7.8004020e+00  -9.0730166e-01  -6.8972955e+00  -9.2090220e+00   0.0000000e+00   3.0000000e+01   5.0000000e+01   0.0000000e+00
  -4.6996435e+00  -2.7580819e-01  -2.8130619e+00  -1.5985235e+01  -1.5818971e+01  -1.7619956e+01   1.7370150e+00   8.9207751e+00  -1.3921901e+01   4.2923353e+00  -5.5154202e+00  -1.5343733e+01  -7.6790592e+00  -3.6188777e+01  -1.6606233e+01   9.5860297e-01  -9.5722638e+00  -1.9578440e+00  -7.6684699e+00  -1.0520211e+01   0.0000000e+00   3.0000000e+01   5.0000000e+01   0.0000000e+00
  -4.5537236e+00  -5.7249712e-01  -3.6845924e+00  -1.6352348e+01  -1.6588345e+01  -1.8315054e+01   9.4318953e-01   7.9941214e+00  -1.4402977e+01   3.7374498e+00  -6.2796100e+00  -1.5970078e+01  -8.6206127e+00  -3.6484265e+01  -1.7293217e+01  -2.7214203e-01  -1.0871032e+01  -3.2561722e+00  -8.5988103e+00  -1.2086449e+01   0.0000000e+00   3.0000000e+01   5.0000000e+01   0.0000000e+00
  -4.1097877e+00  -1.2073774e+00  -4.4745878e+00  -1.5701893e+01  -1.6249798e+01  -1.8658035e+01   4.4947276e-01   7.6864229e+00  -1.4269926e+01   3.3249791e+00  -6.6952279e+00  -1.5560123e+01  -8.6553552e+00  -3.6027234e+01  -1.7803860e+01  -6.8478342e-02  -1.1182503e+01  -4.5310148e+00  -9.2046647e+00  -1.2847710e+01   0.0000000e+00   3.0000000e+01   5.0000000e+01   0.0000000e+00
  -3.5645808e+00  -1.5310504e+00  -5.1222470e+00  -1.4489739e+01  -1.5676085e+01  -1.9494894e+01  -8.4245542e-02   7.6907468e+00  -1.3806634e+01   3.3799102e+00  -6.8258634e+00  -1.4523705e+01  -8.3770874e+00  -3.5532895e+01  -1.8123533e+01   1.8361541e+00  -1.0921110e+01  -5.3560392e+00  -9.4800879e+00  -1.2403751e+01   0.0000000e+00   3.0000000e+01   5.0000000e+01   0.0000000e+00
  -3.2280010e+00  -1.3774113e+00  -5.5450170e+00  -1.3322831e+01  -1.5199114e+01  -2.0696841e+01  -7.7923627e-01   7.6520534e+00  -1.3399038e+01   3.3400787e+00  -7.0406632e+00  -1.3332729e+01  -8.2121138e+00  -3.5656137e+01  -1.8522878e+01   3.7168642e+00  -1.0544052e+01  -5.7117276e+00  -9.6104851e+00  -1.1518358e+01   0.0000000e+00   3.0000000e+01   5.0000000e+01   0.0000000e+00
  -3.2531056e+00  -8.2973031e-01  -5.8693818e+00  -1.2517384e+01  -1.4682882e+01  -2.1314123e+01  -1.4884536e+00   7.7442781e+00  -1.3312068e+01   2.5697229e+00  -7.4876863e+00  -1.2204820e+01  -7.8889256e+00  -3.5649836e+01  -1.9018721e+01   4.6476787e+00  -1.0131477e+01  -6.0257360e+00  -9.5406863e+00  -1.0772545e+01   0.0000000e+00   3.0000000e+01   5.0000000e+01   0.0000000e+00
  -3.4502854e+00  -3.7686047e-01  -6.1727453e+00  -1.1964692e+01  -1.4488453e+01  -2.1323847e+01  -2.0617191e+00   8.1531487e+00  -1.3477448e+01   1.5686359e+00  -8.0911443e+00  -1.1152982e+01  -7.2404836e+00  -3.5126613e+01  -1.9514066e+01   4.9426568e+00  -9.7781391e+00  -6.5147735e+00  -9.2461466e+00  -1.0202492e+01   0.0000000e+00   3.0000000e+01   5.0000000e+01   0.0000000e+00
  -3.8468066e+00  -9.4771987e-01  -6.2615811e+00  -1.1865942e+01  -1.5029367e+01  -2.1346449e+01  -2.4769582e+00   8.5517861e+00  -1.3708279e+01   5.1897431e-01  -8.7830452e+00  -1.0394335e+01  -6.6730514e+00  -3.4858451e+01  -1.9850067e+01   4.7202949e+00  -9.7252061e+00  -6.9506248e+00  -8.8911084e+00  -9.8464694e+00   0.0000000e+00   3.0000000e+01   5.0000000e+01   0.0000000e+00
  -4.3932514e+00  -2.0770071e+00  -6.0803506e+00  -1.2383573e+01  -1.6137459e+01  -2.2070026e+01  -2.7909516e+00   8.6689710e+00  -1.4042953e+01  -8.7556347e-01  -9.5499298e+00  -9.9914455e+00  -6.5284063e+00  -3.5271858e+01  -1.9988271e+01   4.1245540e+00  -1.0051803e+01  -7.1449970e+00  -8.7500296e+00  -9.7564649e+00   0.0000000e+00   3.0000000e+01   5.0000000e+01   0.0000000e+00
  -4.7875707e+00  -3.0886928e+00  -5.9238922e+00  -1.3084003e+01  -1.7184097e+01  -2.3291789e+01  -3.1846581e+00   8.5222167e+00  -1.4661685e+01  -2.5530883e+00  -1.0387778e+01  -9.7337270e+00  -6.7848635e+00  -3.6093445e+01  -2.0250443e+01   3.1919823e+00  -1.0540409e+01  -7.4297743e+00  -9.1139430e+00  -1.0100533e+01   0.0000000e+00   3.0000000e+01   5.0000000e+01   0.0000000e+00
  -4.9512826e+00  -4.2940209e+00  -5.8246817e+00  -1.3523264e+01  -1.7726279e+01  -2.3995050e+01  -3.5243250e+00   8.4411786e+00  -1.5594954e+01  -3.8797918e+00  -1.1139298e+01  -9.5282117e+00  -7.0692268e+00  -3.6612678e+01  -2.0589659e+01   1.9188653e+00  -1.0844960e+01  -7.9761385e+00  -9.6845861e+00  -1.0780761e+01   0.0000000e+00   3.0000000e+01   5.0000000e+01   0.0000000e+00
  -5.1600912e+00  -5.5738716e+00  -5.5066000e+00  -1.3600915e+01  -1.7621532e+01  -2.3894342e+01  -3.4651257e+00   8.5606916e+00  -1.6468067e+01  -4.7448565e+00  -1.1479056e+01  -9.0883749e+00  -6.9021280e+00  -3.6018658e+01  -2.0455789e+01   7.2157876e-01  -1.0597511e+01  -8.2259421e+00  -9.7786663e+00  -1.1089812e+01   0.0000000e+00   0.0000000e+00   5.0000000e+01   0.0000000e+00
  -5.6716847e+00  -6.4827540e+00  -5.0707176e+00  -1.3665941e+01  -1.7308176e+01  -2.3400128e+01  -3.0897573e+00   8.7629046e+00  -1.7008506e+01  -5.3032143e+00  -1.1331002e+01  -8.3846563e+00  -6.5112143e+00  -3.4761039e+01  -1.9788283e+01   3.8642560e-01  -9.9946801e+00  -8.0016835e+00  -9.3491749e+00  -1.0426436e+01   0.0000000e+00   0.0000000e+00   5.0000000e+01   0.0000000e+00
  -6.5456816e+00  -7.2733871e+00  -5.0320881e+00  -1.4037218e+01  -1.7459213e+01  -2.3299000e+01  -2.9008029e+00   8.7991387e+00  -1.7521465e+01  -5.6820913e+00  -1.1041006e+01  -7.9753058e+00  -6.6053410e+00  -3.3905944e+01  -1.9368547e+01   7.3591766e-01  -9.7337976e+00  -8.1843481e+00  -9.0872188e+00  -9.3685742e+00   0.0000000e+00   0.0000000e+00   5.0000000e+01   0.0000000e+00
  -7.5681765e+00  -8.5427995e+00  -5.4842906e+00  -1.4464411e+01  -1.7800858e+01  -2.3465671e+01  -3.1135604e+00   8.6966845e+00  -1.8040016e+01  -5.8946746e+00  -1.0753404e+01  -7.9662257e+00  -7.1944317e+00  -3.3558511e+01  -1.9531172e+01   1.1885279e+00  -9.8234155e+00  -9.0706695e+00  -9.3329212e+00  -8.6171792e+00   0.0000000e+00   0.0000000e+00   5.0000000e+01   0.0000000e+00
  -8.3709289e+00  -1.0362082e+01  -6.1811867e+00  -1.4680364e+01  -1.7956496e+01  -2.4156745e+01  -3.8578120e+00   8.5496121e+00  -1.8096512e+01  -5.4670863e+00  -1.0376516e+01  -7.7674250e+00  -7.4850434e+00  -3.3684944e+01  -1.9902605e+01   1.5612397e+00  -9.7968643e+00  -9.9118654e+00  -9.9282653e+00  -8.1965089e+00   0.0000000e+00   0.0000000e+00   5.0000000e+01   0.0000000e+00
  -8.8250557e+00  -1.2150799e+01  -6.9216415e+00  -1.4596069e+01  -1.7912008e+01  -2.5665152e+01  -4.9762121e+00   8.4195067e+00  -1.7512871e+01  -4.6449683e+00  -9.8133158e+00  -6.9101690e+00  -6.8246455e+00  -3.3812902e+01  -1.9817887e+01   1.9858256e+00  -9.2999422e+00  -1.0119963e+01  -1.0474425e+01  -7.8393247e+00   0.0000000e+00   0.0000000e+00   5.0000000e+01   0.0000000e+00
  -9.2550443e+00  -1.3694955e+01  -7.6969542e+00  -1.4311664e+01  -1.7843945e+01  -2.7373790e+01  -5.9237708e+00   8.3367051e+00  -1.6726266e+01  -4.1209829e+00  -8.9420144e+00  -5.7253212e+00  -5.4479820e+00  -3.3303469e+01  -1.8982323e+01   2.9840525e+00  -8.4108816e+00  -9.9549589e+00  -1.0604688e+01  -7.2685998e+00   0.0000000e+00   0.0000000e+00   5.0000000e+01   0.0000000e+00
  -9.6576879e+00  -1.4549477e+01  -8.5065955e+00  -1.3949539e+01  -1.7766414e+01  -2.9161374e+01  -6.5968972e+00   8.2331049e+00  -1.6022244e+01  -3.6979301e+00  -7.7523279e+00  -4.6606517e+00  -3.9499847e+00  -3.2572967e+01  -1.7927947e+01   4.2392177e+00  -7.4552326e+00  -9.7868144e+00  -1.0454045e+01  -6.7673155e+00   0.0000000e+00   0.0000000e+00   5.0000000e+01   0.0000000e+00
  -9.5755762e+00  -1.4359042e+01  -9.3140743e+00  -1.3511923e+01  -1.7573224e+01  -3.0705418e+01  -7.1876655e+00   8.0937269e+00  -1.5282103e+01  -3.3854791e+00  -6.3531214e+00  -3.6782250e+00  -2.5861422e+00  -3.2270695e+01  -1.6982320e+01   4.9253858e+00  -6.5440397e+00  -9.3357753e+00  -1.0271659e+01  -6.6903825e+00   0.0000000e+00   0.0000000e+00   5.0000000e+01   0.0000000e+00
  -9.0545293e+00  -1.3544149e+01  -9.8935065e+00  -1.3022111e+01  -1.7200109e+01  -3.1102971e+01  -7.4612034e+00   8.1698893e+00  -1.4525326e+01  -3.1171898e+00  -5.1132472e+00  -2.6066766e+00  -1.4139976e+00  -3.2324296e+01  -1.6104606e+01   4.9126965e+00  -5.6569005e+00  -8.3691696e+00  -1.0033011e+01  -6.8744548e+00   0.0000000e+00   0.0000000e+00   5.0000000e+01   0.0000000e+00
  -8.6503155e+00  -1.2520137e+01  -9.9351890e+00  -1.2618888e+01  -1.6572000e+01  -3.0389683e+01  -7.0889043e+00   8.6921621e+00  -1.3974755e+01  -2.6227780e+00  -4.3639191e+00  -1.6615533e+00  -4.9953923e-01  -3.2382204e+01  -1.5464257e+01   4.5356976e+00  -4.8688055e+00  -7.4511164e+00  -9.6539867e+00  -7.0131435e+00   0.0000000e+00   0.0000000e+00   5.0000000e+01   0.0000000e+00
  -8.5469688e+00  -1.1491743e+01  -9.5369362e+00  -1.2265376e+01  -1.5555324e+01  -2.8625251e+01  -6.0900509e+00   9.3907349e+00  -1.3706492e+01  -2.1258631e+00  -3.9474106e+00  -1.0283593e+00   1.2603955e-01  -3.2014389e+01  -1.5030673e+01   3.9596425e+00  -3.9968753e+00  -7.0129154e+00  -8.9804944e+00  -7.0768068e+00   0.0000000e+00   0.0000000e+00   5.0000000e+01   0.0000000e+00
  -8.3337170e+00  -1.0696224e+01  -8.6966351e+00  -1.1717179e+01  -1.4247781e+01  -2.5985630e+01  -4.9043703e+00   9.6944971e+00  -1.3518896e+01  -2.0927317e+00  -3.6170513e+00  -4.4373434e-01   5.9740977e-01  -3.1063550e+01  -1.4575507e+01   3.2261263e+00  -2.8126953e+00  -6.6266172e+00  -7.9830702e+00  -7.1290832e+00   0.0000000e+00   0.0000000e+00   5.0000000e+01   0.0000000e+00
  -7.8045884e+00  -1.0259759e+01  -7.6715517e+00  -1.0791743e+01  -1.2780166e+01  -2.3480778e+01  -3.7534867e+00   9.6658469e+00  -1.2958211e+01  -1.7305269e+00  -3.3274322e+00   4.3915462e-01   1.2053192e+00  -2.9989364e+01  -1.4134421e+01   2.5900819e+00  -1.3900236e+00  -5.8306300e+00  -6.9059481e+00  -6.9143836e+00   0.0000000e+00   0.0000000e+00   5.0000000e+01   0.0000000e+00
  -7.0359704e+00  -9.8013181e+00  -6.9295567e+00  -9.4816581e+00  -1.1307081e+01  -2.1354457e+01  -2.5567690e+00   9.6396746e+00  -1.1784380e+01  -5.3967165e-01  -2.9829120e+00   1.7907439e+00   2.1911505e+00  -2.8704500e+01  -1.3665631e+01   2.5017253e+00   1.0609846e-01  -4.8204445e+00  -5.8840107e+00  -6.2256657e+00   0.0000000e+00   0.0000000e+00   5.0000000e+01   0.0000000e+00
  -5.8444416e+00  -8.7527266e+00  -6.5598996e+00  -7.5661768e+00  -9.7616765e+00  -1.9802595e+01  -1.7036297e+00   9.4571443e+00  -1.0038136e+01   8.1229003e-01  -2.3560636e+00   3.7526277e+00   3.8579494e+00  -2.6844444e+01  -1.2816804e+01   2.9386135e+00   1.7731571e+00  -3.8034428e+00  -5.0497900e+00  -5.3408389e+00   0.0000000e+00   0.0000000e+00   5.0000000e+01   0.0000000e+00
  -4.2264599e+00  -7.2590917e+00  -6.4642979e+00  -5.2808262e+00  -8.1380336e+00  -1.9386759e+01  -1.6204315e+00   8.8153949e+00  -7.8098144e+00   2.2437077e+00  -1.3311465e+00   6.0008751e+00   5.9933196e+00  -2.4998501e+01  -1.1658660e+01   3.3166088e+00   3.6263551e+00  -2.5746383e+00  -4.6604677e+00  -4.5821302e+00   0.0000000e+00   0.0000000e+00   5.0000000e+01   0.0000000e+00
  -2.4248238e+00  -6.0304476e+00  -6.3906833e+00  -3.1407081e+00  -6.6547418e+00  -1.9633126e+01  -1.8758560e+00   8.0113129e+00  -5.4470482e+00   3.2683842e+00  -1.4040904e-01   7.9931596e+00   7.9169719e+00  -2.3365017e+01  -1.0482080e+01   3.5321186e+00   5.4302443e+00  -1.0629705e+00  -4.5365333e+00  -3.8428050e+00   0.0000000e+00   0.0000000e+00   5.0000000e+01   0.0000000e+00
  -9.0296886e-01  -5.3915226e+00  -6.1447149e+00  -1.6581685e+00  -5.6656524e+00  -2.0040107e+01  -2.0283125e+00   7.4318061e+00  -3.8185411e+00   3.6631225e+00   5.3588446e-01   9.0987507e+00   8.9121143e+00  -2.2259898e+01  -9.6413953e+00   3.6381513e+00   6.6306500e+00   6.6418077e-02  -4.4605266e+00  -3.2566346e+00   0.0000000e+00   0.0000000e+00   5.0000000e+01   0.0000000e+00
  -1.2812621e-01  -4.9550126e+00  -5.7070120e+00  -1.0510378e+00  -5.1224824e+00  -2.0042008e+01  -1.9949884e+00   7.0716109e+00  -3.4477743e+00   3.8670537e+00   3.4615144e-01   9.1202613e+00   8.8094974e+00  -2.1972337e+01  -9.4174376e+00   3.4157281e+00   7.1022990e+00   4.3571435e-01  -4.4260358e+00  -3.1598159e+00   0.0000000e+00   0.0000000e+00   5.0000000e+01   0.0000000e+00
   2.2729243e-02  -4.7186200e+00  -5.3327154e+00  -1.1173958e+00  -4.7173180e+00  -1.9010102e+01  -1.6572473e+00   6.9062304e+00  -3.8778626e+00   3.8456599e+00  -1.8938011e-01   8.5026752e+00   8.1284870e+00  -2.1883370e+01  -9.3110106e+00   3.2285757e+00   7.3006843e+00   6.9246109e-01  -4.1888441e+00  -3.2824352e+00   0.0000000e+00   0.0000000e+00   5.0000000e+01   0.0000000e+00
   3.5973612e-01  -3.9506111e+00  -5.1509975e+00  -1.0606581e+00  -4.0908864e+00  -1.7662051e+01  -1.1222776e+00   6.8775685e+00  -4.3539920e+00   3.6405239e+00  -6.5926151e-01   8.0138675e+00   7.5392684e+00  -2.1579662e+01  -9.0054439e+00   3.0004486e+00   7.7091657e+00   1.3360170e+00  -3.7285844e+00  -3.4113581e+00   0.0000000e+00   0.0000000e+00   5.0000000e+01   0.0000000e+00
   1.3185963e+00  -2.3040989e+00  -5.0703089e+00  -1.7036620e-01  -2.8680661e+00  -1.6178315e+01  -4.7812961e-01   7.0252423e+00  -4.5070775e+00   3.3816568e+00  -1.3154364e+00   8.2670806e+00   7.6573863e+00  -2.0915268e+01  -8.8827532e+00   2.0254035e+00   8.6955561e+00   2.0050085e+00  -3.2695804e+00  -3.6524001e+00   0.0000000e+00   0.0000000e+00   5.0000000e+01   0.0000000e+00
   2.8086517e+00  -5.7009378e-01  -4.7206589e+00   1.4624837e+00  -1.2306605e+00  -1.4419715e+01   6.7638516e-01   7.7124127e+00  -4.2690881e+00   3.3636221e+00  -1.9590479e+00   9.2967787e+00   8.6232494e+00  -2.0132887e+01  -8.8184155e+00   9.9988024e-01   1.0167159e+01   2.4885913e+00  -2.6608453e+00  -3.5746497e+00   0.0000000e+00   0.0000000e+00   5.0000000e+01   0.0000000e+00
   4.3669530e+00   9.1804955e-01  -3.9761781e+00   3.0482975e+00  -1.9160917e-02  -1.3485825e+01   1.8727927e+00   8.5368611e+00  -3.9132965e+00   3.6919184e+00  -2.1289167e+00   1.0454441e+01   9.7222084e+00  -1.9696830e+01  -8.4840014e+00   7.6452443e-01   1.1407489e+01   2.8959524e+00  -1.9783460e+00  -2.9556987e+00   0.0000000e+00   0.0000000e+00   5.0000000e+01   0.0000000e+00
   5.5539993e+00   1.9814454e+00  -3.1204753e+00   4.0855314e+00   5.6581563e-01  -1.3642875e+01   2.5626364e+00   9.1196672e+00  -3.7048830e+00   4.2262452e+00  -2.0189386e+00   1.1370191e+01   1.0628483e+01  -1.9214486e+01  -7.7878223e+00   1.0302956e+00   1.2163959e+01   3.2681235e+00  -1.3891260e+00  -2.1235410e+00   0.0000000e+00   0.0000000e+00   5.0000000e+01   0.0000000e+00
   6.2874498e+00   2.5736681e+00  -2.3794838e+00   4.6471997e+00   8.4663591e-01  -1.4249451e+01   2.8992681e+00   9.5490690e+00  -3.6930855e+00   4.7330827e+00  -2.0752840e+00   1.1936465e+01   1.1395937e+01  -1.8856811e+01  -7.0679269e+00   1.2688990e+00   1.2479375e+01   3.2419175e+00  -1.0262742e+00  -1.6087768e+00   0.0000000e+00   0.0000000e+00   5.0000000e+01   0.0000000e+00
   6.5778249e+00   2.6115703e+00  -1.9332352e+00   5.0873990e+00   8.7353968e-01  -1.4119446e+01   3.2246603e+00   9.6343682e+00  -3.8159662e+00   4.8724103e+00  -2.2933187e+00   1.2096662e+01   1.1812904e+01  -1.9174676e+01  -6.7077188e+00   1.2007155e+00   1.2554348e+01   2.7606789e+00  -8.8355277e-01  -1.5695286e+00   0.0000000e+00   0.0000000e+00   5.0000000e+01   0.0000000e+00
   6.7174689e+00   2.3124692e+00  -1.4772950e+00   5.9170056e+00   8.9970550e-01  -1.3102390e+01   3.7222024e+00   9.4334729e+00  -3.8456086e+00   4.8104354e+00  -2.3317395e+00   1.2080714e+01   1.1893771e+01  -1.9543055e+01  -6.3537060e+00   1.1221955e+00   1.2901058e+01   2.6966946e+00  -5.9809924e-01  -1.4124530e+00   0.0000000e+00   0.0000000e+00   5.0000000e+01   0.0000000e+00
   7.0539105e+00   2.1254409e+00  -9.6461887e-01   7.3552859e+00   1.2305810e+00  -1.2167565e+01   4.2573471e+00   9.3117722e+00  -3.6188547e+00   5.1938531e+00  -2.1035677e+00   1.2236915e+01   1.1771441e+01  -1.9284234e+01  -5.8008746e+00   1.2768137e+00   1.3631013e+01   3.4436144e+00  -6.1923213e-02  -9.0935609e-01   0.0000000e+00   0.0000000e+00   5.0000000e+01   0.0000000e+00
   7.3927267e+00   2.1016835e+00  -6.5024119e-01   9.0605461e+00   1.8282229e+00  -1.1776139e+01   4.7132200e+00   9.3388142e+00  -3.3283446e+00   5.6615059e+00  -1.8250463e+00   1.2631257e+01   1.1440078e+01  -1.8540135e+01  -5.4043060e+00   1.4667488e+00   1.4392111e+01   4.2309885e+00   5.8037963e-01  -4.2361126e-01   0.0000000e+00   0.0000000e+00   5.0000000e+01   0.0000000e+00
   7.5916481e+00   2.2199422e+00  -4.1642860e-01   1.0620211e+01   2.3933470e+00  -1.1844963e+01   5.2364130e+00   9.3685509e+00  -3.0823974e+00   5.5411255e+00  -1.4740851e+00   1.3101470e+01   1.1178974e+01  -1.7497053e+01  -5.0458325e+00   1.6081922e+00   1.5014149e+01   4.5711445e+00   1.3973262e+00  -2.0204497e-01   0.0000000e+00   0.0000000e+00   5.0000000e+01   0.0000000e+00
   7.8551686e+00   2.8934512e+00  -7.1553268e-02   1.1774030e+01   2.7519239e+00  -1.2412228e+01   5.6592448e+00   9.1951758e+00  -2.8912110e+00   5.3184805e+00  -9.2592283e-01   1.3502852e+01   1.1152865e+01  -1.6808713e+01  -4.5822669e+00   1.6677098e+00   1.5562641e+01   4.8322113e+00   2.3123800e+00  -2.9086362e-01   0.0000000e+00   0.0000000e+00   5.0000000e+01   0.0000000e+00
   8.3095692e+00   4.2023475e+00   2.2892084e-01   1.2507849e+01   3.0938260e+00  -1.3343235e+01   5.7140726e+00   9.0491826e+00  -2.8338306e+00   5.6294615e+00  -4.2650751e-01   1.3772812e+01   1.1123385e+01  -1.6958387e+01  -4.2784233e+00   1.6161508e+00   1.6096701e+01   5.2547678e+00   3.0124826e+00  -5.2435730e-01   0.0000000e+00   0.0000000e+00   5.0000000e+01   0.0000000e+00
   8.6146678e+00   5.2229648e+00   2.6320714e-01   1.2774454e+01   3.4318671e+00  -1.4151710e+01   5.5355762e+00   9.1474674e+00  -2.9523387e+00   5.9776925e+00  -1.8146810e-01   1.3753191e+01   1.0881839e+01  -1.7560928e+01  -4.0809213e+00   2.1127144e+00   1.6478889e+01   5.4271123e+00   3.3522205e+00  -5.6637430e-01   0.0000000e+00   0.0000000e+00   5.0000000e+01   0.0000000e+00
   8.2202251e+00   5.3120661e+00   1.8602488e-01   1.2342587e+01   3.5413681e+00  -1.4499910e+01   5.2341233e+00   9.1171083e+00  -3.3508106e+00   5.9079562e+00  -1.3309655e-01   1.3284280e+01   1.0436033e+01  -1.7968376e+01  -3.8624214e+00   3.1274278e+00   1.6528687e+01   5.0777330e+00   3.2980141e+00  -5.8603189e-01   0.0000000e+00   0.0000000e+00   5.0000000e+01   0.0000000e+00
   6.9833977e+00   4.3015887e+00   7.4192226e-02   1.1237942e+01   2.9998472e+00  -1.4782270e+01   4.4886074e+00   8.5393895e+00  -3.9687800e+00   5.6172747e+00  -1.8524642e-01   1.2274505e+01   9.7888635e+00  -1.8229913e+01  -3.7258911e+00   3.5656088e+00   1.6083926e+01   4.5701041e+00   2.7086584e+00  -1.0328395e+00   0.0000000e+00   0.0000000e+00   5.0000000e+01   0.0000000e+00
   5.4529171e+00   2.8196970e+00  -3.8542472e-02   9.8190103e+00   1.7507336e+00  -1.5653293e+01   3.3475140e+00   7.8216355e+00  -4.5893869e+00   5.6424558e+00  -1.3912746e-01   1.0861985e+01   8.6913983e+00  -1.8966677e+01  -3.8515678e+00   3.3081065e+00   1.5102181e+01   4.2523076e+00   1.5503553e+00  -1.6137121e+00   0.0000000e+00   0.0000000e+00   5.0000000e+01   0.0000000e+00
   4.2259121e+00   1.5724591e+00  -1.6586719e-01   8.4626625e+00   3.1799520e-01  -1.7097389e+01   2.3891272e+00   7.6966255e+00  -5.2037834e+00   6.2749383e+00   2.1140273e-01   9.4680503e+00   7.2953014e+00  -1.9886867e+01  -4.1437752e+00   3.3995820e+00   1.3858001e+01   3.9863068e+00   2.5377854e-01  -1.6778621e+00   0.0000000e+00   0.0000000e+00   5.0000000e+01   0.0000000e+00
   3.6337829e+00   1.0228536e+00  -3.3497309e-01   7.5181477e+00  -7.2729668e-01  -1.8652133e+01   1.8525860e+00   8.1169906e+00  -5.7813251e+00   7.1488681e+00   8.7793018e-01   8.4641905e+00   6.2238792e+00  -2.0137073e+01  -4.2658033e+00   4.1990118e+00   1.2751758e+01   3.6731096e+00  -7.2625617e-01  -1.3160250e+00   0.0000000e+00   0.0000000e+00   5.0000000e+01   0.0000000e+00
   3.6956776e+00   1.5015755e+00  -2.8248850e-01   7.0941513e+00  -1.2078677e+00  -1.9745260e+01   1.5431278e+00   8.4176808e+00  -6.1856470e+00   7.2621485e+00   1.6941954e+00   7.7643960e+00   5.5125135e+00  -1.9781680e+01  -4.0832473e+00   4.9644736e+00   1.1991042e+01   3.5732549e+00  -1.3893061e+00  -1.0479498e+00   0.0000000e+00   0.0000000e+00   5.0000000e+01   0.0000000e+00
   4.2197735e+00   2.6851938e+00   1.7274221e-01   7.0058218e+00  -1.2712364e+00  -2.0166503e+01   1.3473678e+00   8.4742553e+00  -6.4282204e+00   6.5598462e+00   2.4299383e+00   7.1991220e+00   4.9316599e+00  -1.9460602e+01  -3.6502455e+00   5.3140322e+00   1.1524782e+01   3.8138287e+00  -1.8768396e+00  -1.1876332e+00   0.0000000e+00   0.0000000e+00   5.0000000e+01   0.0000000e+00
   4.7635025e+00   3.4826046e+00   7.2929601e-01   6.9902586e+00  -1.0010659e+00  -2.0102731e+01   1.3421452e+00   8.4726581e+00  -6.6664016e+00   6.0508137e+00   2.7478532e+00   6.6939066e+00   4.3386526e+00  -1.9508393e+01  -3.3934353e+00   5.3333170e+00   1.1100600e+01   3.8984976e+00  -2.2704401e+00  -1.8860080e+00   0.0000000e+00   0.0000000e+00   5.0000000e+01   0.0000000e+00
   5.1534066e+00   3.2490382e+00   1.3269337e+00   7.1911079e+00  -9.9026850e-02  -1.9129439e+01   1.6931137e+00   8.6013996e+00  -6.8288259e+00   5.8352712e+00   2.6423359e+00   6.4659292e+00   3.8182692e+00  -1.9526724e+01  -3.4714275e+00   5.0562464e+00   1.0902407e+01   3.6665555e+00  -2.3960248e+00  -2.9110228e+00   0.0000000e+00   0.0000000e+00   5.0000000e+01   0.0000000e+00
   5.5020081e+00   2.4522544e+00   2.0667154e+00   7.5998188e+00   1.1916891e+00  -1.7204281e+01   2.1498282e+00   8.9613077e+00  -6.7508872e+00   5.8862994e+00   2.4773888e+00   6.5242413e+00   3.7642059e+00  -1.9476525e+01  -3.5682290e+00   4.7739447e+00   1.1161008e+01   3.6798531e+00  -2.1503656e+00  -3.5807876e+00   0.0000000e+00   0.0000000e+00   5.0000000e+01   0.0000000e+00
   5.7835887e+00   2.1072388e+00   2.5750188e+00   8.0448974e+00   2.1164161e+00  -1.6168409e+01   2.1886659e+00   9.3892040e+00  -6.4330450e+00   6.4840939e+00   2.3818402e+00   6.5987183e+00   3.8638477e+00  -1.9838657e+01  -3.7040998e+00   4.8153315e+00   1.1420984e+01   4.0172269e+00  -1.9387352e+00  -3.5480237e+00   0.0000000e+00   0.0000000e+00   5.0000000e+01   0.0000000e+00
   5.6927843e+00   2.1424367e+00   2.3583887e+00   8.3366036e+00   2.4412375e+00  -1.6766177e+01   1.7885018e+00   9.6178707e+00  -6.1304703e+00   6.9434750e+00   2.2933780e+00   6.5160466e+00   3.4227909e+00  -2.0816002e+01  -4.1071357e+00   5.2725937e+00   1.1143847e+01   3.8750241e+00  -2.1152974e+00  -3.0066940e+00   0.0000000e+00   0.0000000e+00   5.0000000e+01   0.0000000e+00
   5.3048551e+00   2.1055211e+00   1.4689387e+00   8.4227450e+00   2.4684875e+00  -1.8043623e+01   1.3184786e+00   9.5290001e+00  -5.9551738e+00   6.9159928e+00   2.1575780e+00   6.3648973e+00   2.7029055e+00  -2.1879989e+01  -4.6099643e+00   5.6238618e+00   1.0593634e+01   2.9781834e+00  -2.5397560e+00  -2.2157378e+00   0.0000000e+00   0.0000000e+00   5.0000000e+01   0.0000000e+00
   5.2244660e+00   2.3533837e+00   7.2271287e-01   8.3617569e+00   2.4078035e+00  -1.9086937e+01   9.5581380e-01   9.2715415e+00  -5.7104203e+00   6.9662841e+00   2.1131411e+00   6.2515535e+00   2.2048632e+00  -2.2320553e+01  -4.8181819e+00   5.4195063e+00   1.0336944e+01   2.1596657e+00  -2.9327068e+00  -1.2651781e+00   0.0000000e+00   0.0000000e+00   5.0000000e+01   0.0000000e+00
   5.6447856e+00   2.6346604e+00   5.7876917e-01   8.4291789e+00   2.7043180e+00  -1.8820249e+01   9.8701528e-01   9.3281537e+00  -5.2918847e+00   7.5993751e+00   2.4368613e+00   6.1354847e+00   2.0864696e+00  -2.1951259e+01  -4.3342537e+00   5.6206986e+00   1.0612293e+01   2.2237515e+00  -2.9969861e+00   1.4239761e-01   0.0000000e+00   0.0000000e+00   5.0000000e+01   0.0000000e+00
   6.4042820e+00   2.6264156e+00   9.4133212e-01   8.7677452e+00   3.5188708e+00  -1.7392495e+01   1.3120422e+00   9.6828225e+00  -4.9831239e+00   8.5137939e+00   2.9644227e+00   5.9129014e+00   2.1391862e+00  -2.1499622e+01  -3.3985047e+00   6.8078349e+00   1.1059788e+01   2.7008277e+00  -2.8683078e+00   1.5763345e+00   0.0000000e+00   0.0000000e+00   5.0000000e+01   0.0000000e+00
   7.5179518e+00   3.0542668e+00   1.2310527e+00   9.5828571e+00   4.8691318e+00  -1.5617565e+01   1.7391562e+00   9.9732792e+00  -4.9324200e+00   9.0882347e+00   3.3021977e+00   5.8763030e+00   2.2485471e+00  -2.1418662e+01  -2.5947708e+00   7.9678993e+00   1.1600591e+01   2.9790902e+00  -2.8522629e+00   2.1776660e+00   0.0000000e+00   0.0000000e+00   5.0000000e+01   0.0000000e+00
   8.7837784e+00   4.5414893e+00   1.3293599e+00   1.0796897e+01   6.5790349e+00  -1.3769840e+01   2.1417238e+00   1.0038892e+01  -5.0613955e+00   8.6964271e+00   3.2681156e+00   6.1023714e+00   2.7977038e+00  -2.1805221e+01  -2.2055335e+00   8.2764313e+00   1.2436377e+01   3.3716670e+00  -2.9869180e+00   1.9339421e+00   0.0000000e+00   0.0000000e+00   5.0000000e+01   0.0000000e+00
   9.9187402e+00   6.6231491e+00   1.4673147e+00   1.1943352e+01   8.4114776e+00  -1.2317384e+01   2.4280489e+00   9.9309547e+00  -5.2298141e+00   7.7033538e+00   2.8606355e+00   6.3825242e+00   3.6891547e+00  -2.2929571e+01  -2.3912856e+00   7.6553676e+00   1.3387880e+01   4.0241891e+00  -3.3333890e+00   1.1467978e+00   0.0000000e+00   0.0000000e+00   5.0000000e+01   0.0000000e+00
   1.0572209e+01   8.2166296e+00   1.4060924e+00   1.2853185e+01   1.0190853e+01  -1.1330290e+01   2.7008313e+00   9.7051837e+00  -5.2944761e+00   6.8763586e+00   2.0963994e+00   6.6768896e+00   4.3867615e+00  -2.4482199e+01  -3.1870461e+00   6.2259493e+00   1.4074273e+01   4.2775662e+00  -3.9510339e+00  -1.7614999e-01   0.0000000e+00   0.0000000e+00   5.0000000e+01   0.0000000e+00
   1.0596911e+01   8.7752352e+00   1.1775379e+00   1.3539147e+01   1.1541500e+01  -1.0580733e+01   3.1569107e+00   9.5031204e+00  -5.1057620e+00   6.3833522e+00   1.1380749e+00   7.0256101e+00   4.9812328e+00  -2.5853641e+01  -4.1622121e+00   4.5069769e+00   1.4341435e+01   3.8519370e+00  -4.5322847e+00  -1.7177280e+00   0.0000000e+00   0.0000000e+00   5.0000000e+01   0.0000000e+00
   1.0494343e+01   8.9983948e+00   1.0155747e+00   1.3990650e+01   1.2292360e+01  -1.0527878e+01   3.5960175e+00   9.3555899e+00  -4.5822887e+00   6.0145004e+00   3.5293714e-01   7.3355923e+00   5.5784116e+00  -2.6736457e+01  -4.7535038e+00   3.4489127e+00   1.4316533e+01   3.4851203e+00  -4.7457294e+00  -2.6734058e+00   0.0000000e+00   0.0000000e+00   5.0000000e+01   0.0000000e+00
   1.0625383e+01   9.2082351e+00   1.1040190e+00   1.4233042e+01   1.2470542e+01  -1.1178858e+01   3.9406319e+00   9.4463225e+00  -3.9535814e+00   5.9457999e+00  -7.9678776e-03   7.5751911e+00   6.1183018e+00  -2.6871010e+01  -4.7915738e+00   3.4709884e+00   1.4155052e+01   3.7511918e+00  -4.6515706e+00  -2.5847490e+00   0.0000000e+00   0.0000000e+00   5.0000000e+01   0.0000000e+00
   1.0614435e+01   9.0343133e+00   1.0742077e+00   1.4242441e+01   1.2313818e+01  -1.2063977e+01   4.0643697e+00   9.7628823e+00  -3.6255815e+00   5.8341895e+00  -5.4192184e-02   7.6441143e+00   6.3075870e+00  -2.6182311e+01  -4.4032055e+00   3.9629249e+00   1.3817748e+01   4.0847113e+00  -4.5956394e+00  -1.8573137e+00   0.0000000e+00   0.0000000e+00   5.0000000e+01   0.0000000e+00
   1.0354927e+01   8.9086467e+00   7.9339871e-01   1.4224524e+01   1.2343002e+01  -1.2397401e+01   3.9236474e+00   9.8984648e+00  -3.7052270e+00   5.2268713e+00  -5.2272369e-03   7.5366546e+00   6.1432785e+00  -2.5158855e+01  -3.7519252e+00   4.1842947e+00   1.3481113e+01   4.1219921e+00  -4.6922871e+00  -1.1224776e+00   0.0000000e+00   0.0000000e+00   5.0000000e+01   0.0000000e+00
   1.0436782e+01   9.8640958e+00   6.3167202e-01   1.4382612e+01   1.2540738e+01  -1.2483565e+01   3.6458334e+00   9.6605892e+00  -3.9457789e+00   4.6412424e+00  -5.7413169e-02   7.3821951e+00   6.1822125e+00  -2.4643845e+01  -3.0643967e+00   3.9154330e+00   1.3335353e+01   4.3538636e+00  -4.8065466e+00  -5.2588609e-01   0.0000000e+00   0.0000000e+00   5.0000000e+01   0.0000000e+00
   1.0975527e+01   1.1400532e+01   7.7083974e-01   1.4770448e+01   1.3131154e+01  -1.2402289e+01   3.4786356e+00   9.2432582e+00  -4.0032680e+00   4.4760934e+00  -2.6516329e-01   7.3867129e+00   6.5333778e+00  -2.4499602e+01  -2.4418873e+00   3.3605060e+00   1.3653463e+01   5.0906449e+00  -4.7050760e+00   2.0002962e-02   0.0000000e+00   0.0000000e+00   5.0000000e+01   0.0000000e+00
   1.1547062e+01   1.2274455e+01   8.2002446e-01   1.5410711e+01   1.4404189e+01  -1.1455835e+01   3.6969831e+00   8.9140169e+00  -3.7834668e+00   4.9950513e+00  -5.9149381e-01   7.6573368e+00   6.9818863e+00  -2.4295322e+01  -1.9735076e+00   2.9728213e+00   1.4525330e+01   5.9000120e+00  -4.3141589e+00   5.6587568e-01   0.0000000e+00   0.0000000e+00   5.0000000e+01   0.0000000e+00
   1.2255586e+01   1.2482069e+01   6.7131463e-01   1.6235571e+01   1.5848680e+01  -1.0223155e+01   4.3953790e+00   8.9344066e+00  -3.3895504e+00   6.0728314e+00  -8.9993527e-01   8.1614378e+00   7.6777280e+00  -2.3941097e+01  -1.5751578e+00   3.5842910e+00   1.5625891e+01   6.4238167e+00  -3.7259036e+00   1.5087390e+00   0.0000000e+00   0.0000000e+00   5.0000000e+01   0.0000000e+00
   1.3148369e+01   1.1839621e+01   5.1448932e-01   1.6947114e+01   1.7113225e+01  -9.1373093e+00   5.2972787e+00   9.0798063e+00  -2.9232047e+00   6.6256300e+00  -1.0503187e+00   8.7317075e+00   8.6257303e+00  -2.3504380e+01  -1.1022504e+00   4.7607817e+00   1.6667042e+01   6.7994873e+00  -3.1795253e+00   2.7753675e+00   0.0000000e+00   0.0000000e+00   5.0000000e+01   0.0000000e+00
   1.3805022e+01   1.0478752e+01   3.1841898e-01   1.7168003e+01   1.7803342e+01  -8.7441258e+00   5.7720364e+00   9.1849151e+00  -2.4979400e+00   6.5373421e+00  -1.2104137e+00   9.0663704e+00   9.1243185e+00  -2.3293773e+01  -8.7958272e-01   5.0355505e+00   1.7211225e+01   6.9592708e+00  -3.2770090e+00   3.6478819e+00   0.0000000e+00   0.0000000e+00   5.0000000e+01   0.0000000e+00
   1.3735958e+01   9.0974027e+00   1.5571242e-01   1.6750655e+01   1.7785716e+01  -8.9009290e+00   5.5803832e+00   9.3572944e+00  -2.3434469e+00   6.2227693e+00  -1.4997045e+00   9.0565849e+00   8.8581650e+00  -2.3263832e+01  -9.5540084e-01   4.5909263e+00   1.7036955e+01   6.5177662e+00  -4.1810890e+00   3.9887022e+00   0.0000000e+00   0.0000000e+00   5.0000000e+01   0.0000000e+00
   1.2983291e+01   7.9786142e+00  -1.9458266e-01   1.6092348e+01   1.7486133e+01  -8.7462537e+00   5.0239570e+00   9.4268383e+00  -2.4771446e+00   5.9519090e+00  -1.7585161e+00   8.8131243e+00   8.3871489e+00  -2.3408055e+01  -9.2424729e-01   4.1914718e+00   1.6454639e+01   5.5049340e+00  -5.3533670e+00   4.0565290e+00   0.0000000e+00   0.0000000e+00   5.0000000e+01   0.0000000e+00
   1.2176761e+01   7.0454932e+00  -5.4566406e-01   1.5525033e+01   1.7069972e+01  -8.7059766e+00   4.4433114e+00   9.4668118e+00  -2.7114492e+00   6.0703929e+00  -1.8050095e+00   8.2424147e+00   8.0638799e+00  -2.3660524e+01  -6.6976699e-01   4.0144936e+00   1.5750765e+01   4.5674125e+00  -6.2476995e+00   4.1540189e+00   0.0000000e+00   0.0000000e+00   5.0000000e+01   0.0000000e+00
   1.1670793e+01   6.2957087e+00  -2.9569216e-01   1.4946071e+01   1.6521454e+01  -8.9596034e+00   4.2546094e+00   9.6175979e+00  -2.8508123e+00   6.7422304e+00  -1.5856355e+00   7.6195820e+00   7.8731645e+00  -2.4111332e+01  -5.2584586e-01   3.9987386e+00   1.5000126e+01   4.2059537e+00  -6.6617848e+00   4.3705646e+00   0.0000000e+00   0.0000000e+00   5.0000000e+01   0.0000000e+00
   1.1367549e+01   5.8442969e+00   4.9387377e-01   1.4151720e+01   1.5572815e+01  -9.6355297e+00   4.5283262e+00   9.8084376e+00  -3.0148239e+00   7.3771536e+00  -1.2528574e+00   7.0071879e+00   7.4772904e+00  -2.4761360e+01  -8.4634136e-01   4.0228503e+00   1.4005450e+01   4.0322189e+00  -6.8760698e+00   4.4707804e+00   0.0000000e+00   0.0000000e+00   5.0000000e+01   0.0000000e+00
   1.1076519e+01   5.7265689e+00   1.4938472e+00   1.3128151e+01   1.4178398e+01  -1.0816918e+01   4.8097312e+00   1.0048858e+01  -3.4651477e+00   7.2623019e+00  -9.6355676e-01   6.2783709e+00   6.7558702e+00  -2.5459941e+01  -1.4692959e+00   4.1135805e+00   1.2727095e+01   3.6202211e+00  -7.1723573e+00   4.3413715e+00   0.0000000e+00   0.0000000e+00   5.0000000e+01   0.0000000e+00
   1.0606300e+01   5.8193495e+00   2.4559996e+00   1.1755808e+01   1.2554373e+01  -1.1913217e+01   4.7944981e+00   1.0178117e+01  -4.1673665e+00   6.6377770e+00  -7.1928209e-01   5.3914045e+00   5.9401442e+00  -2.6396530e+01  -2.0379530e+00   4.1180105e+00   1.1374714e+01   3.2008410e+00  -7.5617375e+00   4.1276285e+00   0.0000000e+00   0.0000000e+00   5.0000000e+01   0.0000000e+00
   9.7575218e+00   5.8445621e+00   3.2896283e+00   9.8582533e+00   1.1137307e+01  -1.1957555e+01   4.7892305e+00   1.0401723e+01  -4.9031427e+00   5.8375751e+00  -2.9952137e-01   4.2493558e+00   5.2511121e+00  -2.7174404e+01  -2.3263860e+00   4.1816565e+00   1.0259408e+01   3.0681363e+00  -7.7588240e+00   4.2759726e+00   0.0000000e+00   0.0000000e+00   5.0000000e+01   0.0000000e+00
