nt = 6600
nc = 21
channels = F7 T3 T5 Fp1 F3 C3 P3 O1 F8 T4 T6 Fp2 F4 C4 P4 O2 Fz Cz Pz Oz TR
ne = 20
run_type = nonBio
fsmp = 600.0000000000
orig.file = s1_bl1
orig.sample_range = 25742 32341
orig.fsmp = 600
orig.subject = 1
orig.run = 5
   7.2925859e+00  -1.1668137e+00  -5.8340687e+00   1.4585172e+01  -3.2087378e+00  -1.1959841e+01  -1.4293468e+01  -4.6672549e+00   2.2169461e+01  -1.8960723e+01  -2.9170343e-01  -7.0008824e+00  -2.1877758e+01  -2.3627978e+01  -6.7091790e+00   1.6335392e+01  -9.0428065e+00  -1.1376434e+01  -8.7511030e+00   3.2087378e+00   0.0000000e+00
   1.0501324e+01   5.8340687e-01  -4.3755515e+00   1.2251544e+01  -1.4585172e+00  -1.3126655e+01  -1.3126655e+01  -6.1257721e+00   2.3627978e+01  -1.9835834e+01   8.7511030e-01  -9.0428065e+00  -1.6043689e+01  -2.3336275e+01  -5.5423652e+00   1.6627096e+01  -8.7511030e+00  -7.8759927e+00  -6.1257721e+00   7.0008824e+00   0.0000000e+00
   1.2834951e+01  -4.0838481e+00  -6.7091790e+00   6.1257721e+00  -8.7511030e-01  -1.7210503e+01  -1.3710061e+01  -7.5842893e+00   2.0419240e+01  -2.1877758e+01  -5.8340687e-01  -1.1668137e+01  -1.7210503e+01  -2.2169461e+01  -5.8340687e+00   1.6043689e+01  -1.1668137e+01  -8.7511030e+00  -7.0008824e+00   7.2925859e+00   0.0000000e+00
   1.4293468e+01  -1.3418358e+01  -1.2251544e+01   5.8340687e-01  -1.1668137e+00  -2.3044571e+01  -1.5460282e+01  -8.7511030e+00   1.4585172e+01  -2.4503088e+01  -3.5004412e+00  -1.4001765e+01  -2.4211385e+01  -1.9544130e+01  -7.0008824e+00   1.4876875e+01  -1.5751985e+01  -1.2834951e+01  -1.1084730e+01   4.9589584e+00   0.0000000e+00
   1.5168579e+01  -2.4211385e+01  -1.8669020e+01  -1.4585172e+00  -1.7502206e+00  -2.7711826e+01  -1.7210503e+01  -9.9179168e+00   8.7511030e+00  -2.6836716e+01  -6.7091790e+00  -1.6043689e+01  -3.3545895e+01  -1.6335392e+01  -8.1676962e+00   1.3710061e+01  -1.9544130e+01  -1.8669020e+01  -1.6627096e+01   1.4585172e+00   0.0000000e+00
   1.5460282e+01  -3.3254191e+01  -2.4503088e+01   8.7511030e-01  -2.0419240e+00  -2.9170343e+01  -1.8085613e+01  -1.1376434e+01   4.9589584e+00  -2.8003530e+01  -8.7511030e+00  -1.8377316e+01  -4.1130184e+01  -1.2834951e+01  -8.4593996e+00   1.2834951e+01  -2.0710944e+01  -2.3627978e+01  -2.1877758e+01  -2.0419240e+00   0.0000000e+00
   1.4585172e+01  -3.6754633e+01  -2.7711826e+01   4.6672549e+00  -1.7502206e+00  -2.6836716e+01  -1.8085613e+01  -1.3126655e+01   4.6672549e+00  -2.8295233e+01  -8.1676962e+00  -2.0127537e+01  -4.3463812e+01  -1.0501324e+01  -8.1676962e+00   1.2251544e+01  -1.8960723e+01  -2.6253309e+01  -2.4503088e+01  -3.7921446e+00   0.0000000e+00
   1.3126655e+01  -3.3837598e+01  -2.8003530e+01   6.4174756e+00  -1.7502206e+00  -2.0710944e+01  -1.6335392e+01  -1.5751985e+01   8.1676962e+00  -2.6253309e+01  -5.2506618e+00  -2.0419240e+01  -3.9088260e+01  -1.0501324e+01  -6.4174756e+00   1.2251544e+01  -1.4585172e+01  -2.5086495e+01  -2.3336275e+01  -2.6253309e+00   0.0000000e+00
   1.2543248e+01  -2.5961606e+01  -2.5669902e+01   4.0838481e+00  -2.9170343e+00  -1.3418358e+01  -1.4001765e+01  -1.9252427e+01   1.4293468e+01  -2.1586054e+01  -8.7511030e-01  -1.9252427e+01  -2.9462047e+01  -1.2834951e+01  -4.3755515e+00   1.2834951e+01  -9.0428065e+00  -2.0419240e+01  -1.8669020e+01   8.7511030e-01   0.0000000e+00
   1.2834951e+01  -1.6335392e+01  -2.1877758e+01  -1.4585172e+00  -6.1257721e+00  -7.2925859e+00  -1.1668137e+01  -2.3627978e+01   2.0419240e+01  -1.5460282e+01   3.2087378e+00  -1.7210503e+01  -1.8377316e+01  -1.7210503e+01  -2.6253309e+00   1.3126655e+01  -4.9589584e+00  -1.4001765e+01  -1.1959841e+01   5.2506618e+00   0.0000000e+00
   1.2834951e+01  -9.6262133e+00  -1.8669020e+01  -7.0008824e+00  -9.9179168e+00  -4.3755515e+00  -1.0209620e+01  -2.6545013e+01   2.3627978e+01  -9.9179168e+00   5.8340687e+00  -1.6043689e+01  -9.6262133e+00  -2.1294351e+01  -2.0419240e+00   1.3126655e+01  -3.2087378e+00  -8.4593996e+00  -5.5423652e+00   9.3345099e+00   0.0000000e+00
   1.1376434e+01  -8.4593996e+00  -1.6627096e+01  -9.9179168e+00  -1.2543248e+01  -4.0838481e+00  -1.0209620e+01  -2.7128419e+01   2.1294351e+01  -7.5842893e+00   6.1257721e+00  -1.6043689e+01  -5.8340687e+00  -2.3627978e+01  -2.3336275e+00   1.2834951e+01  -4.6672549e+00  -5.5423652e+00  -1.7502206e+00   1.1668137e+01   0.0000000e+00
   7.0008824e+00  -1.3710061e+01  -1.6627096e+01  -9.3345099e+00  -1.3418358e+01  -7.0008824e+00  -1.1668137e+01  -2.5086495e+01   1.4001765e+01  -9.6262133e+00   4.0838481e+00  -1.7793909e+01  -8.1676962e+00  -2.3044571e+01  -3.5004412e+00   1.2543248e+01  -8.4593996e+00  -6.4174756e+00  -2.0419240e+00   1.1376434e+01   0.0000000e+00
   5.8340687e-01  -2.3919682e+01  -1.8960723e+01  -7.5842893e+00  -1.1959841e+01  -1.1084730e+01  -1.4876875e+01  -2.1294351e+01   3.5004412e+00  -1.5751985e+01   0.0000000e+00  -2.0419240e+01  -1.6043689e+01  -2.0419240e+01  -5.2506618e+00   1.1959841e+01  -1.3418358e+01  -1.1376434e+01  -6.4174756e+00   8.4593996e+00   0.0000000e+00
  -6.1257721e+00  -3.4712709e+01  -2.2461164e+01  -6.4174756e+00  -8.1676962e+00  -1.5168579e+01  -1.8669020e+01  -1.6918799e+01  -6.1257721e+00  -2.2461164e+01  -4.0838481e+00  -2.2752868e+01  -2.5961606e+01  -1.6335392e+01  -7.2925859e+00   1.1959841e+01  -1.7793909e+01  -1.7793909e+01  -1.3418358e+01   4.3755515e+00   0.0000000e+00
  -1.0501324e+01  -4.3463812e+01  -2.5961606e+01  -8.1676962e+00  -4.3755515e+00  -1.8085613e+01  -2.2461164e+01  -1.2834951e+01  -1.2834951e+01  -2.7420123e+01  -7.8759927e+00  -2.4503088e+01  -3.4421005e+01  -1.3126655e+01  -9.0428065e+00   1.1959841e+01  -2.0419240e+01  -2.4211385e+01  -2.0710944e+01   2.9170343e-01   0.0000000e+00
  -1.1084730e+01  -4.6089143e+01  -2.7711826e+01  -1.1376434e+01  -2.0419240e+00  -1.8669020e+01  -2.4503088e+01  -9.0428065e+00  -1.4293468e+01  -2.8878640e+01  -9.0428065e+00  -2.4794792e+01  -3.7629743e+01  -1.1376434e+01  -9.9179168e+00   1.2251544e+01  -2.0419240e+01  -2.7711826e+01  -2.5378199e+01  -1.4585172e+00   0.0000000e+00
  -8.1676962e+00  -4.1713591e+01  -2.6253309e+01  -1.4876875e+01  -2.3336275e+00  -1.6627096e+01  -2.4503088e+01  -4.6672549e+00  -1.1376434e+01  -2.7128419e+01  -7.8759927e+00  -2.4503088e+01  -3.3545895e+01  -1.1668137e+01  -9.3345099e+00   1.2834951e+01  -1.7210503e+01  -2.7128419e+01  -2.5378199e+01   2.9170343e-01   0.0000000e+00
  -3.2087378e+00  -3.1795674e+01  -2.2169461e+01  -1.7502206e+01  -5.8340687e+00  -1.2834951e+01  -2.2461164e+01  -8.7511030e-01  -4.9589584e+00  -2.3919682e+01  -4.3755515e+00  -2.4503088e+01  -2.4211385e+01  -1.3710061e+01  -8.1676962e+00   1.4001765e+01  -1.2543248e+01  -2.2752868e+01  -2.1002647e+01   4.9589584e+00   0.0000000e+00
   2.0419240e+00  -1.8960723e+01  -1.6335392e+01  -1.8085613e+01  -1.0793027e+01  -8.7511030e+00  -1.9252427e+01   1.7502206e+00   2.9170343e+00  -2.0419240e+01   5.8340687e-01  -2.4503088e+01  -1.2251544e+01  -1.6335392e+01  -6.1257721e+00   1.6043689e+01  -7.5842893e+00  -1.5751985e+01  -1.3418358e+01   1.1376434e+01   0.0000000e+00
   4.6672549e+00  -8.4593996e+00  -1.1668137e+01  -1.6918799e+01  -1.6043689e+01  -6.7091790e+00  -1.6918799e+01   2.0419240e+00   8.7511030e+00  -1.8960723e+01   3.7921446e+00  -2.4503088e+01  -4.0838481e+00  -2.0127537e+01  -5.5423652e+00   1.7502206e+01  -4.9589584e+00  -9.6262133e+00  -7.0008824e+00   1.6627096e+01   0.0000000e+00
   5.5423652e+00  -3.2087378e+00  -8.7511030e+00  -1.2251544e+01  -1.9544130e+01  -6.7091790e+00  -1.5168579e+01   1.4585172e+00   1.1959841e+01  -1.8960723e+01   5.5423652e+00  -2.3336275e+01  -1.7502206e+00  -2.2752868e+01  -5.2506618e+00   1.9252427e+01  -4.6672549e+00  -5.5423652e+00  -2.9170343e+00   2.0127537e+01   0.0000000e+00
   3.5004412e+00  -5.8340687e+00  -9.3345099e+00  -4.9589584e+00  -2.1877758e+01  -1.0209620e+01  -1.6043689e+01  -5.8340687e-01   1.0793027e+01  -2.1002647e+01   3.5004412e+00  -2.1294351e+01  -7.8759927e+00  -2.4503088e+01  -6.7091790e+00   1.9544130e+01  -8.1676962e+00  -5.5423652e+00  -4.0838481e+00   1.9252427e+01   0.0000000e+00
   8.7511030e-01  -1.4293468e+01  -1.2834951e+01   4.3755515e+00  -2.1877758e+01  -1.4876875e+01  -1.8377316e+01  -2.0419240e+00   6.7091790e+00  -2.4211385e+01  -5.8340687e-01  -1.8377316e+01  -1.9544130e+01  -2.4211385e+01  -8.4593996e+00   1.8960723e+01  -1.2834951e+01  -9.3345099e+00  -9.3345099e+00   1.5460282e+01   0.0000000e+00
  -1.1668137e+00  -2.5086495e+01  -1.8085613e+01   1.4293468e+01  -2.1294351e+01  -1.9835834e+01  -2.1877758e+01  -2.9170343e+00   1.4585172e+00  -2.8003530e+01  -5.8340687e+00  -1.5751985e+01  -3.3545895e+01  -2.2461164e+01  -1.0501324e+01   1.7502206e+01  -1.7502206e+01  -1.5460282e+01  -1.6918799e+01   9.3345099e+00   0.0000000e+00
  -1.1668137e+00  -3.2670785e+01  -2.3044571e+01   2.1877758e+01  -1.9835834e+01  -2.3919682e+01  -2.5086495e+01  -4.3755515e+00  -2.3336275e+00  -3.1212267e+01  -1.0501324e+01  -1.4001765e+01  -4.4630625e+01  -2.0710944e+01  -1.2251544e+01   1.5460282e+01  -2.0419240e+01  -2.1877758e+01  -2.4211385e+01   3.2087378e+00   0.0000000e+00
   2.0419240e+00  -3.3545895e+01  -2.6253309e+01   2.4794792e+01  -1.6918799e+01  -2.5961606e+01  -2.7711826e+01  -6.7091790e+00  -2.6253309e+00  -3.2962488e+01  -1.3126655e+01  -1.2543248e+01  -4.9589584e+01  -1.9835834e+01  -1.3126655e+01   1.3710061e+01  -2.0710944e+01  -2.5669902e+01  -2.8295233e+01  -1.1668137e+00   0.0000000e+00
   8.1676962e+00  -2.6836716e+01  -2.5669902e+01   2.3044571e+01  -1.0793027e+01  -2.5086495e+01  -2.7711826e+01  -9.0428065e+00   5.8340687e-01  -3.1795674e+01  -1.2543248e+01  -1.1084730e+01  -4.7255956e+01  -2.0127537e+01  -1.2543248e+01   1.2834951e+01  -1.7502206e+01  -2.5378199e+01  -2.8003530e+01  -2.3336275e+00   0.0000000e+00
   1.5460282e+01  -1.5460282e+01  -2.2752868e+01   1.5751985e+01  -2.6253309e+00  -2.2752868e+01  -2.6253309e+01  -1.1959841e+01   6.1257721e+00  -2.8586937e+01  -1.0209620e+01  -9.9179168e+00  -3.8796557e+01  -2.1586054e+01  -1.1084730e+01   1.1959841e+01  -1.2834951e+01  -2.1586054e+01  -2.4211385e+01  -5.8340687e-01   0.0000000e+00
   2.2169461e+01  -2.9170343e+00  -1.7793909e+01   5.2506618e+00   5.5423652e+00  -1.9252427e+01  -2.3627978e+01  -1.4001765e+01   1.2543248e+01  -2.3919682e+01  -7.0008824e+00  -9.6262133e+00  -2.7420123e+01  -2.3044571e+01  -9.3345099e+00   1.1668137e+01  -7.8759927e+00  -1.5751985e+01  -1.8085613e+01   2.9170343e+00   0.0000000e+00
   2.5669902e+01   5.8340687e+00  -1.4001765e+01  -6.7091790e+00   1.0793027e+01  -1.6627096e+01  -2.1294351e+01  -1.5460282e+01   1.7210503e+01  -2.0127537e+01  -4.6672549e+00  -1.0209620e+01  -1.8085613e+01  -2.4503088e+01  -8.1676962e+00   1.0793027e+01  -4.6672549e+00  -1.0209620e+01  -1.3418358e+01   6.4174756e+00   0.0000000e+00
   2.5669902e+01   8.1676962e+00  -1.2543248e+01  -1.7210503e+01   1.1959841e+01  -1.5751985e+01  -2.0127537e+01  -1.6335392e+01   1.7793909e+01  -1.8669020e+01  -4.0838481e+00  -1.1376434e+01  -1.4293468e+01  -2.5086495e+01  -7.8759927e+00   9.9179168e+00  -4.0838481e+00  -7.2925859e+00  -1.1376434e+01   7.8759927e+00   0.0000000e+00
   2.1877758e+01   3.2087378e+00  -1.4293468e+01  -2.4503088e+01   9.3345099e+00  -1.6918799e+01  -2.0710944e+01  -1.7793909e+01   1.3710061e+01  -1.9835834e+01  -6.1257721e+00  -1.2543248e+01  -1.7210503e+01  -2.4503088e+01  -9.3345099e+00   8.1676962e+00  -6.4174756e+00  -8.4593996e+00  -1.4001765e+01   6.1257721e+00   0.0000000e+00
   1.6043689e+01  -6.7091790e+00  -1.8377316e+01  -2.6253309e+01   6.1257721e+00  -1.8669020e+01  -2.2752868e+01  -1.8669020e+01   6.7091790e+00  -2.1294351e+01  -9.3345099e+00  -1.3126655e+01  -2.5669902e+01  -2.2461164e+01  -1.1084730e+01   7.2925859e+00  -1.0209620e+01  -1.2834951e+01  -1.9544130e+01   2.0419240e+00   0.0000000e+00
   9.9179168e+00  -1.9544130e+01  -2.3336275e+01  -2.3044571e+01   4.3755515e+00  -2.0710944e+01  -2.5669902e+01  -1.9835834e+01  -1.1668137e+00  -2.1294351e+01  -1.3126655e+01  -1.4585172e+01  -3.6462929e+01  -2.0127537e+01  -1.3418358e+01   6.4174756e+00  -1.4293468e+01  -1.9544130e+01  -2.6545013e+01  -3.2087378e+00   0.0000000e+00
   5.5423652e+00  -3.1503971e+01  -2.6836716e+01  -1.6043689e+01   4.6672549e+00  -2.0710944e+01  -2.8295233e+01  -2.0419240e+01  -6.1257721e+00  -1.9544130e+01  -1.6043689e+01  -1.6918799e+01  -4.5505736e+01  -1.7502206e+01  -1.4876875e+01   6.4174756e+00  -1.6335392e+01  -2.5378199e+01  -3.2087378e+01  -7.5842893e+00   0.0000000e+00
   3.5004412e+00  -3.9671667e+01  -2.8003530e+01  -8.7511030e+00   5.5423652e+00  -1.8085613e+01  -2.9462047e+01  -2.1294351e+01  -6.7091790e+00  -1.7502206e+01  -1.7210503e+01  -2.0710944e+01  -4.9881287e+01  -1.6335392e+01  -1.5168579e+01   6.7091790e+00  -1.5751985e+01  -2.8878640e+01  -3.4712709e+01  -9.9179168e+00   0.0000000e+00
   3.5004412e+00  -4.2296998e+01  -2.6253309e+01  -4.3755515e+00   4.6672549e+00  -1.2543248e+01  -2.8586937e+01  -2.1586054e+01  -2.3336275e+00  -1.6627096e+01  -1.5460282e+01  -2.5378199e+01  -4.7547660e+01  -1.5460282e+01  -1.3418358e+01   7.2925859e+00  -1.1959841e+01  -2.8295233e+01  -3.2670785e+01  -9.0428065e+00   0.0000000e+00
   4.3755515e+00  -3.9379964e+01  -2.2169461e+01  -4.6672549e+00   1.1668137e+00  -5.8340687e+00  -2.5961606e+01  -2.1877758e+01   4.9589584e+00  -1.7502206e+01  -1.1959841e+01  -3.0337157e+01  -3.9088260e+01  -1.6627096e+01  -1.1084730e+01   7.8759927e+00  -7.2925859e+00  -2.4794792e+01  -2.7711826e+01  -5.5423652e+00   0.0000000e+00
   5.8340687e+00  -3.2670785e+01  -1.7210503e+01  -9.0428065e+00  -4.0838481e+00   5.8340687e-01  -2.2752868e+01  -2.1877758e+01   1.2543248e+01  -1.8669020e+01  -7.5842893e+00  -3.5004412e+01  -2.8003530e+01  -1.8377316e+01  -8.1676962e+00   8.7511030e+00  -2.3336275e+00  -1.9252427e+01  -2.1294351e+01  -5.8340687e-01   0.0000000e+00
   7.5842893e+00  -2.5086495e+01  -1.2251544e+01  -1.4585172e+01  -8.7511030e+00   4.9589584e+00  -2.0127537e+01  -2.1002647e+01   1.8085613e+01  -1.8377316e+01  -3.7921446e+00  -3.8504853e+01  -1.7793909e+01  -2.0419240e+01  -6.1257721e+00   1.0209620e+01   1.1668137e+00  -1.3126655e+01  -1.6335392e+01   4.3755515e+00   0.0000000e+00
   8.4593996e+00  -2.0127537e+01  -8.4593996e+00  -1.8085613e+01  -1.1376434e+01   5.8340687e+00  -1.8377316e+01  -1.8085613e+01   1.9544130e+01  -1.6918799e+01  -1.4585172e+00  -3.9379964e+01  -1.1959841e+01  -2.1294351e+01  -5.2506618e+00   1.1959841e+01   2.3336275e+00  -9.0428065e+00  -1.4585172e+01   8.1676962e+00   0.0000000e+00
   8.1676962e+00  -1.9835834e+01  -7.5842893e+00  -1.8960723e+01  -1.1959841e+01   3.5004412e+00  -1.8377316e+01  -1.4001765e+01   1.6335392e+01  -1.6335392e+01  -1.7502206e+00  -3.7921446e+01  -1.2834951e+01  -2.0419240e+01  -5.2506618e+00   1.3418358e+01   8.7511030e-01  -7.8759927e+00  -1.6335392e+01   9.3345099e+00   0.0000000e+00
   6.7091790e+00  -2.3627978e+01  -9.0428065e+00  -1.6918799e+01  -1.1084730e+01  -2.9170343e-01  -1.9252427e+01  -9.6262133e+00   9.0428065e+00  -1.8085613e+01  -3.7921446e+00  -3.3545895e+01  -1.9252427e+01  -1.7502206e+01  -5.8340687e+00   1.4293468e+01  -1.7502206e+00  -1.0209620e+01  -2.0710944e+01   8.1676962e+00   0.0000000e+00
   5.2506618e+00  -2.8878640e+01  -1.1959841e+01  -1.2543248e+01  -9.9179168e+00  -3.7921446e+00  -2.0127537e+01  -6.4174756e+00   5.8340687e-01  -2.2169461e+01  -6.1257721e+00  -2.7128419e+01  -2.7711826e+01  -1.3126655e+01  -6.1257721e+00   1.4293468e+01  -4.3755515e+00  -1.4293468e+01  -2.5669902e+01   5.5423652e+00   0.0000000e+00
   4.3755515e+00  -3.2962488e+01  -1.5751985e+01  -7.0008824e+00  -9.6262133e+00  -5.8340687e+00  -2.0419240e+01  -5.5423652e+00  -6.7091790e+00  -2.6836716e+01  -7.8759927e+00  -2.1002647e+01  -3.5296116e+01  -9.3345099e+00  -6.1257721e+00   1.3126655e+01  -5.8340687e+00  -1.8669020e+01  -2.9753750e+01   2.6253309e+00   0.0000000e+00
   5.5423652e+00  -3.2087378e+01  -1.7502206e+01  -1.1668137e+00  -9.9179168e+00  -5.5423652e+00  -1.8960723e+01  -6.4174756e+00  -9.3345099e+00  -2.8295233e+01  -7.5842893e+00  -1.7210503e+01  -3.7629743e+01  -6.4174756e+00  -5.2506618e+00   1.2543248e+01  -4.9589584e+00  -2.0710944e+01  -3.0337157e+01   8.7511030e-01   0.0000000e+00
   9.3345099e+00  -2.5669902e+01  -1.6918799e+01   4.0838481e+00  -1.0793027e+01  -3.7921446e+00  -1.6043689e+01  -8.4593996e+00  -7.2925859e+00  -2.5961606e+01  -5.5423652e+00  -1.6627096e+01  -3.4129302e+01  -5.8340687e+00  -3.7921446e+00   1.2834951e+01  -2.6253309e+00  -1.9835834e+01  -2.7711826e+01   1.4585172e+00   0.0000000e+00
   1.4585172e+01  -1.5168579e+01  -1.3710061e+01   6.7091790e+00  -1.1084730e+01  -1.1668137e+00  -1.2543248e+01  -9.9179168e+00  -1.1668137e+00  -2.0419240e+01  -2.0419240e+00  -1.9544130e+01  -2.5378199e+01  -7.8759927e+00  -2.3336275e+00   1.4293468e+01   8.7511030e-01  -1.5460282e+01  -2.2169461e+01   4.3755515e+00   0.0000000e+00
   1.8960723e+01  -4.6672549e+00  -9.0428065e+00   5.5423652e+00  -1.1376434e+01   0.0000000e+00  -1.0209620e+01  -1.0793027e+01   4.9589584e+00  -1.4585172e+01   1.1668137e+00  -2.4794792e+01  -1.4876875e+01  -1.2251544e+01  -1.7502206e+00   1.5460282e+01   3.5004412e+00  -9.9179168e+00  -1.6627096e+01   7.8759927e+00   0.0000000e+00
   2.1586054e+01   3.2087378e+00  -4.3755515e+00   1.1668137e+00  -9.9179168e+00   2.9170343e-01  -9.3345099e+00  -9.9179168e+00   9.3345099e+00  -1.0793027e+01   3.5004412e+00  -2.8878640e+01  -5.2506618e+00  -1.6335392e+01  -1.7502206e+00   1.7502206e+01   4.9589584e+00  -4.3755515e+00  -1.2543248e+01   1.1668137e+01   0.0000000e+00
   2.1002647e+01   4.3755515e+00  -2.0419240e+00  -4.6672549e+00  -7.5842893e+00  -1.4585172e+00  -1.1376434e+01  -8.4593996e+00   9.6262133e+00  -1.0209620e+01   3.5004412e+00  -3.0628861e+01  -1.1668137e+00  -1.9252427e+01  -2.6253309e+00   1.8377316e+01   4.0838481e+00  -1.7502206e+00  -1.1959841e+01   1.2834951e+01   0.0000000e+00
   1.7502206e+01  -1.4585172e+00  -2.6253309e+00  -9.3345099e+00  -5.2506618e+00  -4.9589584e+00  -1.5460282e+01  -7.5842893e+00   5.5423652e+00  -1.2251544e+01   5.8340687e-01  -2.9170343e+01  -3.7921446e+00  -2.0127537e+01  -4.9589584e+00   1.8377316e+01   1.1668137e+00  -2.9170343e+00  -1.5460282e+01   1.1376434e+01   0.0000000e+00
   1.2834951e+01  -1.2543248e+01  -5.8340687e+00  -1.1668137e+01  -2.6253309e+00  -8.1676962e+00  -1.9835834e+01  -6.7091790e+00   0.0000000e+00  -1.4876875e+01  -3.7921446e+00  -2.4794792e+01  -1.1959841e+01  -1.8377316e+01  -7.2925859e+00   1.7793909e+01  -2.3336275e+00  -7.2925859e+00  -2.1586054e+01   7.2925859e+00   0.0000000e+00
   7.8759927e+00  -2.4503088e+01  -1.0209620e+01  -1.2834951e+01   2.9170343e-01  -1.0501324e+01  -2.3627978e+01  -6.1257721e+00  -4.9589584e+00  -1.7502206e+01  -8.4593996e+00  -1.8377316e+01  -2.2461164e+01  -1.5460282e+01  -9.3345099e+00   1.6918799e+01  -5.8340687e+00  -1.3418358e+01  -2.8003530e+01   2.0419240e+00   0.0000000e+00
   4.3755515e+00  -3.3837598e+01  -1.4585172e+01  -1.4293468e+01   2.3336275e+00  -1.0501324e+01  -2.4794792e+01  -5.2506618e+00  -7.5842893e+00  -1.8960723e+01  -1.2543248e+01  -1.1668137e+01  -3.2087378e+01  -1.2543248e+01  -1.0501324e+01   1.5751985e+01  -7.5842893e+00  -1.8960723e+01  -3.2962488e+01  -2.6253309e+00   0.0000000e+00
   2.9170343e+00  -3.7046336e+01  -1.6918799e+01  -1.6918799e+01   2.9170343e+00  -8.4593996e+00  -2.3336275e+01  -4.6672549e+00  -6.7091790e+00  -1.9252427e+01  -1.4001765e+01  -6.4174756e+00  -3.7338040e+01  -1.0793027e+01  -1.0793027e+01   1.4293468e+01  -7.5842893e+00  -2.2461164e+01  -3.4712709e+01  -5.5423652e+00   0.0000000e+00
   4.6672549e+00  -3.3545895e+01  -1.6335392e+01  -1.8669020e+01   1.7502206e+00  -4.0838481e+00  -1.8960723e+01  -4.6672549e+00  -2.9170343e+00  -1.7210503e+01  -1.2251544e+01  -4.0838481e+00  -3.6171226e+01  -1.0501324e+01  -9.6262133e+00   1.3418358e+01  -5.2506618e+00  -2.2169461e+01  -3.2087378e+01  -4.9589584e+00   0.0000000e+00
   8.1676962e+00  -2.4211385e+01  -1.2543248e+01  -1.8377316e+01  -5.8340687e-01   5.8340687e-01  -1.3710061e+01  -5.2506618e+00   2.9170343e+00  -1.3418358e+01  -7.8759927e+00  -5.5423652e+00  -2.9170343e+01  -1.2251544e+01  -7.8759927e+00   1.3710061e+01  -1.4585172e+00  -1.8669020e+01  -2.6545013e+01  -1.7502206e+00   0.0000000e+00
   1.2251544e+01  -1.2543248e+01  -6.7091790e+00  -1.6043689e+01  -3.2087378e+00   4.3755515e+00  -9.0428065e+00  -5.2506618e+00   9.0428065e+00  -8.7511030e+00  -2.6253309e+00  -1.0209620e+01  -2.0127537e+01  -1.5168579e+01  -5.8340687e+00   1.5168579e+01   2.6253309e+00  -1.3126655e+01  -2.0127537e+01   3.2087378e+00   0.0000000e+00
   1.5168579e+01  -2.3336275e+00  -8.7511030e-01  -1.3126655e+01  -4.9589584e+00   5.8340687e+00  -6.4174756e+00  -4.3755515e+00   1.3418358e+01  -4.9589584e+00   2.0419240e+00  -1.6627096e+01  -1.2251544e+01  -1.8669020e+01  -4.6672549e+00   1.7210503e+01   4.9589584e+00  -7.5842893e+00  -1.5460282e+01   8.1676962e+00   0.0000000e+00
   1.6043689e+01   3.2087378e+00   2.9170343e+00  -1.0793027e+01  -6.1257721e+00   3.7921446e+00  -6.7091790e+00  -2.9170343e+00   1.3710061e+01  -3.7921446e+00   4.0838481e+00  -2.3044571e+01  -9.3345099e+00  -2.1586054e+01  -4.6672549e+00   1.8960723e+01   4.9589584e+00  -4.9589584e+00  -1.4001765e+01   1.1376434e+01   0.0000000e+00
   1.4585172e+01   3.2087378e+00   3.2087378e+00  -9.6262133e+00  -7.2925859e+00  -1.7502206e+00  -9.6262133e+00  -1.4585172e+00   9.6262133e+00  -6.4174756e+00   2.9170343e+00  -2.8295233e+01  -1.2834951e+01  -2.3044571e+01  -6.4174756e+00   1.9252427e+01   2.0419240e+00  -6.1257721e+00  -1.7210503e+01   1.1668137e+01   0.0000000e+00
   1.1668137e+01  -5.8340687e-01   5.8340687e-01  -7.5842893e+00  -7.2925859e+00  -8.4593996e+00  -1.3418358e+01   0.0000000e+00   3.2087378e+00  -1.1376434e+01  -2.9170343e-01  -3.0628861e+01  -2.0419240e+01  -2.2169461e+01  -8.4593996e+00   1.8669020e+01  -1.7502206e+00  -9.9179168e+00  -2.3044571e+01   9.6262133e+00   0.0000000e+00
   8.1676962e+00  -5.8340687e+00  -4.0838481e+00  -4.9589584e+00  -6.7091790e+00  -1.3710061e+01  -1.6627096e+01   8.7511030e-01  -4.0838481e+00  -1.7210503e+01  -4.0838481e+00  -3.0045454e+01  -2.9753750e+01  -1.9544130e+01  -1.0501324e+01   1.7502206e+01  -5.5423652e+00  -1.5751985e+01  -2.9753750e+01   6.1257721e+00   0.0000000e+00
   4.3755515e+00  -1.0501324e+01  -9.0428065e+00  -2.6253309e+00  -4.6672549e+00  -1.6043689e+01  -1.8377316e+01   1.7502206e+00  -9.9179168e+00  -2.1877758e+01  -7.2925859e+00  -2.7128419e+01  -3.7629743e+01  -1.6627096e+01  -1.1668137e+01   1.6335392e+01  -7.8759927e+00  -2.1294351e+01  -3.4712709e+01   2.6253309e+00   0.0000000e+00
   1.4585172e+00  -1.3418358e+01  -1.2834951e+01  -2.3336275e+00  -2.6253309e+00  -1.5168579e+01  -1.8085613e+01   1.7502206e+00  -1.2543248e+01  -2.4211385e+01  -8.4593996e+00  -2.4503088e+01  -4.1421888e+01  -1.5751985e+01  -1.2251544e+01   1.4876875e+01  -8.7511030e+00  -2.4794792e+01  -3.7046336e+01   5.8340687e-01   0.0000000e+00
   5.8340687e-01  -1.3418358e+01  -1.3710061e+01  -4.3755515e+00  -1.4585172e+00  -1.1668137e+01  -1.6043689e+01   1.7502206e+00  -1.1376434e+01  -2.3627978e+01  -7.0008824e+00  -2.3336275e+01  -3.9671667e+01  -1.7210503e+01  -1.1959841e+01   1.4293468e+01  -7.8759927e+00  -2.5378199e+01  -3.5296116e+01   1.4585172e+00   0.0000000e+00
   1.4585172e+00  -1.0793027e+01  -1.1668137e+01  -9.0428065e+00  -3.7921446e+00  -7.0008824e+00  -1.3710061e+01   8.7511030e-01  -7.2925859e+00  -2.1877758e+01  -3.7921446e+00  -2.5961606e+01  -3.3254191e+01  -2.1877758e+01  -1.1959841e+01   1.4001765e+01  -6.1257721e+00  -2.3336275e+01  -3.1212267e+01   4.0838481e+00   0.0000000e+00
   4.0838481e+00  -6.4174756e+00  -7.8759927e+00  -1.3418358e+01  -8.7511030e+00  -2.6253309e+00  -1.1084730e+01  -1.1668137e+00  -2.0419240e+00  -2.0419240e+01   2.9170343e-01  -3.0920564e+01  -2.4211385e+01  -2.7420123e+01  -1.1668137e+01   1.4001765e+01  -4.3755515e+00  -1.8960723e+01  -2.5669902e+01   8.1676962e+00   0.0000000e+00
   7.0008824e+00  -2.9170343e+00  -4.0838481e+00  -1.6335392e+01  -1.5751985e+01   2.9170343e-01  -9.9179168e+00  -4.3755515e+00   1.4585172e+00  -2.0419240e+01   3.2087378e+00  -3.6462929e+01  -1.5751985e+01  -3.2379081e+01  -1.1959841e+01   1.4293468e+01  -3.2087378e+00  -1.4876875e+01  -2.1294351e+01   1.1376434e+01   0.0000000e+00
   8.7511030e+00  -2.3336275e+00  -1.4585172e+00  -1.6627096e+01  -2.1002647e+01   8.7511030e-01  -9.9179168e+00  -7.5842893e+00   1.7502206e+00  -2.2169461e+01   4.0838481e+00  -4.0255074e+01  -1.0793027e+01  -3.4421005e+01  -1.2251544e+01   1.4585172e+01  -3.7921446e+00  -1.2251544e+01  -1.9544130e+01   1.3126655e+01   0.0000000e+00
   8.7511030e+00  -6.1257721e+00  -1.4585172e+00  -1.4585172e+01  -2.3336275e+01  -2.9170343e-01  -1.1084730e+01  -9.6262133e+00  -2.0419240e+00  -2.3919682e+01   2.9170343e+00  -4.1713591e+01  -1.0793027e+01  -3.3254191e+01  -1.2834951e+01   1.4876875e+01  -5.5423652e+00  -1.2251544e+01  -2.1002647e+01   1.2543248e+01   0.0000000e+00
   6.1257721e+00  -1.6043689e+01  -4.3755515e+00  -1.2543248e+01  -2.2461164e+01  -3.7921446e+00  -1.4001765e+01  -1.0209620e+01  -9.0428065e+00  -2.5961606e+01  -1.1668137e+00  -4.2005295e+01  -1.6918799e+01  -3.0337157e+01  -1.4001765e+01   1.4293468e+01  -9.3345099e+00  -1.6043689e+01  -2.5961606e+01   9.0428065e+00   0.0000000e+00
   3.2087378e+00  -2.8586937e+01  -8.4593996e+00  -1.0209620e+01  -1.9252427e+01  -7.0008824e+00  -1.6335392e+01  -9.0428065e+00  -1.6335392e+01  -2.7128419e+01  -5.5423652e+00  -4.1421888e+01  -2.6253309e+01  -2.5961606e+01  -1.4585172e+01   1.3126655e+01  -1.3126655e+01  -2.1586054e+01  -3.1503971e+01   4.0838481e+00   0.0000000e+00
   1.7502206e+00  -4.0838481e+01  -1.1959841e+01  -8.4593996e+00  -1.5751985e+01  -9.3345099e+00  -1.7793909e+01  -7.0008824e+00  -2.1586054e+01  -2.6836716e+01  -9.3345099e+00  -4.0838481e+01  -3.4712709e+01  -2.1586054e+01  -1.4585172e+01   1.1959841e+01  -1.6043689e+01  -2.7420123e+01  -3.5879522e+01  -2.9170343e-01   0.0000000e+00
   2.0419240e+00  -4.7839363e+01  -1.4001765e+01  -8.1676962e+00  -1.2834951e+01  -1.0209620e+01  -1.7793909e+01  -5.5423652e+00  -2.3044571e+01  -2.5669902e+01  -1.0793027e+01  -4.0546777e+01  -3.9379964e+01  -1.8960723e+01  -1.3710061e+01   1.0501324e+01  -1.6918799e+01  -3.0920564e+01  -3.7338040e+01  -2.9170343e+00   0.0000000e+00
   4.6672549e+00  -4.7255956e+01  -1.3418358e+01  -9.0428065e+00  -1.1084730e+01  -9.0428065e+00  -1.6335392e+01  -4.0838481e+00  -2.0419240e+01  -2.3044571e+01  -9.6262133e+00  -3.9963370e+01  -3.7629743e+01  -1.7793909e+01  -1.1668137e+01   9.6262133e+00  -1.6043689e+01  -3.0920564e+01  -3.5004412e+01  -2.6253309e+00   0.0000000e+00
   7.8759927e+00  -3.8796557e+01  -1.0209620e+01  -1.1084730e+01  -1.0501324e+01  -7.0008824e+00  -1.4001765e+01  -3.2087378e+00  -1.4293468e+01  -1.9252427e+01  -6.1257721e+00  -3.9088260e+01  -3.0628861e+01  -1.8960723e+01  -9.3345099e+00   9.3345099e+00  -1.3418358e+01  -2.7420123e+01  -2.9753750e+01   2.9170343e-01   0.0000000e+00
   1.0209620e+01  -2.5961606e+01  -5.8340687e+00  -1.3710061e+01  -1.1376434e+01  -5.5423652e+00  -1.1668137e+01  -2.9170343e+00  -7.5842893e+00  -1.5168579e+01  -1.4585172e+00  -3.7921446e+01  -2.1002647e+01  -2.1586054e+01  -7.2925859e+00   9.0428065e+00  -1.0793027e+01  -2.1877758e+01  -2.3336275e+01   4.6672549e+00   0.0000000e+00
   1.0209620e+01  -1.2834951e+01  -1.7502206e+00  -1.6335392e+01  -1.4001765e+01  -6.1257721e+00  -1.0793027e+01  -3.5004412e+00  -2.6253309e+00  -1.1959841e+01   2.3336275e+00  -3.7338040e+01  -1.2834951e+01  -2.4794792e+01  -6.4174756e+00   8.7511030e+00  -9.3345099e+00  -1.6627096e+01  -1.8669020e+01   8.4593996e+00   0.0000000e+00
   7.2925859e+00  -4.6672549e+00   5.8340687e-01  -1.9544130e+01  -1.7502206e+01  -8.7511030e+00  -1.1668137e+01  -4.3755515e+00  -1.4585172e+00  -1.1084730e+01   3.7921446e+00  -3.7046336e+01  -9.0428065e+00  -2.7128419e+01  -6.7091790e+00   8.4593996e+00  -1.0209620e+01  -1.3710061e+01  -1.6918799e+01   1.0209620e+01   0.0000000e+00
   2.0419240e+00  -3.5004412e+00   5.8340687e-01  -2.3336275e+01  -2.0710944e+01  -1.3418358e+01  -1.4293468e+01  -5.5423652e+00  -4.9589584e+00  -1.2834951e+01   2.6253309e+00  -3.7046336e+01  -1.1376434e+01  -2.8586937e+01  -8.7511030e+00   7.5842893e+00  -1.3126655e+01  -1.4293468e+01  -1.9544130e+01   9.0428065e+00   0.0000000e+00
  -4.9589584e+00  -9.0428065e+00  -2.6253309e+00  -2.7420123e+01  -2.2752868e+01  -1.8960723e+01  -1.8085613e+01  -6.7091790e+00  -1.1668137e+01  -1.6335392e+01  -8.7511030e-01  -3.7338040e+01  -1.8960723e+01  -2.8878640e+01  -1.1959841e+01   6.1257721e+00  -1.7502206e+01  -1.8377316e+01  -2.5086495e+01   5.2506618e+00   0.0000000e+00
  -1.1084730e+01  -1.8960723e+01  -7.5842893e+00  -3.1212267e+01  -2.3919682e+01  -2.3627978e+01  -2.2169461e+01  -7.8759927e+00  -1.8960723e+01  -1.9544130e+01  -5.2506618e+00  -3.7338040e+01  -2.9170343e+01  -2.8003530e+01  -1.4876875e+01   3.7921446e+00  -2.2461164e+01  -2.4794792e+01  -3.1795674e+01   0.0000000e+00   0.0000000e+00
  -1.5168579e+01  -2.8295233e+01  -1.2543248e+01  -3.3837598e+01  -2.4503088e+01  -2.6836716e+01  -2.4794792e+01  -9.6262133e+00  -2.4503088e+01  -2.1002647e+01  -9.3345099e+00  -3.7338040e+01  -3.8796557e+01  -2.7128419e+01  -1.7502206e+01   1.1668137e+00  -2.6545013e+01  -3.0920564e+01  -3.7629743e+01  -5.2506618e+00   0.0000000e+00
  -1.5751985e+01  -3.2962488e+01  -1.6043689e+01  -3.4712709e+01  -2.5378199e+01  -2.7128419e+01  -2.5669902e+01  -1.1668137e+01  -2.5086495e+01  -2.0419240e+01  -1.1376434e+01  -3.7921446e+01  -4.4047219e+01  -2.6836716e+01  -1.8960723e+01  -8.7511030e-01  -2.7711826e+01  -3.4712709e+01  -3.9963370e+01  -8.7511030e+00   0.0000000e+00
  -1.3126655e+01  -3.0628861e+01  -1.6335392e+01  -3.4129302e+01  -2.6545013e+01  -2.4794792e+01  -2.4211385e+01  -1.3418358e+01  -2.0710944e+01  -1.8960723e+01  -1.0793027e+01  -3.9671667e+01  -4.3463812e+01  -2.7128419e+01  -1.8085613e+01  -1.7502206e+00  -2.6253309e+01  -3.4421005e+01  -3.8213150e+01  -8.4593996e+00   0.0000000e+00
  -8.7511030e+00  -2.1877758e+01  -1.3710061e+01  -3.3837598e+01  -2.8003530e+01  -2.1294351e+01  -2.1002647e+01  -1.4876875e+01  -1.4001765e+01  -1.8377316e+01  -8.4593996e+00  -4.2880405e+01  -3.7046336e+01  -2.7711826e+01  -1.6043689e+01  -1.7502206e+00  -2.3044571e+01  -3.0920564e+01  -3.2962488e+01  -5.2506618e+00   0.0000000e+00
  -3.5004412e+00  -9.9179168e+00  -9.0428065e+00  -3.4421005e+01  -2.9753750e+01  -1.8085613e+01  -1.7210503e+01  -1.4876875e+01  -7.0008824e+00  -1.8377316e+01  -4.9589584e+00  -4.6672549e+01  -2.7711826e+01  -2.7711826e+01  -1.2834951e+01  -5.8340687e-01  -1.9252427e+01  -2.4794792e+01  -2.5961606e+01   0.0000000e+00   0.0000000e+00
   5.8340687e-01  -2.9170343e-01  -4.6672549e+00  -3.6462929e+01  -3.1795674e+01  -1.6918799e+01  -1.4001765e+01  -1.4293468e+01  -2.6253309e+00  -1.8960723e+01  -2.0419240e+00  -5.0756398e+01  -1.9544130e+01  -2.8003530e+01  -1.0209620e+01   2.9170343e-01  -1.6918799e+01  -1.9252427e+01  -2.0419240e+01   4.9589584e+00   0.0000000e+00
   2.0419240e+00   4.0838481e+00  -2.0419240e+00  -3.9379964e+01  -3.2962488e+01  -1.8377316e+01  -1.2834951e+01  -1.3418358e+01  -1.4585172e+00  -1.9835834e+01  -5.8340687e-01  -5.4256839e+01  -1.6627096e+01  -2.7711826e+01  -8.4593996e+00   8.7511030e-01  -1.6918799e+01  -1.6043689e+01  -1.8377316e+01   7.5842893e+00   0.0000000e+00
  -2.9170343e-01   8.7511030e-01  -2.9170343e+00  -4.3172108e+01  -3.4712709e+01  -2.1877758e+01  -1.4293468e+01  -1.3126655e+01  -4.3755515e+00  -2.1877758e+01  -1.7502206e+00  -5.7465577e+01  -2.0710944e+01  -2.7128419e+01  -9.0428065e+00   2.9170343e-01  -2.0127537e+01  -1.6918799e+01  -2.0710944e+01   6.4174756e+00   0.0000000e+00
  -4.9589584e+00  -8.4593996e+00  -7.0008824e+00  -4.6964253e+01  -3.5879522e+01  -2.5961606e+01  -1.7210503e+01  -1.3418358e+01  -1.0501324e+01  -2.5669902e+01  -4.3755515e+00  -5.9507501e+01  -3.1212267e+01  -2.5378199e+01  -1.0209620e+01  -5.8340687e-01  -2.5086495e+01  -2.1586054e+01  -2.6253309e+01   2.6253309e+00   0.0000000e+00
  -1.0501324e+01  -2.0419240e+01  -1.2543248e+01  -5.0756398e+01  -3.6754633e+01  -2.9170343e+01  -2.0419240e+01  -1.4293468e+01  -1.8377316e+01  -3.0628861e+01  -7.2925859e+00  -6.1257721e+01  -4.4338922e+01  -2.2461164e+01  -1.1376434e+01  -1.1668137e+00  -2.9753750e+01  -2.8295233e+01  -3.2670785e+01  -2.6253309e+00   0.0000000e+00
  -1.4876875e+01  -3.0920564e+01  -1.8085613e+01  -5.4256839e+01  -3.7338040e+01  -3.0337157e+01  -2.2752868e+01  -1.5460282e+01  -2.5378199e+01  -3.5879522e+01  -9.6262133e+00  -6.3591349e+01  -5.5715356e+01  -1.8669020e+01  -1.1959841e+01  -1.1668137e+00  -3.3254191e+01  -3.5296116e+01  -3.7629743e+01  -7.5842893e+00   0.0000000e+00
  -1.6918799e+01  -3.6754633e+01  -2.1586054e+01  -5.7757280e+01  -3.8213150e+01  -2.9462047e+01  -2.3627978e+01  -1.6627096e+01  -2.8878640e+01  -3.8796557e+01  -1.0209620e+01  -6.7383493e+01  -6.1841128e+01  -1.6043689e+01  -1.1084730e+01   0.0000000e+00  -3.4421005e+01  -3.9671667e+01  -3.9088260e+01  -1.0209620e+01   0.0000000e+00
  -1.6043689e+01  -3.6171226e+01  -2.1877758e+01  -6.1257721e+01  -3.9088260e+01  -2.6253309e+01  -2.1877758e+01  -1.6627096e+01  -2.7128419e+01  -3.7338040e+01  -8.7511030e+00  -7.1759045e+01  -6.0674314e+01  -1.5168579e+01  -9.3345099e+00   2.3336275e+00  -3.2962488e+01  -3.9963370e+01  -3.6171226e+01  -9.3345099e+00   0.0000000e+00
  -1.3710061e+01  -3.0628861e+01  -1.9544130e+01  -6.6508383e+01  -4.1130184e+01  -2.2752868e+01  -1.9252427e+01  -1.5751985e+01  -2.1586054e+01  -3.2379081e+01  -6.7091790e+00  -7.8468224e+01  -5.4256839e+01  -1.7793909e+01  -8.4593996e+00   3.7921446e+00  -3.0920564e+01  -3.7338040e+01  -3.1212267e+01  -6.4174756e+00   0.0000000e+00
  -1.1376434e+01  -2.1877758e+01  -1.5168579e+01  -7.2634155e+01  -4.4338922e+01  -1.9544130e+01  -1.6043689e+01  -1.2543248e+01  -1.3710061e+01  -2.5086495e+01  -4.0838481e+00  -8.5760810e+01  -4.5214032e+01  -2.2169461e+01  -8.1676962e+00   4.9589584e+00  -2.9170343e+01  -3.2379081e+01  -2.5669902e+01  -1.4585172e+00   0.0000000e+00
  -9.9179168e+00  -1.3126655e+01  -1.0793027e+01  -7.9926741e+01  -4.8422770e+01  -1.8669020e+01  -1.4001765e+01  -7.8759927e+00  -7.5842893e+00  -1.9544130e+01  -2.6253309e+00  -9.3345099e+01  -3.7921446e+01  -2.7711826e+01  -9.0428065e+00   4.9589584e+00  -2.9462047e+01  -2.8003530e+01  -2.1877758e+01   2.9170343e+00   0.0000000e+00
  -1.0501324e+01  -7.8759927e+00  -8.1676962e+00  -8.8094437e+01  -5.3090025e+01  -2.1294351e+01  -1.4001765e+01  -3.2087378e+00  -6.1257721e+00  -1.8377316e+01  -2.9170343e+00  -1.0122109e+02  -3.6462929e+01  -3.1795674e+01  -1.1376434e+01   4.3755515e+00  -3.2962488e+01  -2.5961606e+01  -2.1877758e+01   5.5423652e+00   0.0000000e+00
  -1.2251544e+01  -7.0008824e+00  -7.2925859e+00  -9.5387023e+01  -5.7465577e+01  -2.6253309e+01  -1.5751985e+01   5.8340687e-01  -9.3345099e+00  -2.0710944e+01  -5.2506618e+00  -1.0822197e+02  -4.1421888e+01  -3.3837598e+01  -1.4001765e+01   3.7921446e+00  -3.8504853e+01  -2.7128419e+01  -2.5086495e+01   5.2506618e+00   0.0000000e+00
  -1.5168579e+01  -1.1668137e+01  -9.9179168e+00  -1.0267961e+02  -6.1257721e+01  -3.3837598e+01  -1.9544130e+01   2.3336275e+00  -1.7793909e+01  -2.6253309e+01  -9.6262133e+00  -1.1376434e+02  -5.3381728e+01  -3.3837598e+01  -1.7502206e+01   2.6253309e+00  -4.6380846e+01  -3.2379081e+01  -3.1503971e+01   2.0419240e+00   0.0000000e+00
  -1.8960723e+01  -1.8960723e+01  -1.4293468e+01  -1.0997219e+02  -6.4466459e+01  -4.2005295e+01  -2.3919682e+01   2.6253309e+00  -2.7420123e+01  -3.1795674e+01  -1.4876875e+01  -1.1813989e+02  -6.8550307e+01  -3.2962488e+01  -2.0710944e+01   1.1668137e+00  -5.4256839e+01  -4.0255074e+01  -3.9088260e+01  -2.9170343e+00   0.0000000e+00
  -2.2752868e+01  -2.6253309e+01  -1.8377316e+01  -1.1901500e+02  -6.7091790e+01  -4.8131067e+01  -2.7128419e+01   3.5004412e+00  -3.5004412e+01  -3.5296116e+01  -1.8669020e+01  -1.2193204e+02  -8.1968665e+01  -3.1212267e+01  -2.3044571e+01   2.9170343e-01  -6.0674314e+01  -4.7547660e+01  -4.4630625e+01  -7.2925859e+00   0.0000000e+00
  -2.7420123e+01  -3.0337157e+01  -2.1877758e+01  -1.3155825e+02  -7.1759045e+01  -5.2214915e+01  -2.9753750e+01   3.2087378e+00  -3.8796557e+01  -3.6754633e+01  -2.0710944e+01  -1.2747440e+02  -9.1303175e+01  -3.1212267e+01  -2.4211385e+01  -1.1668137e+00  -6.5049866e+01  -5.3381728e+01  -4.7547660e+01  -1.0209620e+01   0.0000000e+00
  -3.2087378e+01  -3.0337157e+01  -2.3919682e+01  -1.4847705e+02  -7.9051631e+01  -5.3673432e+01  -3.1212267e+01   2.0419240e+00  -3.8213150e+01  -3.7046336e+01  -2.0127537e+01  -1.3651721e+02  -9.4511913e+01  -3.3254191e+01  -2.4794792e+01  -2.3336275e+00  -6.8258604e+01  -5.6298763e+01  -4.6964253e+01  -1.0793027e+01   0.0000000e+00
  -3.5879522e+01  -2.5378199e+01  -2.3044571e+01  -1.6802118e+02  -8.8969547e+01  -5.3090025e+01  -3.1795674e+01   0.0000000e+00  -3.3545895e+01  -3.6462929e+01  -1.7210503e+01  -1.4935216e+02  -9.1594878e+01  -3.6754633e+01  -2.4211385e+01  -2.9170343e+00  -6.9717121e+01  -5.6007059e+01  -4.3463812e+01  -8.4593996e+00   0.0000000e+00
  -4.0255074e+01  -1.8960723e+01  -2.1294351e+01  -1.8960723e+02  -1.0063768e+02  -5.2506618e+01  -3.2962488e+01  -3.7921446e+00  -2.8878640e+01  -3.6462929e+01  -1.3710061e+01  -1.6627096e+02  -8.6927623e+01  -4.2005295e+01  -2.3919682e+01  -3.7921446e+00  -7.2050748e+01  -5.4548542e+01  -4.0255074e+01  -5.5423652e+00   0.0000000e+00
  -4.5505736e+01  -1.3418358e+01  -1.9544130e+01  -2.1060988e+02  -1.1201412e+02  -5.3381728e+01  -3.4712709e+01  -8.4593996e+00  -2.6253309e+01  -3.6462929e+01  -9.9179168e+00  -1.8610679e+02  -8.3135479e+01  -4.7255956e+01  -2.4211385e+01  -4.0838481e+00  -7.5842893e+01  -5.3090025e+01  -3.7921446e+01  -2.9170343e+00   0.0000000e+00
  -5.2214915e+01  -1.2543248e+01  -1.9252427e+01  -2.3015401e+02  -1.2280715e+02  -5.7173873e+01  -3.7629743e+01  -1.3418358e+01  -2.7711826e+01  -3.7046336e+01  -8.1676962e+00  -2.0710944e+02  -8.4302292e+01  -5.1631508e+01  -2.5378199e+01  -4.6672549e+00  -8.1968665e+01  -5.3673432e+01  -3.9088260e+01  -2.0419240e+00   0.0000000e+00
  -6.0674314e+01  -1.7793909e+01  -2.1877758e+01  -2.4765622e+02  -1.3243336e+02  -6.3591349e+01  -4.2296998e+01  -1.7502206e+01  -3.3254191e+01  -3.7921446e+01  -8.7511030e+00  -2.2782038e+02  -9.1303175e+01  -5.5131949e+01  -2.8003530e+01  -5.8340687e+00  -9.0428065e+01  -5.8048983e+01  -4.3755515e+01  -4.3755515e+00   0.0000000e+00
  -6.9717121e+01  -2.9170343e+01  -2.7128419e+01  -2.6224139e+02  -1.4060106e+02  -7.1759045e+01  -4.7547660e+01  -2.0127537e+01  -4.1713591e+01  -3.9671667e+01  -1.1668137e+01  -2.4619770e+02  -1.0355472e+02  -5.6590466e+01  -3.1212267e+01  -7.0008824e+00  -1.0005428e+02  -6.5633273e+01  -5.0756398e+01  -9.3345099e+00   0.0000000e+00
  -7.7593113e+01  -4.3755515e+01  -3.3837598e+01  -2.7420123e+02  -1.4731023e+02  -7.9343334e+01  -5.2214915e+01  -2.1002647e+01  -5.1339804e+01  -4.1130184e+01  -1.5460282e+01  -2.6194968e+02  -1.1813989e+02  -5.6882170e+01  -3.4712709e+01  -7.8759927e+00  -1.0909708e+02  -7.4676079e+01  -5.8340687e+01  -1.5460282e+01   0.0000000e+00
  -8.2552072e+01  -5.6590466e+01  -3.9963370e+01  -2.8236892e+02  -1.5226919e+02  -8.3718886e+01  -5.5131949e+01  -2.0127537e+01  -5.9215797e+01  -4.2005295e+01  -1.8669020e+01  -2.7536804e+02  -1.3097484e+02  -5.6007059e+01  -3.7338040e+01  -7.8759927e+00  -1.1551456e+02  -8.3135479e+01  -6.4174756e+01  -2.0710944e+01   0.0000000e+00
  -8.4593996e+01  -6.4174756e+01  -4.4338922e+01  -2.8820299e+02  -1.5547793e+02  -8.4885699e+01  -5.6007059e+01  -1.8669020e+01  -6.3883052e+01  -4.2588701e+01  -2.0419240e+01  -2.8820299e+02  -1.3885083e+02  -5.5715356e+01  -3.9379964e+01  -8.1676962e+00  -1.1901500e+02  -8.9261251e+01  -6.6800086e+01  -2.4211385e+01   0.0000000e+00
  -8.2843775e+01  -6.3883052e+01  -4.4922329e+01  -2.9228684e+02  -1.5635304e+02  -8.2843775e+01  -5.4548542e+01  -1.6627096e+01  -6.4174756e+01  -4.2880405e+01  -1.9835834e+01  -2.9987113e+02  -1.3972594e+02  -5.5423652e+01  -3.9671667e+01  -7.5842893e+00  -1.1872330e+02  -9.1011471e+01  -6.4758162e+01  -2.4503088e+01   0.0000000e+00
  -7.9343334e+01  -5.6882170e+01  -4.2005295e+01  -2.9666239e+02  -1.5576963e+02  -7.9635038e+01  -5.1923211e+01  -1.4876875e+01  -6.0674314e+01  -4.3755515e+01  -1.7793909e+01  -3.1066416e+02  -1.3447528e+02  -5.6882170e+01  -3.9379964e+01  -7.5842893e+00  -1.1638967e+02  -8.9261251e+01  -5.9799204e+01  -2.1877758e+01   0.0000000e+00
  -7.5259486e+01  -4.6089143e+01  -3.6754633e+01  -3.0220476e+02  -1.5460282e+02  -7.7009707e+01  -4.9297880e+01  -1.4585172e+01  -5.5423652e+01  -4.5505736e+01  -1.5168579e+01  -3.1970696e+02  -1.2601588e+02  -5.9215797e+01  -3.8504853e+01  -7.2925859e+00  -1.1318093e+02  -8.4593996e+01  -5.3673432e+01  -1.7793909e+01   0.0000000e+00
  -7.2050748e+01  -3.6462929e+01  -3.0920564e+01  -3.0833053e+02  -1.5285260e+02  -7.6134596e+01  -4.7839363e+01  -1.5751985e+01  -5.0756398e+01  -4.6672549e+01  -1.3418358e+01  -3.2641614e+02  -1.1843159e+02  -6.1549425e+01  -3.8213150e+01  -7.0008824e+00  -1.1113901e+02  -7.9343334e+01  -4.8422770e+01  -1.4001765e+01   0.0000000e+00
  -7.0300528e+01  -3.1795674e+01  -2.6836716e+01  -3.1270608e+02  -1.5022727e+02  -7.7301410e+01  -4.7547660e+01  -1.8377316e+01  -4.8714474e+01  -4.7547660e+01  -1.3710061e+01  -3.2933318e+02  -1.1463945e+02  -6.3299645e+01  -3.8504853e+01  -7.2925859e+00  -1.1026390e+02  -7.5551189e+01  -4.6380846e+01  -1.2543248e+01   0.0000000e+00
  -7.0592231e+01  -3.4129302e+01  -2.5378199e+01  -3.1445630e+02  -1.4643512e+02  -7.9635038e+01  -4.8714474e+01  -2.1002647e+01  -4.9881287e+01  -4.8131067e+01  -1.6335392e+01  -3.2933318e+02  -1.1668137e+02  -6.3007942e+01  -3.9379964e+01  -7.8759927e+00  -1.1143071e+02  -7.4384376e+01  -4.8131067e+01  -1.3418358e+01   0.0000000e+00
  -7.2925859e+01  -4.3172108e+01  -2.7711826e+01  -3.1416460e+02  -1.4176787e+02  -8.1385258e+01  -5.0756398e+01  -2.3044571e+01  -5.4256839e+01  -4.9589584e+01  -2.0710944e+01  -3.2670785e+02  -1.2397396e+02  -6.0090907e+01  -4.0838481e+01  -9.6262133e+00  -1.1318093e+02  -7.6426300e+01  -5.2798322e+01  -1.6918799e+01   0.0000000e+00
  -7.6134596e+01  -5.4840246e+01  -3.1795674e+01  -3.1328949e+02  -1.3680891e+02  -8.1385258e+01  -5.3090025e+01  -2.3336275e+01  -5.9799204e+01  -5.1631508e+01  -2.5378199e+01  -3.2291570e+02  -1.3272506e+02  -5.5131949e+01  -4.1421888e+01  -1.1668137e+01  -1.1493115e+02  -8.0218444e+01  -5.8340687e+01  -2.1294351e+01   0.0000000e+00
  -7.8759927e+01  -6.5341569e+01  -3.6754633e+01  -3.1416460e+02  -1.3330847e+02  -7.9343334e+01  -5.4548542e+01  -2.2461164e+01  -6.3591349e+01  -5.3090025e+01  -2.8878640e+01  -3.1912356e+02  -1.3972594e+02  -4.9589584e+01  -4.1421888e+01  -1.3418358e+01  -1.1493115e+02  -8.3718886e+01  -6.2132831e+01  -2.5378199e+01   0.0000000e+00
  -7.9635038e+01  -7.0592231e+01  -4.0546777e+01  -3.1766504e+02  -1.3214166e+02  -7.5551189e+01  -5.4256839e+01  -2.1586054e+01  -6.4174756e+01  -5.3673432e+01  -3.0045454e+01  -3.1474801e+02  -1.4147617e+02  -4.5214032e+01  -3.9963370e+01  -1.4001765e+01  -1.1259753e+02  -8.5469106e+01  -6.2716238e+01  -2.7128419e+01   0.0000000e+00
  -7.8468224e+01  -6.9133714e+01  -4.2005295e+01  -3.2379081e+02  -1.3301677e+02  -7.1467341e+01  -5.2798322e+01  -2.1294351e+01  -6.0674314e+01  -5.1923211e+01  -2.8586937e+01  -3.1037245e+02  -1.3680891e+02  -4.3172108e+01  -3.7921446e+01  -1.3126655e+01  -1.0851368e+02  -8.4010589e+01  -5.9799204e+01  -2.6545013e+01   0.0000000e+00
  -7.6134596e+01  -6.2424535e+01  -4.0546777e+01  -3.3079169e+02  -1.3535039e+02  -6.7383493e+01  -5.0172991e+01  -2.1877758e+01  -5.4256839e+01  -4.7547660e+01  -2.5086495e+01  -3.0628861e+02  -1.2747440e+02  -4.4047219e+01  -3.5587819e+01  -1.1668137e+01  -1.0326302e+02  -7.9343334e+01  -5.3965135e+01  -2.3627978e+01   0.0000000e+00
  -7.4676079e+01  -5.3673432e+01  -3.6754633e+01  -3.3720917e+02  -1.3826743e+02  -6.3883052e+01  -4.7255956e+01  -2.3044571e+01  -4.7255956e+01  -4.2005295e+01  -2.0419240e+01  -3.0453839e+02  -1.1580626e+02  -4.6380846e+01  -3.3254191e+01  -9.6262133e+00  -9.8304057e+01  -7.2925859e+01  -4.7255956e+01  -1.9544130e+01   0.0000000e+00
  -7.5551189e+01  -4.6380846e+01  -3.2962488e+01  -3.4158472e+02  -1.4118446e+02  -6.2424535e+01  -4.5505736e+01  -2.3919682e+01  -4.1713591e+01  -3.7046336e+01  -1.6627096e+01  -3.0570520e+02  -1.0588835e+02  -4.9006177e+01  -3.1795674e+01  -7.8759927e+00  -9.5095320e+01  -6.6508383e+01  -4.2005295e+01  -1.5751985e+01   0.0000000e+00
  -7.7593113e+01  -4.2880405e+01  -2.9170343e+01  -3.4245983e+02  -1.4293468e+02  -6.1841128e+01  -4.4047219e+01  -2.3044571e+01  -3.8213150e+01  -3.3254191e+01  -1.3710061e+01  -3.0862223e+02  -9.9470871e+01  -4.9006177e+01  -2.9462047e+01  -5.5423652e+00  -9.3345099e+01  -6.1257721e+01  -3.8504853e+01  -1.2543248e+01   0.0000000e+00
  -8.1093555e+01  -4.4922329e+01  -2.8295233e+01  -3.4070961e+02  -1.4468490e+02  -6.3591349e+01  -4.4338922e+01  -2.1294351e+01  -3.8504853e+01  -3.2379081e+01  -1.3126655e+01  -3.1299778e+02  -9.9179168e+01  -4.7255956e+01  -2.8295233e+01  -3.7921446e+00  -9.3928506e+01  -5.9799204e+01  -3.8504853e+01  -1.1668137e+01   0.0000000e+00
  -8.4885699e+01  -5.1339804e+01  -3.0628861e+01  -3.3575065e+02  -1.4672683e+02  -6.7383493e+01  -4.4922329e+01  -1.9252427e+01  -4.2005295e+01  -3.4421005e+01  -1.4876875e+01  -3.1591482e+02  -1.0442983e+02  -4.3463812e+01  -2.7420123e+01  -2.6253309e+00  -9.6262133e+01  -6.1257721e+01  -4.1713591e+01  -1.3710061e+01   0.0000000e+00
  -8.7802734e+01  -5.9215797e+01  -3.5587819e+01  -3.2729125e+02  -1.4847705e+02  -7.1759045e+01  -4.6089143e+01  -1.7793909e+01  -4.5797439e+01  -3.7921446e+01  -1.8085613e+01  -3.1708163e+02  -1.1318093e+02  -3.9088260e+01  -2.6836716e+01  -2.3336275e+00  -9.9179168e+01  -6.5341569e+01  -4.6089143e+01  -1.7502206e+01   0.0000000e+00
  -8.9552954e+01  -6.6216680e+01  -4.0838481e+01  -3.1562312e+02  -1.4876875e+02  -7.4676079e+01  -4.6380846e+01  -1.6918799e+01  -4.8422770e+01  -4.1713591e+01  -2.1294351e+01  -3.1620652e+02  -1.2222374e+02  -3.5296116e+01  -2.6253309e+01  -2.9170343e+00  -1.0063768e+02  -6.9717121e+01  -4.9881287e+01  -2.1586054e+01   0.0000000e+00
  -8.9552954e+01  -6.9133714e+01  -4.4630625e+01  -3.0191305e+02  -1.4760194e+02  -7.5259486e+01  -4.5505736e+01  -1.6918799e+01  -4.7255956e+01  -4.3463812e+01  -2.3044571e+01  -3.1328949e+02  -1.2776610e+02  -3.3837598e+01  -2.5086495e+01  -4.0838481e+00  -9.9762574e+01  -7.2050748e+01  -5.1048101e+01  -2.3919682e+01   0.0000000e+00
  -8.7511030e+01  -6.6508383e+01  -4.5214032e+01  -2.8820299e+02  -1.4526831e+02  -7.2634155e+01  -4.3172108e+01  -1.6627096e+01  -4.2005295e+01  -4.2296998e+01  -2.2752868e+01  -3.0920564e+02  -1.2776610e+02  -3.4129302e+01  -2.3044571e+01  -4.9589584e+00  -9.6262133e+01  -7.0883935e+01  -4.8131067e+01  -2.3627978e+01   0.0000000e+00
  -8.3427182e+01  -5.8924094e+01  -4.2296998e+01  -2.7682656e+02  -1.4293468e+02  -6.8258604e+01  -3.9379964e+01  -1.6335392e+01  -3.3837598e+01  -3.7921446e+01  -1.9835834e+01  -3.0424668e+02  -1.2164033e+02  -3.5879522e+01  -2.0127537e+01  -4.9589584e+00  -9.0428065e+01  -6.5924976e+01  -4.2005295e+01  -1.9835834e+01   0.0000000e+00
  -7.8468224e+01  -4.9297880e+01  -3.7629743e+01  -2.7011738e+02  -1.4205957e+02  -6.3591349e+01  -3.5587819e+01  -1.5460282e+01  -2.6545013e+01  -3.2670785e+01  -1.6043689e+01  -2.9841261e+02  -1.1172242e+02  -3.8213150e+01  -1.7210503e+01  -4.3755515e+00  -8.4593996e+01  -5.8924094e+01  -3.4712709e+01  -1.4001765e+01   0.0000000e+00
  -7.3800969e+01  -4.0838481e+01  -3.2670785e+01  -2.6778375e+02  -1.4118446e+02  -5.9799204e+01  -3.2379081e+01  -1.4293468e+01  -2.1877758e+01  -2.8878640e+01  -1.2251544e+01  -2.9228684e+02  -1.0122109e+02  -3.9671667e+01  -1.4585172e+01  -2.9170343e+00  -7.9343334e+01  -5.1631508e+01  -2.8295233e+01  -7.5842893e+00   0.0000000e+00
  -7.0592231e+01  -3.6462929e+01  -2.9170343e+01  -2.6807546e+02  -1.3855913e+02  -5.6590466e+01  -3.0337157e+01  -1.2834951e+01  -2.2169461e+01  -2.8003530e+01  -9.9179168e+00  -2.8586937e+02  -9.3345099e+01  -3.9379964e+01  -1.2251544e+01  -8.7511030e-01  -7.5842893e+01  -4.6089143e+01  -2.4503088e+01  -2.3336275e+00   0.0000000e+00
  -6.9425417e+01  -3.6754633e+01  -2.8295233e+01  -2.6924227e+02  -1.3360017e+02  -5.4548542e+01  -2.9462047e+01  -1.1376434e+01  -2.7420123e+01  -2.9170343e+01  -9.6262133e+00  -2.7974359e+02  -8.9552954e+01  -3.6754633e+01  -1.0793027e+01   8.7511030e-01  -7.4092672e+01  -4.3463812e+01  -2.3919682e+01   5.8340687e-01   0.0000000e+00
  -6.9717121e+01  -4.1421888e+01  -2.9753750e+01  -2.6953397e+02  -1.2601588e+02  -5.3381728e+01  -2.9753750e+01  -9.9179168e+00  -3.6171226e+01  -3.1795674e+01  -1.1376434e+01  -2.7390952e+02  -9.0719768e+01  -3.2379081e+01  -1.0209620e+01   2.0419240e+00  -7.3800969e+01  -4.4047219e+01  -2.6253309e+01   8.7511030e-01   0.0000000e+00
  -6.9425417e+01  -4.7547660e+01  -3.2087378e+01  -2.6836716e+02  -1.1609797e+02  -5.2506618e+01  -3.0045454e+01  -7.5842893e+00  -4.4338922e+01  -3.3545895e+01  -1.3710061e+01  -2.6661694e+02  -9.3928506e+01  -2.6545013e+01  -9.3345099e+00   2.6253309e+00  -7.3509265e+01  -4.6089143e+01  -2.9170343e+01   0.0000000e+00   0.0000000e+00
  -6.8258604e+01  -5.3381728e+01  -3.4421005e+01  -2.6632524e+02  -1.0676346e+02  -5.2214915e+01  -2.9753750e+01  -4.6672549e+00  -4.9589584e+01  -3.4712709e+01  -1.5460282e+01  -2.5932435e+02  -9.7137244e+01  -2.1586054e+01  -8.7511030e+00   2.3336275e+00  -7.2925859e+01  -4.8714474e+01  -3.1503971e+01  -8.7511030e-01   0.0000000e+00
  -6.5341569e+01  -5.6007059e+01  -3.5587819e+01  -2.6311650e+02  -9.9762574e+01  -5.1339804e+01  -2.8878640e+01  -2.0419240e+00  -5.0464694e+01  -3.4421005e+01  -1.5460282e+01  -2.5203177e+02  -9.7720650e+01  -1.8085613e+01  -7.2925859e+00   1.7502206e+00  -7.1175638e+01  -4.9881287e+01  -3.1503971e+01  -5.8340687e-01   0.0000000e+00
  -6.0674314e+01  -5.4548542e+01  -3.5004412e+01  -2.5844924e+02  -9.5387023e+01  -4.9297880e+01  -2.7128419e+01   0.0000000e+00  -4.6964253e+01  -3.2379081e+01  -1.3418358e+01  -2.4590600e+02  -9.3928506e+01  -1.6627096e+01  -5.5423652e+00   1.4585172e+00  -6.7966900e+01  -4.8422770e+01  -2.8295233e+01   1.7502206e+00   0.0000000e+00
  -5.5131949e+01  -4.7839363e+01  -3.2087378e+01  -2.5203177e+02  -9.3345099e+01  -4.5505736e+01  -2.4211385e+01   1.1668137e+00  -3.9963370e+01  -2.8295233e+01  -9.3345099e+00  -2.4123874e+02  -8.4885699e+01  -1.7502206e+01  -3.2087378e+00   2.6253309e+00  -6.3007942e+01  -4.3755515e+01  -2.2169461e+01   6.4174756e+00   0.0000000e+00
  -4.9881287e+01  -3.8213150e+01  -2.8003530e+01  -2.4328066e+02  -9.3053396e+01  -4.0546777e+01  -2.1294351e+01   8.7511030e-01  -3.1795674e+01  -2.2752868e+01  -4.3755515e+00  -2.3715489e+02  -7.3217562e+01  -2.0419240e+01  -1.1668137e+00   4.3755515e+00  -5.8048983e+01  -3.7046336e+01  -1.4876875e+01   1.2543248e+01   0.0000000e+00
  -4.6089143e+01  -2.9170343e+01  -2.3919682e+01  -2.3365445e+02  -9.3928506e+01  -3.6171226e+01  -1.8669020e+01   0.0000000e+00  -2.4503088e+01  -1.6918799e+01  -5.8340687e-01  -2.3132082e+02  -6.2132831e+01  -2.3627978e+01   0.0000000e+00   7.0008824e+00  -5.4256839e+01  -2.9753750e+01  -8.7511030e+00   1.8085613e+01   0.0000000e+00
  -4.5505736e+01  -2.4211385e+01  -2.1586054e+01  -2.2490335e+02  -9.6553837e+01  -3.4712709e+01  -1.8377316e+01  -1.1668137e+00  -2.0419240e+01  -1.3710061e+01   2.9170343e-01  -2.2431994e+02  -5.5715356e+01  -2.7420123e+01  -8.7511030e-01   9.3345099e+00  -5.3090025e+01  -2.5378199e+01  -6.4174756e+00   2.1586054e+01   0.0000000e+00
  -4.7255956e+01  -2.4503088e+01  -2.1586054e+01  -2.1673565e+02  -1.0005428e+02  -3.6171226e+01  -1.9835834e+01  -1.4585172e+00  -1.9835834e+01  -1.3126655e+01  -1.1668137e+00  -2.1498543e+02  -5.6007059e+01  -2.9753750e+01  -2.9170343e+00   1.1376434e+01  -5.4548542e+01  -2.3919682e+01  -7.8759927e+00   2.2169461e+01   0.0000000e+00
  -5.1339804e+01  -3.0920564e+01  -2.3919682e+01  -2.1002647e+02  -1.0355472e+02  -4.0838481e+01  -2.3627978e+01  -1.1668137e+00  -2.3044571e+01  -1.6335392e+01  -5.2506618e+00  -2.0477581e+02  -6.3591349e+01  -3.0920564e+01  -6.4174756e+00   1.2543248e+01  -5.8340687e+01  -2.7128419e+01  -1.3710061e+01   1.9544130e+01   0.0000000e+00
  -5.6298763e+01  -4.0546777e+01  -2.8003530e+01  -2.0448411e+02  -1.0588835e+02  -4.6089143e+01  -2.8295233e+01  -1.7502206e+00  -2.8586937e+01  -2.1586054e+01  -1.0501324e+01  -1.9456619e+02  -7.4967783e+01  -3.0920564e+01  -1.0501324e+01   1.3710061e+01  -6.2716238e+01  -3.3254191e+01  -2.1294351e+01   1.4876875e+01   0.0000000e+00
  -5.9507501e+01  -4.8714474e+01  -3.1795674e+01  -1.9923345e+02  -1.0530494e+02  -4.9589584e+01  -3.1795674e+01  -2.3336275e+00  -3.3254191e+01  -2.5961606e+01  -1.4293468e+01  -1.8406487e+02  -8.5177403e+01  -2.9462047e+01  -1.3418358e+01   1.4876875e+01  -6.5633273e+01  -3.9088260e+01  -2.8003530e+01   1.0209620e+01   0.0000000e+00
  -6.0674314e+01  -5.2214915e+01  -3.3837598e+01  -1.9427449e+02  -1.0238791e+02  -5.0464694e+01  -3.4129302e+01  -4.0838481e+00  -3.5296116e+01  -2.8295233e+01  -1.6043689e+01  -1.7473036e+02  -9.0428065e+01  -2.8003530e+01  -1.5168579e+01   1.6043689e+01  -6.5633273e+01  -4.2880405e+01  -3.2087378e+01   6.4174756e+00   0.0000000e+00
  -5.8340687e+01  -4.9006177e+01  -3.2962488e+01  -1.8873212e+02  -9.6845540e+01  -4.7547660e+01  -3.3837598e+01  -4.9589584e+00  -3.2379081e+01  -2.8878640e+01  -1.4876875e+01  -1.6656266e+02  -8.8386141e+01  -2.6545013e+01  -1.4876875e+01   1.7502206e+01  -6.2424535e+01  -4.2880405e+01  -3.1503971e+01   6.1257721e+00   0.0000000e+00
  -5.4256839e+01  -4.0838481e+01  -2.9753750e+01  -1.8348146e+02  -9.1011471e+01  -4.2296998e+01  -3.2087378e+01  -5.5423652e+00  -2.5961606e+01  -2.8295233e+01  -1.1084730e+01  -1.6043689e+02  -7.9926741e+01  -2.6545013e+01  -1.3418358e+01   1.8085613e+01  -5.6882170e+01  -3.8796557e+01  -2.7420123e+01   8.4593996e+00   0.0000000e+00
  -4.9589584e+01  -3.1212267e+01  -2.5086495e+01  -1.7823080e+02  -8.7802734e+01  -3.7629743e+01  -2.9753750e+01  -5.2506618e+00  -1.8669020e+01  -2.8003530e+01  -6.7091790e+00  -1.5664474e+02  -6.8550307e+01  -2.8003530e+01  -1.1959841e+01   1.7793909e+01  -5.1339804e+01  -3.2962488e+01  -2.2169461e+01   1.1959841e+01   0.0000000e+00
  -4.5214032e+01  -2.3336275e+01  -2.0419240e+01  -1.7385525e+02  -8.7219327e+01  -3.5004412e+01  -2.8003530e+01  -4.6672549e+00  -1.3126655e+01  -2.8003530e+01  -2.9170343e+00  -1.5460282e+02  -5.7465577e+01  -3.0045454e+01  -1.0793027e+01   1.7210503e+01  -4.7255956e+01  -2.6545013e+01  -1.7793909e+01   1.6043689e+01   0.0000000e+00
  -4.2588701e+01  -2.0419240e+01  -1.7793909e+01  -1.7093821e+02  -8.8386141e+01  -3.5587819e+01  -2.7711826e+01  -3.5004412e+00  -1.1668137e+01  -2.8878640e+01  -1.1668137e+00  -1.5343601e+02  -5.1339804e+01  -3.1503971e+01  -1.1084730e+01   1.6627096e+01  -4.5797439e+01  -2.2461164e+01  -1.6627096e+01   1.8377316e+01   0.0000000e+00
  -4.1713591e+01  -2.3044571e+01  -1.7210503e+01  -1.6918799e+02  -8.8969547e+01  -3.8504853e+01  -2.8295233e+01  -1.4585172e+00  -1.4293468e+01  -3.0628861e+01  -1.7502206e+00  -1.5139408e+02  -5.1048101e+01  -3.1212267e+01  -1.1668137e+01   1.6918799e+01  -4.6672549e+01  -2.1294351e+01  -1.8669020e+01   1.8669020e+01   0.0000000e+00
  -4.2880405e+01  -3.0337157e+01  -1.9252427e+01  -1.6743777e+02  -8.7511030e+01  -4.2005295e+01  -3.0045454e+01   0.0000000e+00  -1.9835834e+01  -3.3545895e+01  -4.3755515e+00  -1.4906045e+02  -5.6882170e+01  -2.9170343e+01  -1.3126655e+01   1.7210503e+01  -4.9297880e+01  -2.3627978e+01  -2.3336275e+01   1.6335392e+01   0.0000000e+00
  -4.4630625e+01  -3.9963370e+01  -2.2752868e+01  -1.6452074e+02  -8.3718886e+01  -4.4630625e+01  -3.1795674e+01   2.9170343e-01  -2.5086495e+01  -3.7338040e+01  -7.8759927e+00  -1.4643512e+02  -6.5633273e+01  -2.6253309e+01  -1.4293468e+01   1.6627096e+01  -5.2214915e+01  -2.7711826e+01  -2.9170343e+01   1.2251544e+01   0.0000000e+00
  -4.6380846e+01  -4.9006177e+01  -2.7128419e+01  -1.5985348e+02  -7.8759927e+01  -4.4922329e+01  -3.3254191e+01  -1.7502206e+00  -2.8003530e+01  -4.0838481e+01  -1.1668137e+01  -1.4410150e+02  -7.4384376e+01  -2.3336275e+01  -1.5460282e+01   1.4876875e+01  -5.4256839e+01  -3.2670785e+01  -3.3837598e+01   7.0008824e+00   0.0000000e+00
  -4.6089143e+01  -5.4256839e+01  -3.0045454e+01  -1.5431112e+02  -7.4676079e+01  -4.2588701e+01  -3.3254191e+01  -5.5423652e+00  -2.6545013e+01  -4.2296998e+01  -1.4001765e+01  -1.4235128e+02  -7.9343334e+01  -2.1586054e+01  -1.5460282e+01   1.1959841e+01  -5.4256839e+01  -3.5587819e+01  -3.5587819e+01   2.6253309e+00   0.0000000e+00
  -4.4047219e+01  -5.4256839e+01  -3.0628861e+01  -1.4964386e+02  -7.2634155e+01  -3.8213150e+01  -3.2087378e+01  -9.3345099e+00  -2.0710944e+01  -4.1130184e+01  -1.4293468e+01  -1.4118446e+02  -7.8176520e+01  -2.1586054e+01  -1.5168579e+01   8.7511030e+00  -5.2506618e+01  -3.5879522e+01  -3.4129302e+01   8.7511030e-01   0.0000000e+00
  -4.0255074e+01  -4.8131067e+01  -2.8586937e+01  -1.4731023e+02  -7.3217562e+01  -3.3545895e+01  -2.9462047e+01  -1.2251544e+01  -1.1668137e+01  -3.6171226e+01  -1.2543248e+01  -1.4060106e+02  -7.1175638e+01  -2.3919682e+01  -1.4001765e+01   6.1257721e+00  -4.9297880e+01  -3.2670785e+01  -2.9462047e+01   2.0419240e+00   0.0000000e+00
  -3.5879522e+01  -3.8213150e+01  -2.5086495e+01  -1.4789364e+02  -7.5259486e+01  -3.0337157e+01  -2.6253309e+01  -1.3418358e+01  -2.3336275e+00  -2.9753750e+01  -9.9179168e+00  -1.4030935e+02  -6.0382611e+01  -2.7128419e+01  -1.3126655e+01   4.3755515e+00  -4.6089143e+01  -2.7420123e+01  -2.4211385e+01   5.5423652e+00   0.0000000e+00
  -3.2087378e+01  -2.7128419e+01  -2.0710944e+01  -1.4935216e+02  -7.7009707e+01  -3.0045454e+01  -2.3627978e+01  -1.2543248e+01   4.3755515e+00  -2.3919682e+01  -7.0008824e+00  -1.3972594e+02  -4.9881287e+01  -2.9753750e+01  -1.1959841e+01   4.0838481e+00  -4.3755515e+01  -2.1877758e+01  -1.9544130e+01   1.0209620e+01   0.0000000e+00
  -3.0337157e+01  -1.9835834e+01  -1.8085613e+01  -1.4993557e+02  -7.7301410e+01  -3.2670785e+01  -2.2461164e+01  -1.1376434e+01   6.1257721e+00  -2.0710944e+01  -5.8340687e+00  -1.3768402e+02  -4.3755515e+01  -3.1212267e+01  -1.1668137e+01   4.3755515e+00  -4.3755515e+01  -1.8085613e+01  -1.7793909e+01   1.3126655e+01   0.0000000e+00
  -3.0045454e+01  -1.7793909e+01  -1.7210503e+01  -1.4614342e+02  -7.4384376e+01  -3.6171226e+01  -2.2461164e+01  -9.0428065e+00   3.7921446e+00  -2.0419240e+01  -5.8340687e+00  -1.3272506e+02  -4.3172108e+01  -3.0045454e+01  -1.1084730e+01   5.8340687e+00  -4.4630625e+01  -1.6918799e+01  -1.8960723e+01   1.4585172e+01   0.0000000e+00
  -3.1212267e+01  -2.1877758e+01  -1.9252427e+01  -1.3797572e+02  -6.9133714e+01  -3.9671667e+01  -2.4211385e+01  -6.4174756e+00  -2.3336275e+00  -2.2169461e+01  -7.8759927e+00  -1.2484907e+02  -4.8422770e+01  -2.6545013e+01  -1.1084730e+01   6.7091790e+00  -4.6380846e+01  -1.8669020e+01  -2.2752868e+01   1.3418358e+01   0.0000000e+00
  -3.2670785e+01  -2.9753750e+01  -2.2752868e+01  -1.2572418e+02  -6.2716238e+01  -4.0546777e+01  -2.5669902e+01  -3.5004412e+00  -9.3345099e+00  -2.4211385e+01  -1.0793027e+01  -1.1580626e+02  -5.6298763e+01  -2.1294351e+01  -1.0501324e+01   7.5842893e+00  -4.7547660e+01  -2.2169461e+01  -2.7711826e+01   1.0501324e+01   0.0000000e+00
  -3.3837598e+01  -3.7921446e+01  -2.7128419e+01  -1.1172242e+02  -5.7173873e+01  -3.9379964e+01  -2.7128419e+01  -1.1668137e+00  -1.5460282e+01  -2.6253309e+01  -1.3418358e+01  -1.0880538e+02  -6.2716238e+01  -1.5751985e+01  -9.6262133e+00   7.5842893e+00  -4.7839363e+01  -2.6253309e+01  -3.1503971e+01   7.2925859e+00   0.0000000e+00
  -3.2670785e+01  -4.2296998e+01  -2.9753750e+01  -9.8595761e+01  -5.3673432e+01  -3.5296116e+01  -2.6545013e+01   5.8340687e-01  -1.8377316e+01  -2.6545013e+01  -1.4001765e+01  -1.0501324e+02  -6.4174756e+01  -1.0793027e+01  -7.5842893e+00   7.5842893e+00  -4.5505736e+01  -2.8295233e+01  -3.2379081e+01   5.5423652e+00   0.0000000e+00
  -3.0337157e+01  -4.1130184e+01  -3.0045454e+01  -8.9844658e+01  -5.2506618e+01  -2.9462047e+01  -2.4211385e+01   8.7511030e-01  -1.7210503e+01  -2.5086495e+01  -1.2251544e+01  -1.0530494e+02  -6.0090907e+01  -8.4593996e+00  -4.9589584e+00   7.8759927e+00  -4.1713591e+01  -2.7711826e+01  -2.9753750e+01   5.8340687e+00   0.0000000e+00
  -2.6545013e+01  -3.5004412e+01  -2.8003530e+01  -8.6927623e+01  -5.3090025e+01  -2.2752868e+01  -2.0710944e+01   0.0000000e+00  -1.1376434e+01  -2.2461164e+01  -8.7511030e+00  -1.0822197e+02  -5.1048101e+01  -9.0428065e+00  -2.3336275e+00   8.7511030e+00  -3.6462929e+01  -2.3919682e+01  -2.3919682e+01   8.1676962e+00   0.0000000e+00
  -2.2752868e+01  -2.5961606e+01  -2.3627978e+01  -8.9844658e+01  -5.3673432e+01  -1.6335392e+01  -1.6627096e+01  -8.7511030e-01  -3.5004412e+00  -1.9252427e+01  -4.3755515e+00  -1.1172242e+02  -3.9963370e+01  -1.1668137e+01   2.9170343e-01   9.3345099e+00  -3.1503971e+01  -1.8085613e+01  -1.7210503e+01   1.2543248e+01   0.0000000e+00
  -1.9835834e+01  -1.7210503e+01  -1.9252427e+01  -9.6553837e+01  -5.4548542e+01  -1.1668137e+01  -1.2834951e+01  -8.7511030e-01   3.5004412e+00  -1.6043689e+01  -8.7511030e-01  -1.1463945e+02  -3.0628861e+01  -1.4876875e+01   2.0419240e+00   1.0209620e+01  -2.8003530e+01  -1.1668137e+01  -1.1668137e+01   1.6918799e+01   0.0000000e+00
  -1.8669020e+01  -1.2543248e+01  -1.6043689e+01  -1.0384642e+02  -5.5715356e+01  -1.0209620e+01  -1.1376434e+01   2.9170343e-01   5.2506618e+00  -1.3710061e+01   2.9170343e-01  -1.1638967e+02  -2.6253309e+01  -1.7502206e+01   2.3336275e+00   9.9179168e+00  -2.7420123e+01  -7.8759927e+00  -9.6262133e+00   1.9544130e+01   0.0000000e+00
  -1.9835834e+01  -1.3418358e+01  -1.5751985e+01  -1.0909708e+02  -5.6882170e+01  -1.2251544e+01  -1.1959841e+01   1.7502206e+00   8.7511030e-01  -1.2834951e+01  -8.7511030e-01  -1.1697308e+02  -2.8003530e+01  -1.8377316e+01   1.4585172e+00   8.4593996e+00  -2.9462047e+01  -7.5842893e+00  -1.1668137e+01   1.9544130e+01   0.0000000e+00
  -2.2461164e+01  -1.9544130e+01  -1.7793909e+01  -1.1143071e+02  -5.8048983e+01  -1.7502206e+01  -1.4876875e+01   3.2087378e+00  -8.4593996e+00  -1.4001765e+01  -4.6672549e+00  -1.1609797e+02  -3.5587819e+01  -1.7210503e+01  -2.9170343e-01   6.1257721e+00  -3.3545895e+01  -1.1084730e+01  -1.6918799e+01   1.6335392e+01   0.0000000e+00
  -2.5378199e+01  -2.8003530e+01  -2.1294351e+01  -1.1143071e+02  -5.8632390e+01  -2.3336275e+01  -1.8377316e+01   4.3755515e+00  -1.8085613e+01  -1.6627096e+01  -8.7511030e+00  -1.1376434e+02  -4.6089143e+01  -1.4585172e+01  -1.7502206e+00   3.7921446e+00  -3.7921446e+01  -1.6627096e+01  -2.2752868e+01   1.1959841e+01   0.0000000e+00
  -2.7128419e+01  -3.5296116e+01  -2.4503088e+01  -1.1055560e+02  -5.7757280e+01  -2.8003530e+01  -2.0710944e+01   5.5423652e+00  -2.4503088e+01  -1.9252427e+01  -1.1668137e+01  -1.0938879e+02  -5.5131949e+01  -1.1084730e+01  -2.3336275e+00   2.3336275e+00  -4.0255074e+01  -2.1877758e+01  -2.6545013e+01   8.1676962e+00   0.0000000e+00
  -2.7420123e+01  -3.8796557e+01  -2.6253309e+01  -1.1084730e+02  -5.6007059e+01  -2.9753750e+01  -2.1294351e+01   6.1257721e+00  -2.5086495e+01  -2.0419240e+01  -1.3126655e+01  -1.0442983e+02  -5.9507501e+01  -8.4593996e+00  -2.0419240e+00   1.4585172e+00  -3.9963370e+01  -2.5086495e+01  -2.6836716e+01   5.8340687e+00   0.0000000e+00
  -2.5669902e+01  -3.7046336e+01  -2.5378199e+01  -1.1201412e+02  -5.3381728e+01  -2.8586937e+01  -2.0419240e+01   5.8340687e+00  -2.0710944e+01  -2.0127537e+01  -1.2251544e+01  -9.9762574e+01  -5.8048983e+01  -7.5842893e+00  -5.8340687e-01   1.4585172e+00  -3.7338040e+01  -2.5086495e+01  -2.3627978e+01   6.4174756e+00   0.0000000e+00
  -2.1877758e+01  -3.0337157e+01  -2.2752868e+01  -1.1318093e+02  -5.1048101e+01  -2.5378199e+01  -1.8085613e+01   4.3755515e+00  -1.3126655e+01  -1.7502206e+01  -9.6262133e+00  -9.6553837e+01  -5.0464694e+01  -9.0428065e+00   8.7511030e-01   2.3336275e+00  -3.2962488e+01  -2.1877758e+01  -1.7502206e+01   9.3345099e+00   0.0000000e+00
  -1.7793909e+01  -2.1002647e+01  -1.8669020e+01  -1.1318093e+02  -4.9589584e+01  -2.1586054e+01  -1.5460282e+01   1.7502206e+00  -5.5423652e+00  -1.4585172e+01  -6.4174756e+00  -9.5678726e+01  -4.0546777e+01  -1.1959841e+01   2.0419240e+00   3.5004412e+00  -2.8878640e+01  -1.7210503e+01  -1.1668137e+01   1.3418358e+01   0.0000000e+00
  -1.4293468e+01  -1.2251544e+01  -1.4876875e+01  -1.1230582e+02  -4.9006177e+01  -1.8377316e+01  -1.3418358e+01  -1.4585172e+00   5.8340687e-01  -1.2543248e+01  -3.5004412e+00  -9.6553837e+01  -3.1503971e+01  -1.6043689e+01   2.6253309e+00   4.3755515e+00  -2.6545013e+01  -1.2251544e+01  -7.2925859e+00   1.7210503e+01   0.0000000e+00
  -1.2834951e+01  -7.0008824e+00  -1.2251544e+01  -1.0997219e+02  -4.9006177e+01  -1.6918799e+01  -1.2543248e+01  -4.6672549e+00   4.3755515e+00  -1.2543248e+01  -2.0419240e+00  -9.8304057e+01  -2.7128419e+01  -1.9252427e+01   2.0419240e+00   4.9589584e+00  -2.5961606e+01  -9.0428065e+00  -6.1257721e+00   1.9252427e+01   0.0000000e+00
  -1.4293468e+01  -7.2925859e+00  -1.2251544e+01  -1.0734686e+02  -4.9297880e+01  -1.7502206e+01  -1.2834951e+01  -7.8759927e+00   5.5423652e+00  -1.5168579e+01  -2.6253309e+00  -1.0005428e+02  -2.8295233e+01  -2.1294351e+01   5.8340687e-01   4.9589584e+00  -2.8003530e+01  -9.0428065e+00  -8.4593996e+00   1.8960723e+01   0.0000000e+00
  -1.8377316e+01  -1.3418358e+01  -1.5460282e+01  -1.0472153e+02  -4.9006177e+01  -1.9544130e+01  -1.4293468e+01  -1.0209620e+01   4.0838481e+00  -1.9544130e+01  -5.2506618e+00  -1.0180450e+02  -3.5587819e+01  -2.1294351e+01  -1.4585172e+00   4.3755515e+00  -3.1795674e+01  -1.2251544e+01  -1.3418358e+01   1.5751985e+01   0.0000000e+00
  -2.2752868e+01  -2.2461164e+01  -1.9835834e+01  -1.0238791e+02  -4.8131067e+01  -2.1586054e+01  -1.5460282e+01  -1.1084730e+01   1.4585172e+00  -2.3044571e+01  -8.7511030e+00  -1.0238791e+02  -4.5797439e+01  -1.9252427e+01  -2.9170343e+00   4.6672549e+00  -3.5296116e+01  -1.7502206e+01  -1.8085613e+01   1.1668137e+01   0.0000000e+00
  -2.5669902e+01  -3.0920564e+01  -2.4503088e+01  -1.0063768e+02  -4.6964253e+01  -2.2752868e+01  -1.6043689e+01  -1.0793027e+01  -2.3336275e+00  -2.4794792e+01  -1.1668137e+01  -1.0267961e+02  -5.5423652e+01  -1.6335392e+01  -4.0838481e+00   5.5423652e+00  -3.7921446e+01  -2.3044571e+01  -2.0710944e+01   7.8759927e+00   0.0000000e+00
  -2.5669902e+01  -3.5296116e+01  -2.7128419e+01  -1.0034598e+02  -4.6380846e+01  -2.2169461e+01  -1.5460282e+01  -9.3345099e+00  -5.8340687e+00  -2.4211385e+01  -1.3710061e+01  -1.0442983e+02  -6.0966018e+01  -1.4001765e+01  -4.0838481e+00   7.0008824e+00  -3.8504853e+01  -2.6545013e+01  -1.9544130e+01   6.1257721e+00   0.0000000e+00
  -2.3627978e+01  -3.3837598e+01  -2.7420123e+01  -1.0180450e+02  -4.6380846e+01  -1.9544130e+01  -1.3418358e+01  -7.2925859e+00  -8.4593996e+00  -2.1877758e+01  -1.3710061e+01  -1.0822197e+02  -6.0966018e+01  -1.3126655e+01  -3.2087378e+00   8.7511030e+00  -3.7046336e+01  -2.7420123e+01  -1.5168579e+01   6.7091790e+00   0.0000000e+00
  -2.1294351e+01  -2.7420123e+01  -2.5086495e+01  -1.0559664e+02  -4.7839363e+01  -1.6627096e+01  -1.0793027e+01  -5.2506618e+00  -9.6262133e+00  -1.8669020e+01  -1.2251544e+01  -1.1551456e+02  -5.5715356e+01  -1.4876875e+01  -2.9170343e+00   9.9179168e+00  -3.4712709e+01  -2.5669902e+01  -9.0428065e+00   9.3345099e+00   0.0000000e+00
  -1.9544130e+01  -1.8085613e+01  -2.1002647e+01  -1.1143071e+02  -4.9881287e+01  -1.4001765e+01  -8.1676962e+00  -3.7921446e+00  -9.0428065e+00  -1.4876875e+01  -1.0209620e+01  -1.2572418e+02  -4.8131067e+01  -1.8377316e+01  -2.9170343e+00   1.0793027e+01  -3.2670785e+01  -2.2169461e+01  -4.0838481e+00   1.2834951e+01   0.0000000e+00
  -2.1002647e+01  -1.0793027e+01  -1.7502206e+01  -1.2018181e+02  -5.3381728e+01  -1.3418358e+01  -7.2925859e+00  -4.0838481e+00  -9.0428065e+00  -1.1668137e+01  -9.3345099e+00  -1.3885083e+02  -4.2005295e+01  -2.3336275e+01  -4.6672549e+00   1.0501324e+01  -3.2670785e+01  -1.9544130e+01  -3.5004412e+00   1.4876875e+01   0.0000000e+00
  -2.5086495e+01  -8.4593996e+00  -1.5751985e+01  -1.3097484e+02  -5.8340687e+01  -1.5751985e+01  -8.1676962e+00  -5.8340687e+00  -1.0501324e+01  -1.0501324e+01  -9.9179168e+00  -1.5314430e+02  -4.0838481e+01  -2.7420123e+01  -7.5842893e+00   9.0428065e+00  -3.5587819e+01  -1.9252427e+01  -7.8759927e+00   1.4585172e+01   0.0000000e+00
  -3.0337157e+01  -1.1668137e+01  -1.6918799e+01  -1.4439320e+02  -6.5341569e+01  -2.0419240e+01  -1.0793027e+01  -7.5842893e+00  -1.4585172e+01  -1.2251544e+01  -1.2251544e+01  -1.6831288e+02  -4.5505736e+01  -2.9462047e+01  -1.1668137e+01   7.0008824e+00  -4.1130184e+01  -2.2169461e+01  -1.6043689e+01   1.1084730e+01   0.0000000e+00
  -3.6754633e+01  -2.0419240e+01  -2.1002647e+01  -1.5956178e+02  -7.3800969e+01  -2.7711826e+01  -1.5168579e+01  -8.7511030e+00  -2.1877758e+01  -1.8085613e+01  -1.6627096e+01  -1.8377316e+02  -5.6882170e+01  -2.9462047e+01  -1.6043689e+01   4.0838481e+00  -4.9297880e+01  -2.8878640e+01  -2.6545013e+01   4.9589584e+00   0.0000000e+00
  -4.3172108e+01  -3.2379081e+01  -2.6836716e+01  -1.7618887e+02  -8.3427182e+01  -3.5587819e+01  -2.0127537e+01  -9.0428065e+00  -3.0337157e+01  -2.6545013e+01  -2.1877758e+01  -2.0040026e+02  -7.1759045e+01  -2.8878640e+01  -2.0419240e+01   8.7511030e-01  -5.8340687e+01  -3.7921446e+01  -3.5879522e+01  -2.6253309e+00   0.0000000e+00
  -4.9297880e+01  -4.3755515e+01  -3.2670785e+01  -1.9456619e+02  -9.3053396e+01  -4.2588701e+01  -2.4794792e+01  -8.7511030e+00  -3.7338040e+01  -3.6171226e+01  -2.6836716e+01  -2.1819417e+02  -8.6927623e+01  -2.9462047e+01  -2.4503088e+01  -3.2087378e+00  -6.7091790e+01  -4.7547660e+01  -4.2296998e+01  -1.0209620e+01   0.0000000e+00
  -5.4840246e+01  -5.1048101e+01  -3.6754633e+01  -2.1381862e+02  -1.0151280e+02  -4.7547660e+01  -2.8295233e+01  -8.7511030e+00  -4.0255074e+01  -4.3463812e+01  -2.9753750e+01  -2.3715489e+02  -9.8304057e+01  -3.1795674e+01  -2.8003530e+01  -7.2925859e+00  -7.4384376e+01  -5.5423652e+01  -4.4047219e+01  -1.6043689e+01   0.0000000e+00
  -5.9215797e+01  -5.3673432e+01  -3.8796557e+01  -2.3482126e+02  -1.1026390e+02  -5.0172991e+01  -3.0628861e+01  -1.0501324e+01  -3.9379964e+01  -4.8131067e+01  -3.0920564e+01  -2.5728243e+02  -1.0413813e+02  -3.5879522e+01  -3.0920564e+01  -1.1959841e+01  -7.9635038e+01  -6.0674314e+01  -4.2880405e+01  -2.0127537e+01   0.0000000e+00
  -6.2132831e+01  -5.0756398e+01  -3.7921446e+01  -2.5582391e+02  -1.1930670e+02  -5.1048101e+01  -3.1795674e+01  -1.3418358e+01  -3.5879522e+01  -4.9006177e+01  -2.9753750e+01  -2.7682656e+02  -1.0326302e+02  -3.9963370e+01  -3.2379081e+01  -1.6043689e+01  -8.2260368e+01  -6.2132831e+01  -3.8796557e+01  -2.0710944e+01   0.0000000e+00
  -6.3883052e+01  -4.4630625e+01  -3.4712709e+01  -2.7595145e+02  -1.2864121e+02  -5.0756398e+01  -3.2087378e+01  -1.6627096e+01  -3.2962488e+01  -4.7255956e+01  -2.6836716e+01  -2.9520388e+02  -9.7428947e+01  -4.2880405e+01  -3.2087378e+01  -1.8669020e+01  -8.3718886e+01  -6.0674314e+01  -3.5004412e+01  -1.9252427e+01   0.0000000e+00
  -6.5341569e+01  -3.9088260e+01  -3.1212267e+01  -2.9432877e+02  -1.3914254e+02  -5.1339804e+01  -3.2670785e+01  -1.9835834e+01  -3.2670785e+01  -4.5505736e+01  -2.3627978e+01  -3.1183097e+02  -9.1011471e+01  -4.4922329e+01  -3.1795674e+01  -1.9835834e+01  -8.5177403e+01  -5.8632390e+01  -3.3545895e+01  -1.7210503e+01   0.0000000e+00
  -6.7091790e+01  -3.6171226e+01  -2.8586937e+01  -3.0949734e+02  -1.4876875e+02  -5.3673432e+01  -3.3254191e+01  -2.1877758e+01  -3.5296116e+01  -4.4630625e+01  -2.1586054e+01  -3.2641614e+02  -8.7511030e+01  -4.5505736e+01  -3.1212267e+01  -1.8960723e+01  -8.7802734e+01  -5.7173873e+01  -3.5004412e+01  -1.5751985e+01   0.0000000e+00
  -7.0592231e+01  -3.7921446e+01  -2.8586937e+01  -3.2174889e+02  -1.5664474e+02  -5.8048983e+01  -3.4712709e+01  -2.3044571e+01  -4.1421888e+01  -4.5505736e+01  -2.1877758e+01  -3.3895939e+02  -8.9552954e+01  -4.5505736e+01  -3.1503971e+01  -1.7502206e+01  -9.2761692e+01  -5.8340687e+01  -3.9671667e+01  -1.6335392e+01   0.0000000e+00
  -7.6134596e+01  -4.4922329e+01  -3.1795674e+01  -3.3137510e+02  -1.6189541e+02  -6.4466459e+01  -3.7338040e+01  -2.3336275e+01  -5.0756398e+01  -4.7547660e+01  -2.4794792e+01  -3.5033582e+02  -9.8012354e+01  -4.5214032e+01  -3.3254191e+01  -1.6335392e+01  -1.0005428e+02  -6.3591349e+01  -4.6964253e+01  -1.9835834e+01   0.0000000e+00
  -8.2260368e+01  -5.3965135e+01  -3.6462929e+01  -3.3895939e+02  -1.6452074e+02  -7.0300528e+01  -3.9379964e+01  -2.2752868e+01  -5.9799204e+01  -4.9297880e+01  -2.8878640e+01  -3.5850352e+02  -1.0997219e+02  -4.4047219e+01  -3.5004412e+01  -1.4585172e+01  -1.0734686e+02  -7.0300528e+01  -5.3965135e+01  -2.4503088e+01   0.0000000e+00
  -8.8386141e+01  -6.2716238e+01  -4.1130184e+01  -3.4508516e+02  -1.6481244e+02  -7.4384376e+01  -4.0838481e+01  -2.1294351e+01  -6.6800086e+01  -5.0756398e+01  -3.2670785e+01  -3.6317078e+02  -1.2164033e+02  -4.2588701e+01  -3.6171226e+01  -1.2834951e+01  -1.1347264e+02  -7.7301410e+01  -5.8924094e+01  -2.9170343e+01   0.0000000e+00
  -9.2469989e+01  -6.8258604e+01  -4.4630625e+01  -3.5091923e+02  -1.6393733e+02  -7.5842893e+01  -4.0546777e+01  -1.9544130e+01  -6.9717121e+01  -5.1339804e+01  -3.4712709e+01  -3.6492100e+02  -1.3009973e+02  -4.1421888e+01  -3.5879522e+01  -1.0793027e+01  -1.1668137e+02  -8.2260368e+01  -6.0382611e+01  -3.1795674e+01   0.0000000e+00
  -9.4511913e+01  -6.8842010e+01  -4.5797439e+01  -3.5616989e+02  -1.6306222e+02  -7.4384376e+01  -3.8796557e+01  -1.8085613e+01  -6.8550307e+01  -5.1631508e+01  -3.4129302e+01  -3.6521270e+02  -1.3272506e+02  -4.1421888e+01  -3.4421005e+01  -8.4593996e+00  -1.1726478e+02  -8.4010589e+01  -5.8632390e+01  -3.1503971e+01   0.0000000e+00
  -9.3928506e+01  -6.4466459e+01  -4.3463812e+01  -3.6112885e+02  -1.6247881e+02  -7.0592231e+01  -3.5004412e+01  -1.6627096e+01  -6.3007942e+01  -5.0756398e+01  -3.0628861e+01  -3.6608781e+02  -1.3009973e+02  -4.2588701e+01  -3.1795674e+01  -5.8340687e+00  -1.1551456e+02  -8.1968665e+01  -5.3381728e+01  -2.7711826e+01   0.0000000e+00
  -9.2178285e+01  -5.6882170e+01  -3.9379964e+01  -3.6550440e+02  -1.6335392e+02  -6.6800086e+01  -3.0920564e+01  -1.4876875e+01  -5.6298763e+01  -4.9297880e+01  -2.6253309e+01  -3.6987995e+02  -1.2397396e+02  -4.4922329e+01  -2.8586937e+01  -3.2087378e+00  -1.1318093e+02  -7.7301410e+01  -4.7255956e+01  -2.2461164e+01   0.0000000e+00
  -9.1011471e+01  -4.9297880e+01  -3.5004412e+01  -3.7017166e+02  -1.6685436e+02  -6.4174756e+01  -2.7420123e+01  -1.3418358e+01  -5.1048101e+01  -4.8131067e+01  -2.2169461e+01  -3.7600573e+02  -1.1813989e+02  -4.7547660e+01  -2.6253309e+01  -1.4585172e+00  -1.1201412e+02  -7.2634155e+01  -4.1421888e+01  -1.6918799e+01   0.0000000e+00
  -9.1594878e+01  -4.4338922e+01  -3.1212267e+01  -3.7483891e+02  -1.7239673e+02  -6.3883052e+01  -2.5086495e+01  -1.1668137e+01  -4.8422770e+01  -4.7255956e+01  -1.9252427e+01  -3.8300661e+02  -1.1463945e+02  -4.9006177e+01  -2.4211385e+01  -5.8340687e-01  -1.1230582e+02  -6.9133714e+01  -3.7338040e+01  -1.2834951e+01   0.0000000e+00
  -9.3345099e+01  -4.4047219e+01  -2.9753750e+01  -3.7892276e+02  -1.7823080e+02  -6.6216680e+01  -2.4794792e+01  -9.6262133e+00  -4.9006177e+01  -4.7255956e+01  -1.8669020e+01  -3.8913238e+02  -1.1522286e+02  -4.8714474e+01  -2.2752868e+01   0.0000000e+00  -1.1405604e+02  -6.7966900e+01  -3.5879522e+01  -1.1084730e+01   0.0000000e+00
  -9.6262133e+01  -4.9006177e+01  -3.0920564e+01  -3.8125639e+02  -1.8289805e+02  -7.1175638e+01  -2.6253309e+01  -8.1676962e+00  -5.2506618e+01  -4.8131067e+01  -1.9835834e+01  -3.9292453e+02  -1.2018181e+02  -4.6672549e+01  -2.2169461e+01  -5.8340687e-01  -1.1755648e+02  -6.9717121e+01  -3.7629743e+01  -1.1959841e+01   0.0000000e+00
  -9.8887464e+01  -5.6590466e+01  -3.4129302e+01  -3.8096469e+02  -1.8552338e+02  -7.6426300e+01  -2.8878640e+01  -7.5842893e+00  -5.5715356e+01  -4.9006177e+01  -2.1877758e+01  -3.9438304e+02  -1.2776610e+02  -4.3463812e+01  -2.2169461e+01  -1.4585172e+00  -1.2076522e+02  -7.3509265e+01  -4.1421888e+01  -1.4876875e+01   0.0000000e+00
  -1.0034598e+02  -6.3883052e+01  -3.7921446e+01  -3.7804765e+02  -1.8552338e+02  -7.9926741e+01  -3.1212267e+01  -7.2925859e+00  -5.6590466e+01  -4.9297880e+01  -2.3336275e+01  -3.9350793e+02  -1.3476699e+02  -3.9963370e+01  -2.1877758e+01  -2.0419240e+00  -1.2251544e+02  -7.7009707e+01  -4.5214032e+01  -1.7793909e+01   0.0000000e+00
  -1.0063768e+02  -6.6800086e+01  -4.1130184e+01  -3.7367210e+02  -1.8348146e+02  -8.0510148e+01  -3.2087378e+01  -7.2925859e+00  -5.4548542e+01  -4.8422770e+01  -2.3044571e+01  -3.9175771e+02  -1.3826743e+02  -3.7921446e+01  -2.0710944e+01  -2.6253309e+00  -1.2251544e+02  -7.8759927e+01  -4.7547660e+01  -1.9544130e+01   0.0000000e+00
  -9.9179168e+01  -6.4758162e+01  -4.2296998e+01  -3.7046336e+02  -1.7998102e+02  -7.8176520e+01  -3.1503971e+01  -7.2925859e+00  -5.0756398e+01  -4.6380846e+01  -2.1294351e+01  -3.9000749e+02  -1.3739232e+02  -3.7338040e+01  -1.9544130e+01  -2.9170343e+00  -1.2018181e+02  -7.7884817e+01  -4.7255956e+01  -1.8960723e+01   0.0000000e+00
  -9.7137244e+01  -5.7757280e+01  -4.1421888e+01  -3.6929655e+02  -1.7618887e+02  -7.4676079e+01  -3.0337157e+01  -8.4593996e+00  -4.6672549e+01  -4.4338922e+01  -1.8085613e+01  -3.8971579e+02  -1.3184995e+02  -3.9379964e+01  -1.8085613e+01  -3.2087378e+00  -1.1726478e+02  -7.4092672e+01  -4.4338922e+01  -1.6627096e+01   0.0000000e+00
  -9.4511913e+01  -4.7839363e+01  -3.8796557e+01  -3.6929655e+02  -1.7210503e+02  -7.2050748e+01  -2.9462047e+01  -1.0501324e+01  -4.3755515e+01  -4.3463812e+01  -1.4293468e+01  -3.9000749e+02  -1.2397396e+02  -4.2588701e+01  -1.6918799e+01  -3.5004412e+00  -1.1405604e+02  -6.8842010e+01  -3.9088260e+01  -1.3418358e+01   0.0000000e+00
  -9.1886582e+01  -3.8796557e+01  -3.6462929e+01  -3.7017166e+02  -1.6947970e+02  -7.1759045e+01  -3.0045454e+01  -1.4293468e+01  -4.3463812e+01  -4.4047219e+01  -1.1668137e+01  -3.9059090e+02  -1.1668137e+02  -4.6089143e+01  -1.6627096e+01  -4.3755515e+00  -1.1201412e+02  -6.3591349e+01  -3.4129302e+01  -1.1084730e+01   0.0000000e+00
  -9.0136361e+01  -3.4129302e+01  -3.5587819e+01  -3.7017166e+02  -1.6802118e+02  -7.4092672e+01  -3.2087378e+01  -1.8377316e+01  -4.6089143e+01  -4.6089143e+01  -1.0501324e+01  -3.9029919e+02  -1.1347264e+02  -4.8714474e+01  -1.7502206e+01  -5.8340687e+00  -1.1201412e+02  -6.0090907e+01  -3.0920564e+01  -1.0501324e+01   0.0000000e+00
  -8.9844658e+01  -3.4129302e+01  -3.6462929e+01  -3.6842144e+02  -1.6743777e+02  -7.7301410e+01  -3.4712709e+01  -2.1002647e+01  -5.1048101e+01  -4.7839363e+01  -1.0501324e+01  -3.8796557e+02  -1.1493115e+02  -4.9006177e+01  -1.8377316e+01  -7.0008824e+00  -1.1288923e+02  -5.8632390e+01  -2.9753750e+01  -1.1084730e+01   0.0000000e+00
  -9.1303175e+01  -4.0255074e+01  -3.9963370e+01  -3.6754633e+02  -1.6685436e+02  -8.0510148e+01  -3.7921446e+01  -2.2169461e+01  -5.8048983e+01  -4.9006177e+01  -1.2543248e+01  -3.8475683e+02  -1.2280715e+02  -4.7547660e+01  -2.0127537e+01  -8.7511030e+00  -1.1522286e+02  -6.0674314e+01  -3.2379081e+01  -1.4293468e+01   0.0000000e+00
  -9.3345099e+01  -4.8714474e+01  -4.4630625e+01  -3.6696292e+02  -1.6481244e+02  -8.1676962e+01  -3.9379964e+01  -2.1294351e+01  -6.4758162e+01  -4.9297880e+01  -1.5168579e+01  -3.8038128e+02  -1.3301677e+02  -4.3755515e+01  -2.1002647e+01  -1.0501324e+01  -1.1697308e+02  -6.4174756e+01  -3.6171226e+01  -1.8085613e+01   0.0000000e+00
  -9.5970430e+01  -5.7465577e+01  -4.9881287e+01  -3.6871314e+02  -1.6247881e+02  -8.1093555e+01  -4.0255074e+01  -1.9835834e+01  -7.0300528e+01  -5.0172991e+01  -1.8377316e+01  -3.7688084e+02  -1.4322639e+02  -3.9671667e+01  -2.1586054e+01  -1.3126655e+01  -1.1813989e+02  -6.8842010e+01  -4.1130184e+01  -2.2461164e+01   0.0000000e+00
  -9.6845540e+01  -6.1841128e+01  -5.3090025e+01  -3.7133847e+02  -1.5985348e+02  -7.8468224e+01  -3.9671667e+01  -1.8085613e+01  -7.2050748e+01  -5.0464694e+01  -2.0127537e+01  -3.7483891e+02  -1.4847705e+02  -3.5587819e+01  -2.1002647e+01  -1.4876875e+01  -1.1755648e+02  -7.1759045e+01  -4.4047219e+01  -2.5669902e+01   0.0000000e+00
  -9.5678726e+01  -6.0382611e+01  -5.3965135e+01  -3.7454721e+02  -1.5839496e+02  -7.4676079e+01  -3.8213150e+01  -1.6627096e+01  -6.9717121e+01  -4.9297880e+01  -2.0419240e+01  -3.7513062e+02  -1.4818534e+02  -3.3545895e+01  -1.9835834e+01  -1.5460282e+01  -1.1493115e+02  -7.2050748e+01  -4.3755515e+01  -2.6253309e+01   0.0000000e+00
  -9.3345099e+01  -5.3965135e+01  -5.2506618e+01  -3.7863106e+02  -1.5868667e+02  -7.0300528e+01  -3.6171226e+01  -1.5168579e+01  -6.3883052e+01  -4.5505736e+01  -1.9252427e+01  -3.7863106e+02  -1.4205957e+02  -3.4421005e+01  -1.8377316e+01  -1.4585172e+01  -1.1143071e+02  -6.9133714e+01  -3.9963370e+01  -2.4211385e+01   0.0000000e+00
  -9.0428065e+01  -4.4338922e+01  -4.9297880e+01  -3.8271491e+02  -1.5927008e+02  -6.5633273e+01  -3.3254191e+01  -1.3126655e+01  -5.5423652e+01  -3.8796557e+01  -1.6918799e+01  -3.8388172e+02  -1.3272506e+02  -3.7338040e+01  -1.7210503e+01  -1.2251544e+01  -1.0734686e+02  -6.3591349e+01  -3.3837598e+01  -1.9835834e+01   0.0000000e+00
  -8.9552954e+01  -3.5587819e+01  -4.5505736e+01  -3.8592364e+02  -1.6072859e+02  -6.2132831e+01  -3.0337157e+01  -1.0501324e+01  -4.7547660e+01  -3.1212267e+01  -1.5168579e+01  -3.8971579e+02  -1.2368226e+02  -4.2005295e+01  -1.7210503e+01  -9.6262133e+00  -1.0472153e+02  -5.7173873e+01  -2.7711826e+01  -1.4876875e+01   0.0000000e+00
  -9.1011471e+01  -3.1212267e+01  -4.2588701e+01  -3.8709046e+02  -1.6277052e+02  -6.0674314e+01  -2.8586937e+01  -7.8759927e+00  -4.2296998e+01  -2.6545013e+01  -1.5460282e+01  -3.9350793e+02  -1.1784819e+02  -4.6089143e+01  -1.8085613e+01  -8.1676962e+00  -1.0384642e+02  -5.2506618e+01  -2.3919682e+01  -1.1084730e+01   0.0000000e+00
  -9.4511913e+01  -3.1795674e+01  -4.0838481e+01  -3.8475683e+02  -1.6539585e+02  -6.1549425e+01  -2.8003530e+01  -5.5423652e+00  -4.0838481e+01  -2.6836716e+01  -1.7502206e+01  -3.9292453e+02  -1.1580626e+02  -4.6964253e+01  -1.9544130e+01  -7.2925859e+00  -1.0501324e+02  -5.0172991e+01  -2.3336275e+01  -9.6262133e+00   0.0000000e+00
  -9.8887464e+01  -3.7921446e+01  -4.0838481e+01  -3.7892276e+02  -1.6802118e+02  -6.5049866e+01  -2.8878640e+01  -4.0838481e+00  -4.4047219e+01  -3.2670785e+01  -2.1586054e+01  -3.8738216e+02  -1.1813989e+02  -4.4338922e+01  -2.1002647e+01  -7.2925859e+00  -1.0734686e+02  -5.1339804e+01  -2.6253309e+01  -1.0793027e+01   0.0000000e+00
  -1.0238791e+02  -4.6964253e+01  -4.2005295e+01  -3.7192188e+02  -1.6918799e+02  -6.8842010e+01  -3.0337157e+01  -2.9170343e+00  -5.0172991e+01  -4.1130184e+01  -2.5961606e+01  -3.7833935e+02  -1.2309885e+02  -3.9379964e+01  -2.2169461e+01  -7.2925859e+00  -1.1026390e+02  -5.4256839e+01  -3.0628861e+01  -1.3418358e+01   0.0000000e+00
  -1.0355472e+02  -5.6007059e+01  -4.3755515e+01  -3.6579611e+02  -1.6714607e+02  -7.2050748e+01  -3.1503971e+01  -2.3336275e+00  -5.6882170e+01  -4.8422770e+01  -2.9170343e+01  -3.6900484e+02  -1.2864121e+02  -3.3545895e+01  -2.2461164e+01  -7.0008824e+00  -1.1201412e+02  -5.7757280e+01  -3.4712709e+01  -1.6627096e+01   0.0000000e+00
  -1.0180450e+02  -6.1257721e+01  -4.4630625e+01  -3.6229567e+02  -1.6247881e+02  -7.2050748e+01  -3.0920564e+01  -2.0419240e+00  -6.0090907e+01  -5.0756398e+01  -2.9753750e+01  -3.6229567e+02  -1.3068314e+02  -2.9170343e+01  -2.1294351e+01  -5.8340687e+00  -1.1143071e+02  -5.9507501e+01  -3.5879522e+01  -1.8085613e+01   0.0000000e+00
  -9.7720650e+01  -6.1549425e+01  -4.4338922e+01  -3.6083715e+02  -1.5722815e+02  -6.9717121e+01  -2.8878640e+01  -3.5004412e+00  -5.8048983e+01  -4.9881287e+01  -2.8586937e+01  -3.6083715e+02  -1.2893292e+02  -2.7711826e+01  -2.0127537e+01  -5.2506618e+00  -1.0880538e+02  -5.8924094e+01  -3.3837598e+01  -1.8085613e+01   0.0000000e+00
  -9.2178285e+01  -5.6298763e+01  -4.1713591e+01  -3.5967033e+02  -1.5343601e+02  -6.5341569e+01  -2.5086495e+01  -5.2506618e+00  -5.0756398e+01  -4.6964253e+01  -2.5669902e+01  -3.6375418e+02  -1.2193204e+02  -2.8586937e+01  -1.8669020e+01  -4.9589584e+00  -1.0472153e+02  -5.4840246e+01  -2.8586937e+01  -1.5751985e+01   0.0000000e+00
  -8.6052513e+01  -4.7255956e+01  -3.6462929e+01  -3.5733671e+02  -1.5168579e+02  -6.0090907e+01  -2.0127537e+01  -7.0008824e+00  -3.9963370e+01  -4.3755515e+01  -2.1586054e+01  -3.6783803e+02  -1.1172242e+02  -3.0628861e+01  -1.6627096e+01  -4.0838481e+00  -9.9762574e+01  -4.8422770e+01  -2.1294351e+01  -1.1668137e+01   0.0000000e+00
  -8.1676962e+01  -3.8213150e+01  -3.1212267e+01  -3.5500308e+02  -1.5226919e+02  -5.6590466e+01  -1.6335392e+01  -8.4593996e+00  -3.0628861e+01  -4.2005295e+01  -1.8377316e+01  -3.7104677e+02  -1.0238791e+02  -3.3545895e+01  -1.6043689e+01  -3.5004412e+00  -9.6262133e+01  -4.2005295e+01  -1.5460282e+01  -7.8759927e+00   0.0000000e+00
  -7.9343334e+01  -3.2379081e+01  -2.7420123e+01  -3.5354456e+02  -1.5285260e+02  -5.5715356e+01  -1.4293468e+01  -9.0428065e+00  -2.5669902e+01  -4.0838481e+01  -1.6918799e+01  -3.7133847e+02  -9.6845540e+01  -3.5587819e+01  -1.6335392e+01  -2.6253309e+00  -9.5095320e+01  -3.7338040e+01  -1.2543248e+01  -5.2506618e+00   0.0000000e+00
  -7.9051631e+01  -3.1795674e+01  -2.6836716e+01  -3.5383627e+02  -1.5226919e+02  -5.7757280e+01  -1.4585172e+01  -9.0428065e+00  -2.7420123e+01  -3.9379964e+01  -1.7793909e+01  -3.6900484e+02  -9.7428947e+01  -3.7046336e+01  -1.7793909e+01  -2.0419240e+00  -9.6845540e+01  -3.5879522e+01  -1.3418358e+01  -5.2506618e+00   0.0000000e+00
  -8.0510148e+01  -3.6754633e+01  -2.9462047e+01  -3.5441967e+02  -1.4935216e+02  -6.2132831e+01  -1.7502206e+01  -8.4593996e+00  -3.5004412e+01  -3.7629743e+01  -2.0710944e+01  -3.6462929e+02  -1.0413813e+02  -3.7046336e+01  -2.0127537e+01  -2.0419240e+00  -1.0034598e+02  -3.8504853e+01  -1.8085613e+01  -7.8759927e+00   0.0000000e+00
  -8.2260368e+01  -4.4922329e+01  -3.4129302e+01  -3.5354456e+02  -1.4468490e+02  -6.6508383e+01  -2.1294351e+01  -7.2925859e+00  -4.5214032e+01  -3.6462929e+01  -2.4794792e+01  -3.5996204e+02  -1.1434775e+02  -3.5587819e+01  -2.2461164e+01  -2.9170343e+00  -1.0413813e+02  -4.3755515e+01  -2.4794792e+01  -1.2543248e+01   0.0000000e+00
  -8.3135479e+01  -5.3381728e+01  -3.9088260e+01  -3.4975242e+02  -1.3855913e+02  -6.9133714e+01  -2.4794792e+01  -6.1257721e+00  -5.4548542e+01  -3.6462929e+01  -2.8295233e+01  -3.5471138e+02  -1.2368226e+02  -3.2962488e+01  -2.3919682e+01  -4.0838481e+00  -1.0647175e+02  -4.9297880e+01  -3.0920564e+01  -1.7210503e+01   0.0000000e+00
  -8.2843775e+01  -5.7465577e+01  -4.1713591e+01  -3.4245983e+02  -1.3243336e+02  -6.7966900e+01  -2.5961606e+01  -4.9589584e+00  -5.9507501e+01  -3.6462929e+01  -2.9462047e+01  -3.4829390e+02  -1.2776610e+02  -2.9753750e+01  -2.4211385e+01  -5.2506618e+00  -1.0559664e+02  -5.2506618e+01  -3.4129302e+01  -2.0127537e+01   0.0000000e+00
  -8.1385258e+01  -5.5715356e+01  -4.1713591e+01  -3.3370873e+02  -1.2776610e+02  -6.3299645e+01  -2.5378199e+01  -4.0838481e+00  -5.9799204e+01  -3.6462929e+01  -2.8586937e+01  -3.3983450e+02  -1.2484907e+02  -2.7711826e+01  -2.2752868e+01  -6.4174756e+00  -1.0180450e+02  -5.2214915e+01  -3.3545895e+01  -2.0419240e+01   0.0000000e+00
  -7.9051631e+01  -4.8422770e+01  -3.8504853e+01  -3.2495763e+02  -1.2572418e+02  -5.6882170e+01  -2.2752868e+01  -4.0838481e+00  -5.5423652e+01  -3.5296116e+01  -2.5378199e+01  -3.2874977e+02  -1.1551456e+02  -2.7420123e+01  -2.0710944e+01  -7.2925859e+00  -9.6262133e+01  -4.8131067e+01  -2.9462047e+01  -1.7793909e+01   0.0000000e+00
  -7.6134596e+01  -3.8213150e+01  -3.4129302e+01  -3.1649823e+02  -1.2484907e+02  -5.0756398e+01  -1.9252427e+01  -4.6672549e+00  -4.9006177e+01  -3.3837598e+01  -2.1294351e+01  -3.1678993e+02  -1.0297131e+02  -2.8586937e+01  -1.8669020e+01  -7.5842893e+00  -9.0428065e+01  -4.2005295e+01  -2.3336275e+01  -1.3418358e+01   0.0000000e+00
  -7.2634155e+01  -2.8295233e+01  -2.9170343e+01  -3.0687201e+02  -1.2426566e+02  -4.6380846e+01  -1.5751985e+01  -5.5423652e+00  -4.2588701e+01  -3.2379081e+01  -1.6627096e+01  -3.0512179e+02  -9.0428065e+01  -3.0337157e+01  -1.6627096e+01  -7.5842893e+00  -8.5469106e+01  -3.4712709e+01  -1.6918799e+01  -8.7511030e+00   0.0000000e+00
  -7.0008824e+01  -2.2752868e+01  -2.6253309e+01  -2.9578728e+02  -1.2309885e+02  -4.5214032e+01  -1.3710061e+01  -7.5842893e+00  -3.9088260e+01  -3.2670785e+01  -1.4001765e+01  -2.9637069e+02  -8.2552072e+01  -3.2379081e+01  -1.5751985e+01  -7.2925859e+00  -8.3135479e+01  -2.9462047e+01  -1.3126655e+01  -6.1257721e+00   0.0000000e+00
  -6.9133714e+01  -2.2752868e+01  -2.6253309e+01  -2.8353574e+02  -1.2134863e+02  -4.6089143e+01  -1.4001765e+01  -9.6262133e+00  -3.8504853e+01  -3.4421005e+01  -1.3418358e+01  -2.8995321e+02  -8.1093555e+01  -3.3837598e+01  -1.6335392e+01  -7.2925859e+00  -8.3718886e+01  -2.7128419e+01  -1.3126655e+01  -6.1257721e+00   0.0000000e+00
  -7.0300528e+01  -2.9170343e+01  -2.9462047e+01  -2.7157590e+02  -1.1959841e+02  -4.8422770e+01  -1.6043689e+01  -1.1376434e+01  -4.0838481e+01  -3.7046336e+01  -1.4876875e+01  -2.8528596e+02  -8.6344217e+01  -3.4712709e+01  -1.8085613e+01  -7.5842893e+00  -8.6344217e+01  -2.8878640e+01  -1.7210503e+01  -8.7511030e+00   0.0000000e+00
  -7.2634155e+01  -3.9088260e+01  -3.4712709e+01  -2.6224139e+02  -1.1784819e+02  -5.0756398e+01  -1.9252427e+01  -1.2834951e+01  -4.4338922e+01  -3.9671667e+01  -1.7793909e+01  -2.8207722e+02  -9.5678726e+01  -3.5004412e+01  -2.1002647e+01  -7.5842893e+00  -9.0136361e+01  -3.3545895e+01  -2.4503088e+01  -1.3418358e+01   0.0000000e+00
  -7.3800969e+01  -4.8714474e+01  -3.9963370e+01  -2.5494880e+02  -1.1609797e+02  -5.1923211e+01  -2.2169461e+01  -1.2543248e+01  -4.7839363e+01  -4.1130184e+01  -2.0419240e+01  -2.7916019e+02  -1.0501324e+02  -3.4712709e+01  -2.3044571e+01  -6.7091790e+00  -9.2761692e+01  -3.8796557e+01  -3.1503971e+01  -1.7502206e+01   0.0000000e+00
  -7.2342452e+01  -5.4256839e+01  -4.2880405e+01  -2.4911473e+02  -1.1434775e+02  -5.1631508e+01  -2.3627978e+01  -1.1084730e+01  -4.9589584e+01  -4.2005295e+01  -2.0710944e+01  -2.7653486e+02  -1.1055560e+02  -3.3837598e+01  -2.3627978e+01  -4.9589584e+00  -9.3053396e+01  -4.2588701e+01  -3.5879522e+01  -1.9252427e+01   0.0000000e+00
  -6.7091790e+01  -5.3673432e+01  -4.3172108e+01  -2.4298896e+02  -1.1201412e+02  -5.0172991e+01  -2.2752868e+01  -9.0428065e+00  -4.9006177e+01  -4.2005295e+01  -1.8377316e+01  -2.7332612e+02  -1.0997219e+02  -3.2962488e+01  -2.2461164e+01  -2.3336275e+00  -9.0136361e+01  -4.2880405e+01  -3.6462929e+01  -1.8085613e+01   0.0000000e+00
  -5.8632390e+01  -4.6380846e+01  -3.9671667e+01  -2.3511297e+02  -1.0880538e+02  -4.7255956e+01  -1.9544130e+01  -6.4174756e+00  -4.5214032e+01  -4.0838481e+01  -1.2834951e+01  -2.6865886e+02  -1.0238791e+02  -3.2087378e+01  -1.9252427e+01   1.1668137e+00  -8.4593996e+01  -3.8796557e+01  -3.1503971e+01  -1.3710061e+01   0.0000000e+00
  -4.8422770e+01  -3.5296116e+01  -3.3545895e+01  -2.2723698e+02  -1.0501324e+02  -4.3463812e+01  -1.5460282e+01  -4.6672549e+00  -4.0255074e+01  -3.9671667e+01  -5.2506618e+00  -2.6282479e+02  -9.1303175e+01  -3.1503971e+01  -1.4585172e+01   5.2506618e+00  -7.7593113e+01  -3.1795674e+01  -2.3627978e+01  -7.0008824e+00   0.0000000e+00
  -3.9671667e+01  -2.4503088e+01  -2.7128419e+01  -2.2140291e+02  -1.0151280e+02  -4.0546777e+01  -1.1376434e+01  -4.0838481e+00  -3.5587819e+01  -3.8796557e+01   2.3336275e+00  -2.5669902e+02  -7.9926741e+01  -3.1795674e+01  -1.0501324e+01   9.0428065e+00  -7.1759045e+01  -2.4503088e+01  -1.5460282e+01  -5.8340687e-01   0.0000000e+00
  -3.4421005e+01  -1.8085613e+01  -2.2461164e+01  -2.1906928e+02  -9.8012354e+01  -3.9671667e+01  -9.3345099e+00  -5.2506618e+00  -3.4129302e+01  -3.8796557e+01   7.2925859e+00  -2.5115666e+02  -7.3217562e+01  -3.2087378e+01  -7.8759927e+00   1.1084730e+01  -6.8550307e+01  -1.9252427e+01  -1.0209620e+01   3.2087378e+00   0.0000000e+00
  -3.2962488e+01  -1.7210503e+01  -2.1002647e+01  -2.1819417e+02  -9.3928506e+01  -4.0838481e+01  -9.6262133e+00  -7.5842893e+00  -3.5587819e+01  -3.9379964e+01   8.4593996e+00  -2.4503088e+02  -7.2342452e+01  -3.2670785e+01  -7.8759927e+00   1.1376434e+01  -6.8842010e+01  -1.7502206e+01  -9.0428065e+00   3.5004412e+00   0.0000000e+00
  -3.4712709e+01  -2.1586054e+01  -2.2461164e+01  -2.1527713e+02  -8.8677844e+01  -4.3755515e+01  -1.1959841e+01  -9.3345099e+00  -3.8504853e+01  -3.9963370e+01   5.5423652e+00  -2.3773830e+02  -7.7593113e+01  -3.2087378e+01  -9.3345099e+00   9.6262133e+00  -7.1175638e+01  -1.9252427e+01  -1.2543248e+01   2.9170343e-01   0.0000000e+00
  -3.7629743e+01  -2.8586937e+01  -2.5961606e+01  -2.0798455e+02  -8.3135479e+01  -4.6964253e+01  -1.5460282e+01  -9.9179168e+00  -4.0838481e+01  -3.9379964e+01  -2.9170343e-01  -2.2957060e+02  -8.6052513e+01  -3.0337157e+01  -1.2251544e+01   6.1257721e+00  -7.4384376e+01  -2.3336275e+01  -1.8377316e+01  -4.6672549e+00   0.0000000e+00
  -3.9671667e+01  -3.5296116e+01  -2.9170343e+01  -1.9602471e+02  -7.7301410e+01  -4.7839363e+01  -1.8085613e+01  -8.1676962e+00  -3.9963370e+01  -3.5879522e+01  -5.5423652e+00  -2.2111120e+02  -9.3345099e+01  -2.6545013e+01  -1.3710061e+01   2.9170343e+00  -7.5259486e+01  -2.7128419e+01  -2.3919682e+01  -9.0428065e+00   0.0000000e+00
  -3.9671667e+01  -3.9088260e+01  -3.0628861e+01  -1.8318976e+02  -7.1759045e+01  -4.5505736e+01  -1.9252427e+01  -5.5423652e+00  -3.5587819e+01  -2.9753750e+01  -8.7511030e+00  -2.1352691e+02  -9.5970430e+01  -2.2169461e+01  -1.4001765e+01   5.8340687e-01  -7.3217562e+01  -2.8878640e+01  -2.6545013e+01  -1.1668137e+01   0.0000000e+00
  -3.8796557e+01  -3.9088260e+01  -3.0337157e+01  -1.7385525e+02  -6.7966900e+01  -4.1421888e+01  -1.9252427e+01  -3.5004412e+00  -2.9170343e+01  -2.2752868e+01  -8.7511030e+00  -2.0856796e+02  -9.3636802e+01  -1.9252427e+01  -1.2834951e+01  -8.7511030e-01  -6.9133714e+01  -2.8295233e+01  -2.5961606e+01  -1.1668137e+01   0.0000000e+00
  -3.6462929e+01  -3.3545895e+01  -2.7711826e+01  -1.6947970e+02  -6.6508383e+01  -3.5879522e+01  -1.7793909e+01  -2.9170343e+00  -2.1294351e+01  -1.6627096e+01  -6.1257721e+00  -2.0535922e+02  -8.5177403e+01  -1.7793909e+01  -1.0501324e+01  -2.9170343e-01  -6.3591349e+01  -2.4794792e+01  -2.1877758e+01  -9.3345099e+00   0.0000000e+00
  -3.4129302e+01  -2.4211385e+01  -2.3627978e+01  -1.6831288e+02  -6.5924976e+01  -3.0920564e+01  -1.5751985e+01  -2.9170343e+00  -1.4001765e+01  -1.3126655e+01  -2.3336275e+00  -2.0273389e+02  -7.4092672e+01  -1.8085613e+01  -7.5842893e+00   1.7502206e+00  -5.8048983e+01  -1.9544130e+01  -1.5751985e+01  -4.6672549e+00   0.0000000e+00
  -3.1795674e+01  -1.3126655e+01  -1.8669020e+01  -1.6685436e+02  -6.5341569e+01  -2.7128419e+01  -1.3126655e+01  -2.0419240e+00  -8.1676962e+00  -1.1959841e+01   1.4585172e+00  -1.9923345e+02  -6.1841128e+01  -1.8085613e+01  -4.0838481e+00   5.2506618e+00  -5.2798322e+01  -1.2834951e+01  -9.0428065e+00   8.7511030e-01   0.0000000e+00
  -3.0628861e+01  -4.6672549e+00  -1.4585172e+01  -1.6247881e+02  -6.3591349e+01  -2.4794792e+01  -1.0501324e+01   2.9170343e-01  -5.5423652e+00  -1.2543248e+01   3.7921446e+00  -1.9427449e+02  -5.1923211e+01  -1.7210503e+01  -1.1668137e+00   8.7511030e+00  -4.9006177e+01  -7.2925859e+00  -4.0838481e+00   6.1257721e+00   0.0000000e+00
  -3.0920564e+01  -1.7502206e+00  -1.2543248e+01  -1.5489452e+02  -6.0966018e+01  -2.4503088e+01  -9.0428065e+00   3.2087378e+00  -6.4174756e+00  -1.3710061e+01   4.3755515e+00  -1.8814872e+02  -4.6380846e+01  -1.4585172e+01   1.1668137e+00   1.1668137e+01  -4.6672549e+01  -3.7921446e+00  -1.4585172e+00   9.0428065e+00   0.0000000e+00
  -3.1795674e+01  -6.4174756e+00  -1.3418358e+01  -1.4468490e+02  -5.8632390e+01  -2.5669902e+01  -9.0428065e+00   5.5423652e+00  -1.0501324e+01  -1.5168579e+01   2.9170343e+00  -1.8114783e+02  -4.6089143e+01  -1.0793027e+01   2.0419240e+00   1.3126655e+01  -4.6089143e+01  -3.7921446e+00  -2.9170343e+00   9.0428065e+00   0.0000000e+00
  -3.2962488e+01  -1.5751985e+01  -1.6918799e+01  -1.3447528e+02  -5.6590466e+01  -2.7420123e+01  -1.0209620e+01   6.1257721e+00  -1.6627096e+01  -1.6918799e+01   1.1668137e+00  -1.7268843e+02  -4.9006177e+01  -6.1257721e+00   2.6253309e+00   1.3418358e+01  -4.6089143e+01  -6.4174756e+00  -6.1257721e+00   6.4174756e+00   0.0000000e+00
  -3.3545895e+01  -2.6545013e+01  -2.1877758e+01  -1.2630759e+02  -5.4840246e+01  -2.8586937e+01  -1.1959841e+01   4.9589584e+00  -2.2752868e+01  -1.9835834e+01  -8.7511030e-01  -1.6306222e+02  -5.3090025e+01  -2.0419240e+00   2.9170343e+00   1.2834951e+01  -4.5797439e+01  -1.0209620e+01  -1.0209620e+01   2.0419240e+00   0.0000000e+00
  -3.2379081e+01  -3.4421005e+01  -2.5961606e+01  -1.2076522e+02  -5.3090025e+01  -2.6836716e+01  -1.2834951e+01   2.6253309e+00  -2.5961606e+01  -2.2752868e+01  -1.4585172e+00  -1.5256090e+02  -5.5131949e+01   2.9170343e-01   3.7921446e+00   1.2251544e+01  -4.4338922e+01  -1.3126655e+01  -1.2251544e+01  -1.4585172e+00   0.0000000e+00
  -2.9753750e+01  -3.7046336e+01  -2.7420123e+01  -1.1726478e+02  -5.1631508e+01  -2.2752868e+01  -1.3126655e+01   0.0000000e+00  -2.4794792e+01  -2.5086495e+01  -8.7511030e-01  -1.4205957e+02  -5.3965135e+01   0.0000000e+00   4.6672549e+00   1.1668137e+01  -4.1713591e+01  -1.3710061e+01  -1.1668137e+01  -3.2087378e+00   0.0000000e+00
  -2.5669902e+01  -3.4129302e+01  -2.6253309e+01  -1.1638967e+02  -5.1048101e+01  -1.7210503e+01  -1.2834951e+01  -2.3336275e+00  -1.8960723e+01  -2.5086495e+01   5.8340687e-01  -1.3389188e+02  -4.9006177e+01  -3.5004412e+00   5.2506618e+00   1.1376434e+01  -3.7921446e+01  -1.1376434e+01  -8.4593996e+00  -2.0419240e+00   0.0000000e+00
  -2.1002647e+01  -2.6836716e+01  -2.2752868e+01  -1.1668137e+02  -5.1631508e+01  -1.2251544e+01  -1.1668137e+01  -3.2087378e+00  -1.0209620e+01  -2.1586054e+01   2.9170343e+00  -1.2747440e+02  -4.1713591e+01  -8.4593996e+00   5.5423652e+00   1.1959841e+01  -3.4421005e+01  -6.7091790e+00  -3.7921446e+00   1.1668137e+00   0.0000000e+00
  -1.7502206e+01  -1.8377316e+01  -1.8085613e+01  -1.1784819e+02  -5.3381728e+01  -9.6262133e+00  -1.0501324e+01  -2.3336275e+00  -1.1668137e+00  -1.6335392e+01   4.9589584e+00  -1.2280715e+02  -3.5296116e+01  -1.3710061e+01   4.9589584e+00   1.2543248e+01  -3.2379081e+01  -1.4585172e+00   2.9170343e-01   5.2506618e+00   0.0000000e+00
  -1.5751985e+01  -1.1668137e+01  -1.4293468e+01  -1.1843159e+02  -5.4256839e+01  -9.6262133e+00  -9.6262133e+00   5.8340687e-01   4.6672549e+00  -1.1376434e+01   6.4174756e+00  -1.1784819e+02  -3.2379081e+01  -1.7210503e+01   4.0838481e+00   1.3418358e+01  -3.1795674e+01   2.6253309e+00   2.9170343e+00   8.7511030e+00   0.0000000e+00
  -1.5460282e+01  -8.7511030e+00  -1.2251544e+01  -1.1755648e+02  -5.3090025e+01  -1.1668137e+01  -9.6262133e+00   5.2506618e+00   5.2506618e+00  -8.4593996e+00   6.7091790e+00  -1.1143071e+02  -3.3837598e+01  -1.8085613e+01   3.2087378e+00   1.4293468e+01  -3.3254191e+01   4.6672549e+00   2.6253309e+00   1.0793027e+01   0.0000000e+00
  -1.7210503e+01  -1.1084730e+01  -1.3126655e+01  -1.1463945e+02  -4.9589584e+01  -1.5751985e+01  -1.0209620e+01   1.0793027e+01   2.9170343e-01  -1.0209620e+01   4.9589584e+00  -1.0442983e+02  -4.0255074e+01  -1.6627096e+01   1.7502206e+00   1.4585172e+01  -3.6171226e+01   2.9170343e+00  -5.8340687e-01   1.0501324e+01   0.0000000e+00
  -1.8669020e+01  -1.6918799e+01  -1.5460282e+01  -1.1026390e+02  -4.3755515e+01  -1.9252427e+01  -1.1084730e+01   1.6627096e+01  -6.7091790e+00  -1.4585172e+01   2.3336275e+00  -9.8304057e+01  -4.8714474e+01  -1.3418358e+01   1.1668137e+00   1.5460282e+01  -3.8796557e+01  -8.7511030e-01  -4.9589584e+00   9.0428065e+00   0.0000000e+00
  -1.9835834e+01  -2.4211385e+01  -1.9252427e+01  -1.0559664e+02  -3.7921446e+01  -2.1586054e+01  -1.1668137e+01   2.1002647e+01  -1.3126655e+01  -2.0127537e+01  -8.7511030e-01  -9.5095320e+01  -5.7465577e+01  -1.0209620e+01   5.8340687e-01   1.5751985e+01  -4.1130184e+01  -5.8340687e+00  -9.6262133e+00   6.4174756e+00   0.0000000e+00
  -1.9252427e+01  -2.9170343e+01  -2.2169461e+01  -1.0180450e+02  -3.3254191e+01  -2.2169461e+01  -1.1376434e+01   2.4503088e+01  -1.5751985e+01  -2.3919682e+01  -3.2087378e+00  -9.4803616e+01  -6.3591349e+01  -7.8759927e+00   5.8340687e-01   1.6335392e+01  -4.1421888e+01  -1.0209620e+01  -1.2251544e+01   4.9589584e+00   0.0000000e+00
  -1.7502206e+01  -2.9753750e+01  -2.3044571e+01  -9.9762574e+01  -3.0920564e+01  -2.0710944e+01  -1.0501324e+01   2.6545013e+01  -1.4585172e+01  -2.4794792e+01  -4.0838481e+00  -9.6845540e+01  -6.5049866e+01  -7.5842893e+00   1.1668137e+00   1.6918799e+01  -3.9963370e+01  -1.2834951e+01  -1.2543248e+01   4.9589584e+00   0.0000000e+00
  -1.4876875e+01  -2.5669902e+01  -2.1877758e+01  -9.9179168e+01  -3.0920564e+01  -1.7793909e+01  -9.9179168e+00   2.6545013e+01  -1.0209620e+01  -2.3044571e+01  -3.2087378e+00  -9.9762574e+01  -6.1549425e+01  -9.9179168e+00   1.7502206e+00   1.6627096e+01  -3.7046336e+01  -1.2543248e+01  -1.0501324e+01   6.7091790e+00   0.0000000e+00
  -1.1668137e+01  -1.8377316e+01  -1.8669020e+01  -9.8887464e+01  -3.2087378e+01  -1.4293468e+01  -9.0428065e+00   2.5086495e+01  -4.9589584e+00  -1.9544130e+01  -8.7511030e-01  -1.0180450e+02  -5.3673432e+01  -1.3418358e+01   2.3336275e+00   1.6043689e+01  -3.2962488e+01  -9.6262133e+00  -6.4174756e+00   9.9179168e+00   0.0000000e+00
  -8.1676962e+00  -1.0501324e+01  -1.5168579e+01  -9.6845540e+01  -3.2962488e+01  -1.1668137e+01  -8.1676962e+00   2.1877758e+01   0.0000000e+00  -1.6918799e+01   1.7502206e+00  -1.0267961e+02  -4.4047219e+01  -1.7502206e+01   1.7502206e+00   1.4585172e+01  -2.9753750e+01  -5.5423652e+00  -2.3336275e+00   1.3126655e+01   0.0000000e+00
  -4.3755515e+00  -5.5423652e+00  -1.2834951e+01  -9.1594878e+01  -3.1503971e+01  -1.0209620e+01  -6.4174756e+00   1.8085613e+01   2.6253309e+00  -1.4876875e+01   3.5004412e+00  -1.0122109e+02  -3.6171226e+01  -2.0127537e+01   1.1668137e+00   1.3418358e+01  -2.7420123e+01  -1.4585172e+00   8.7511030e-01   1.6043689e+01   0.0000000e+00
  -2.0419240e+00  -6.1257721e+00  -1.3126655e+01  -8.3135479e+01  -2.7711826e+01  -1.0793027e+01  -4.3755515e+00   1.4293468e+01   2.0419240e+00  -1.4001765e+01   3.5004412e+00  -9.8595761e+01  -3.2670785e+01  -2.0419240e+01   0.0000000e+00   1.1959841e+01  -2.7128419e+01   5.8340687e-01   1.7502206e+00   1.7210503e+01   0.0000000e+00
  -1.4585172e+00  -1.2251544e+01  -1.5751985e+01  -7.1467341e+01  -2.2461164e+01  -1.3126655e+01  -2.9170343e+00   1.1084730e+01  -1.7502206e+00  -1.3710061e+01   1.7502206e+00  -9.3928506e+01  -3.4129302e+01  -1.8085613e+01  -1.4585172e+00   1.0793027e+01  -2.8878640e+01   0.0000000e+00  -2.9170343e-01   1.6043689e+01   0.0000000e+00
  -2.6253309e+00  -2.1586054e+01  -1.9544130e+01  -5.7465577e+01  -1.7793909e+01  -1.5751985e+01  -1.7502206e+00   8.7511030e+00  -6.4174756e+00  -1.3710061e+01  -5.8340687e-01  -8.7219327e+01  -3.9088260e+01  -1.4293468e+01  -2.3336275e+00   9.9179168e+00  -3.0920564e+01  -2.6253309e+00  -3.7921446e+00   1.3418358e+01   0.0000000e+00
  -6.4174756e+00  -3.1795674e+01  -2.4211385e+01  -4.2588701e+01  -1.6627096e+01  -1.8377316e+01  -2.9170343e+00   6.1257721e+00  -1.0209620e+01  -1.5751985e+01  -3.7921446e+00  -8.0218444e+01  -4.6380846e+01  -1.1376434e+01  -4.0838481e+00   7.8759927e+00  -3.3254191e+01  -7.2925859e+00  -8.1676962e+00   9.0428065e+00   0.0000000e+00
  -1.0209620e+01  -3.8504853e+01  -2.6545013e+01  -2.7420123e+01  -1.8669020e+01  -1.8669020e+01  -4.9589584e+00   4.0838481e+00  -1.0209620e+01  -1.8377316e+01  -5.5423652e+00  -7.2925859e+01  -5.0756398e+01  -9.6262133e+00  -4.9589584e+00   6.1257721e+00  -3.3254191e+01  -1.0501324e+01  -1.0501324e+01   5.5423652e+00   0.0000000e+00
  -1.1668137e+01  -3.9379964e+01  -2.5378199e+01  -1.5751985e+01  -2.3044571e+01  -1.6627096e+01  -6.7091790e+00   3.2087378e+00  -5.8340687e+00  -2.0419240e+01  -5.5423652e+00  -6.6216680e+01  -5.0172991e+01  -9.3345099e+00  -4.6672549e+00   4.9589584e+00  -3.0337157e+01  -1.1376434e+01  -9.9179168e+00   4.3755515e+00   0.0000000e+00
  -9.9179168e+00  -3.4712709e+01  -2.1002647e+01  -1.0793027e+01  -2.7128419e+01  -1.2251544e+01  -7.2925859e+00   3.7921446e+00   1.7502206e+00  -2.0127537e+01  -3.5004412e+00  -6.0382611e+01  -4.3755515e+01  -9.9179168e+00  -3.7921446e+00   4.6672549e+00  -2.4794792e+01  -8.7511030e+00  -5.2506618e+00   6.7091790e+00   0.0000000e+00
  -6.7091790e+00  -2.6836716e+01  -1.4876875e+01  -1.5460282e+01  -3.0045454e+01  -7.8759927e+00  -6.7091790e+00   5.2506618e+00   9.3345099e+00  -1.7210503e+01  -8.7511030e-01  -5.6007059e+01  -3.3837598e+01  -1.1959841e+01  -2.3336275e+00   4.6672549e+00  -1.8960723e+01  -4.0838481e+00   5.8340687e-01   1.1084730e+01   0.0000000e+00
  -3.2087378e+00  -1.9544130e+01  -8.4593996e+00  -2.7711826e+01  -3.0920564e+01  -4.3755515e+00  -5.2506618e+00   7.5842893e+00   1.4876875e+01  -1.1376434e+01   1.4585172e+00  -5.3381728e+01  -2.3627978e+01  -1.4876875e+01  -1.4585172e+00   4.6672549e+00  -1.4001765e+01   1.1668137e+00   6.4174756e+00   1.6627096e+01   0.0000000e+00
  -2.3336275e+00  -1.6043689e+01  -4.0838481e+00  -4.2296998e+01  -3.0337157e+01  -3.5004412e+00  -4.0838481e+00   1.0209620e+01   1.6918799e+01  -5.5423652e+00   2.3336275e+00  -5.2798322e+01  -1.6918799e+01  -1.8085613e+01  -1.4585172e+00   4.6672549e+00  -1.1959841e+01   4.6672549e+00   9.6262133e+00   2.0710944e+01   0.0000000e+00
  -4.6672549e+00  -1.7502206e+01  -2.6253309e+00  -5.4256839e+01  -2.9170343e+01  -4.9589584e+00  -3.2087378e+00   1.1959841e+01   1.5751985e+01  -1.4585172e+00   8.7511030e-01  -5.3965135e+01  -1.5751985e+01  -2.0710944e+01  -2.6253309e+00   4.3755515e+00  -1.2834951e+01   5.2506618e+00   9.3345099e+00   2.1877758e+01   0.0000000e+00
  -9.6262133e+00  -2.4211385e+01  -4.3755515e+00  -6.0674314e+01  -2.7420123e+01  -8.7511030e+00  -3.5004412e+00   1.3418358e+01   1.2543248e+01  -1.4585172e+00  -2.6253309e+00  -5.5423652e+01  -2.0710944e+01  -2.2461164e+01  -4.6672549e+00   4.0838481e+00  -1.6335392e+01   2.0419240e+00   4.9589584e+00   2.0127537e+01   0.0000000e+00
  -1.4293468e+01  -3.2379081e+01  -7.8759927e+00  -6.1841128e+01  -2.5086495e+01  -1.2251544e+01  -3.7921446e+00   1.4876875e+01   8.7511030e+00  -4.6672549e+00  -6.4174756e+00  -5.4256839e+01  -2.9462047e+01  -2.1586054e+01  -6.1257721e+00   4.9589584e+00  -2.0419240e+01  -2.6253309e+00  -2.9170343e-01   1.6918799e+01   0.0000000e+00
  -1.6627096e+01  -3.9963370e+01  -1.1959841e+01  -6.0966018e+01  -2.2169461e+01  -1.5168579e+01  -4.3755515e+00   1.6627096e+01   4.9589584e+00  -1.0209620e+01  -9.6262133e+00  -4.9589584e+01  -3.9088260e+01  -1.8377316e+01  -6.1257721e+00   6.7091790e+00  -2.3336275e+01  -7.8759927e+00  -5.5423652e+00   1.3418358e+01   0.0000000e+00
  -1.5751985e+01  -4.3755515e+01  -1.4585172e+01  -6.0090907e+01  -1.9544130e+01  -1.6335392e+01  -4.3755515e+00   1.8377316e+01   2.0419240e+00  -1.5168579e+01  -1.0793027e+01  -4.2296998e+01  -4.5505736e+01  -1.4293468e+01  -4.3755515e+00   9.3345099e+00  -2.4503088e+01  -1.1668137e+01  -8.1676962e+00   1.1376434e+01   0.0000000e+00
  -1.3126655e+01  -4.2880405e+01  -1.5168579e+01  -5.9799204e+01  -1.7210503e+01  -1.6043689e+01  -4.0838481e+00   1.9252427e+01   8.7511030e-01  -1.8085613e+01  -9.6262133e+00  -3.6171226e+01  -4.6964253e+01  -1.1376434e+01  -1.7502206e+00   1.1668137e+01  -2.3336275e+01  -1.3126655e+01  -7.8759927e+00   1.1084730e+01   0.0000000e+00
  -1.0209620e+01  -3.6754633e+01  -1.3418358e+01  -5.9507501e+01  -1.5460282e+01  -1.3710061e+01  -3.5004412e+00   1.9252427e+01   3.5004412e+00  -1.7793909e+01  -6.1257721e+00  -3.3545895e+01  -4.2296998e+01  -1.0501324e+01   1.4585172e+00   1.3126655e+01  -2.0127537e+01  -1.1376434e+01  -4.6672549e+00   1.3126655e+01   0.0000000e+00
  -8.4593996e+00  -2.7711826e+01  -1.0209620e+01  -5.7757280e+01  -1.4876875e+01  -1.0793027e+01  -2.3336275e+00   1.8085613e+01   8.4593996e+00  -1.6043689e+01  -1.7502206e+00  -3.4712709e+01  -3.3545895e+01  -1.2251544e+01   4.0838481e+00   1.3418358e+01  -1.6043689e+01  -7.2925859e+00   2.9170343e-01   1.6335392e+01   0.0000000e+00
  -8.7511030e+00  -1.8377316e+01  -7.0008824e+00  -5.5715356e+01  -1.5751985e+01  -9.0428065e+00  -1.7502206e+00   1.5460282e+01   1.4001765e+01  -1.4001765e+01   2.3336275e+00  -3.7921446e+01  -2.4503088e+01  -1.5168579e+01   6.1257721e+00   1.2834951e+01  -1.3126655e+01  -2.6253309e+00   4.6672549e+00   1.9252427e+01   0.0000000e+00
  -1.0793027e+01  -1.1376434e+01  -5.5423652e+00  -5.3673432e+01  -1.7502206e+01  -9.6262133e+00  -1.7502206e+00   1.2543248e+01   1.6918799e+01  -1.3126655e+01   4.6672549e+00  -4.0546777e+01  -1.8377316e+01  -1.7502206e+01   7.0008824e+00   1.1959841e+01  -1.2543248e+01   2.9170343e-01   6.7091790e+00   2.1002647e+01   0.0000000e+00
  -1.4001765e+01  -8.4593996e+00  -6.4174756e+00  -5.2506618e+01  -1.9835834e+01  -1.2834951e+01  -2.6253309e+00   1.0209620e+01   1.5168579e+01  -1.4001765e+01   4.9589584e+00  -4.2005295e+01  -1.7793909e+01  -1.8377316e+01   7.2925859e+00   1.1668137e+01  -1.4001765e+01   8.7511030e-01   5.8340687e+00   2.0419240e+01   0.0000000e+00
  -1.8085613e+01  -1.0209620e+01  -9.6262133e+00  -5.1339804e+01  -2.1586054e+01  -1.8085613e+01  -4.0838481e+00   9.0428065e+00   8.7511030e+00  -1.6335392e+01   3.7921446e+00  -4.2296998e+01  -2.2461164e+01  -1.6627096e+01   7.0008824e+00   1.1668137e+01  -1.7502206e+01  -1.7502206e+00   2.0419240e+00   1.8085613e+01   0.0000000e+00
  -2.2169461e+01  -1.4293468e+01  -1.4001765e+01  -4.9297880e+01  -2.2461164e+01  -2.3336275e+01  -5.8340687e+00   9.3345099e+00  -2.9170343e-01  -1.9252427e+01   1.4585172e+00  -4.2296998e+01  -3.0045454e+01  -1.3126655e+01   7.0008824e+00   1.1668137e+01  -2.1002647e+01  -6.4174756e+00  -3.2087378e+00   1.4293468e+01   0.0000000e+00
  -2.4794792e+01  -1.8960723e+01  -1.8960723e+01  -4.4338922e+01  -2.2461164e+01  -2.7711826e+01  -7.5842893e+00   9.9179168e+00  -7.8759927e+00  -2.1877758e+01  -1.1668137e+00  -4.2588701e+01  -3.8213150e+01  -9.9179168e+00   6.7091790e+00   1.0793027e+01  -2.3919682e+01  -1.1668137e+01  -8.1676962e+00   1.0209620e+01   0.0000000e+00
  -2.4794792e+01  -2.1586054e+01  -2.2461164e+01  -3.5296116e+01  -2.2169461e+01  -2.9753750e+01  -8.4593996e+00   9.3345099e+00  -1.0209620e+01  -2.3044571e+01  -2.0419240e+00  -4.1421888e+01  -4.3172108e+01  -7.8759927e+00   7.0008824e+00   9.9179168e+00  -2.4503088e+01  -1.4876875e+01  -1.0793027e+01   7.2925859e+00   0.0000000e+00
  -2.1877758e+01  -2.1877758e+01  -2.3919682e+01  -2.3336275e+01  -2.3336275e+01  -2.9462047e+01  -8.4593996e+00   7.0008824e+00  -5.5423652e+00  -2.2461164e+01  -1.7502206e+00  -3.9379964e+01  -4.4047219e+01  -8.1676962e+00   7.5842893e+00   9.0428065e+00  -2.3336275e+01  -1.5751985e+01  -1.0793027e+01   5.5423652e+00   0.0000000e+00
  -1.6043689e+01  -1.8377316e+01  -2.2461164e+01  -9.9179168e+00  -2.4211385e+01  -2.5961606e+01  -6.7091790e+00   4.9589584e+00   4.6672549e+00  -1.8960723e+01   8.7511030e-01  -3.5296116e+01  -3.9379964e+01  -9.6262133e+00   9.3345099e+00   9.3345099e+00  -1.9835834e+01  -1.2543248e+01  -6.7091790e+00   7.0008824e+00   0.0000000e+00
  -9.0428065e+00  -1.2543248e+01  -1.8669020e+01   1.7502206e+00  -2.3044571e+01  -2.0710944e+01  -3.5004412e+00   3.7921446e+00   1.7210503e+01  -1.3710061e+01   4.6672549e+00  -3.1212267e+01  -3.0920564e+01  -1.1668137e+01   1.2251544e+01   1.1084730e+01  -1.5168579e+01  -6.4174756e+00  -5.8340687e-01   1.1084730e+01   0.0000000e+00
  -4.6672549e+00  -7.5842893e+00  -1.4585172e+01   7.8759927e+00  -1.9252427e+01  -1.5751985e+01  -2.9170343e-01   3.7921446e+00   2.6836716e+01  -9.0428065e+00   7.5842893e+00  -2.9753750e+01  -2.1877758e+01  -1.3710061e+01   1.4876875e+01   1.3126655e+01  -1.1668137e+01   0.0000000e+00   5.2506618e+00   1.5460282e+01   0.0000000e+00
  -3.7921446e+00  -5.2506618e+00  -1.1959841e+01   7.5842893e+00  -1.3126655e+01  -1.2834951e+01   2.0419240e+00   4.0838481e+00   3.0628861e+01  -5.8340687e+00   9.6262133e+00  -3.0920564e+01  -1.5460282e+01  -1.4585172e+01   1.6335392e+01   1.5168579e+01  -9.6262133e+00   4.6672549e+00   8.7511030e+00   1.8377316e+01   0.0000000e+00
  -5.8340687e+00  -8.1676962e+00  -1.1959841e+01   1.7502206e+00  -7.2925859e+00  -1.3418358e+01   2.6253309e+00   4.3755515e+00   2.7711826e+01  -5.8340687e+00   9.6262133e+00  -3.3837598e+01  -1.4001765e+01  -1.3710061e+01   1.6335392e+01   1.6335392e+01  -1.0501324e+01   5.8340687e+00   8.1676962e+00   1.8669020e+01   0.0000000e+00
  -1.0209620e+01  -1.6627096e+01  -1.5168579e+01  -6.4174756e+00  -4.6672549e+00  -1.6627096e+01   1.4585172e+00   4.0838481e+00   1.9252427e+01  -7.8759927e+00   8.1676962e+00  -3.6171226e+01  -1.8377316e+01  -1.1959841e+01   1.4585172e+01   1.6335392e+01  -1.3418358e+01   2.9170343e+00   3.7921446e+00   1.6043689e+01   0.0000000e+00
  -1.4585172e+01  -2.8295233e+01  -1.9544130e+01  -1.4585172e+01  -5.8340687e+00  -2.0419240e+01  -8.7511030e-01   3.7921446e+00   9.3345099e+00  -9.9179168e+00   6.1257721e+00  -3.6171226e+01  -2.6253309e+01  -9.3345099e+00   1.1668137e+01   1.5460282e+01  -1.6918799e+01  -2.6253309e+00  -2.6253309e+00   1.1084730e+01   0.0000000e+00
  -1.8085613e+01  -3.9671667e+01  -2.4503088e+01  -2.2169461e+01  -9.3345099e+00  -2.2752868e+01  -3.2087378e+00   4.0838481e+00   1.7502206e+00  -1.0501324e+01   4.3755515e+00  -3.3837598e+01  -3.5296116e+01  -7.5842893e+00   8.7511030e+00   1.3418358e+01  -1.9544130e+01  -9.0428065e+00  -9.3345099e+00   6.1257721e+00   0.0000000e+00
  -2.0127537e+01  -4.6380846e+01  -2.7711826e+01  -2.9753750e+01  -1.3418358e+01  -2.2461164e+01  -5.2506618e+00   5.2506618e+00  -1.4585172e+00  -9.3345099e+00   3.2087378e+00  -3.0628861e+01  -4.1421888e+01  -7.5842893e+00   6.1257721e+00   1.0793027e+01  -2.1002647e+01  -1.4585172e+01  -1.3710061e+01   2.3336275e+00   0.0000000e+00
  -2.0419240e+01  -4.6672549e+01  -2.8878640e+01  -3.7046336e+01  -1.6918799e+01  -1.9835834e+01  -6.7091790e+00   6.4174756e+00   2.9170343e-01  -7.0008824e+00   3.7921446e+00  -2.8295233e+01  -4.2880405e+01  -9.3345099e+00   4.3755515e+00   8.4593996e+00  -2.0127537e+01  -1.7210503e+01  -1.5168579e+01   8.7511030e-01   0.0000000e+00
  -1.8960723e+01  -3.9963370e+01  -2.7128419e+01  -4.3172108e+01  -1.9252427e+01  -1.6335392e+01  -7.2925859e+00   6.1257721e+00   5.8340687e+00  -4.3755515e+00   5.8340687e+00  -2.7420123e+01  -3.8213150e+01  -1.2251544e+01   3.7921446e+00   7.5842893e+00  -1.7502206e+01  -1.6335392e+01  -1.3418358e+01   2.0419240e+00   0.0000000e+00
  -1.6043689e+01  -2.8586937e+01  -2.2752868e+01  -4.6672549e+01  -2.0710944e+01  -1.3418358e+01  -7.2925859e+00   4.6672549e+00   1.1668137e+01  -1.7502206e+00   9.3345099e+00  -2.8003530e+01  -2.8586937e+01  -1.4293468e+01   4.3755515e+00   8.4593996e+00  -1.3418358e+01  -1.2543248e+01  -9.0428065e+00   5.2506618e+00   0.0000000e+00
  -1.2834951e+01  -1.6918799e+01  -1.7502206e+01  -4.6672549e+01  -2.3044571e+01  -1.2251544e+01  -7.5842893e+00   1.4585172e+00   1.5751985e+01   2.9170343e-01   1.2834951e+01  -2.8295233e+01  -1.6918799e+01  -1.6043689e+01   5.2506618e+00   1.1376434e+01  -9.9179168e+00  -7.5842893e+00  -4.9589584e+00   8.4593996e+00   0.0000000e+00
  -1.0501324e+01  -8.7511030e+00  -1.3126655e+01  -4.2880405e+01  -2.4503088e+01  -1.2543248e+01  -7.8759927e+00  -2.0419240e+00   1.7210503e+01   2.0419240e+00   1.5751985e+01  -2.6545013e+01  -7.0008824e+00  -1.6043689e+01   5.8340687e+00   1.6043689e+01  -7.2925859e+00  -2.9170343e+00  -2.0419240e+00   1.1376434e+01   0.0000000e+00
  -1.0501324e+01  -7.8759927e+00  -1.1959841e+01  -3.7046336e+01  -2.5378199e+01  -1.4001765e+01  -9.0428065e+00  -5.2506618e+00   1.6335392e+01   1.1668137e+00   1.6043689e+01  -2.1877758e+01  -2.3336275e+00  -1.6043689e+01   5.2506618e+00   2.1586054e+01  -7.2925859e+00  -5.8340687e-01  -2.6253309e+00   1.1668137e+01   0.0000000e+00
  -1.2543248e+01  -1.4293468e+01  -1.4001765e+01  -2.9462047e+01  -2.3336275e+01  -1.6043689e+01  -1.1084730e+01  -7.5842893e+00   1.4293468e+01  -1.7502206e+00   1.4585172e+01  -1.4876875e+01  -4.3755515e+00  -1.4876875e+01   3.5004412e+00   2.7128419e+01  -8.7511030e+00  -1.4585172e+00  -6.4174756e+00   9.9179168e+00   0.0000000e+00
  -1.5168579e+01  -2.5378199e+01  -1.8669020e+01  -2.1586054e+01  -1.8669020e+01  -1.7502206e+01  -1.3126655e+01  -8.7511030e+00   1.2543248e+01  -6.4174756e+00   1.1959841e+01  -7.0008824e+00  -1.1084730e+01  -1.2543248e+01   1.7502206e+00   3.0920564e+01  -1.1376434e+01  -4.3755515e+00  -1.1668137e+01   6.4174756e+00   0.0000000e+00
  -1.7502206e+01  -3.7921446e+01  -2.4211385e+01  -1.4876875e+01  -1.2834951e+01  -1.8377316e+01  -1.4585172e+01  -9.3345099e+00   1.0793027e+01  -1.1084730e+01   9.0428065e+00  -5.8340687e-01  -1.9544130e+01  -9.9179168e+00  -2.9170343e-01   3.0045454e+01  -1.3710061e+01  -9.0428065e+00  -1.7210503e+01   2.3336275e+00   0.0000000e+00
  -1.8085613e+01  -4.6380846e+01  -2.8586937e+01  -9.6262133e+00  -7.2925859e+00  -1.7502206e+01  -1.4585172e+01  -9.0428065e+00   1.1668137e+01  -1.2834951e+01   7.2925859e+00   2.9170343e+00  -2.5086495e+01  -7.2925859e+00  -1.1668137e+00   2.3919682e+01  -1.4293468e+01  -1.2543248e+01  -1.9835834e+01  -2.9170343e-01   0.0000000e+00
  -1.6918799e+01  -4.8422770e+01  -3.0045454e+01  -7.0008824e+00  -4.6672549e+00  -1.5168579e+01  -1.2834951e+01  -7.8759927e+00   1.5751985e+01  -1.0501324e+01   7.0008824e+00   3.7921446e+00  -2.5378199e+01  -6.4174756e+00  -1.1668137e+00   1.2834951e+01  -1.2834951e+01  -1.3710061e+01  -1.8960723e+01  -5.8340687e-01   0.0000000e+00
  -1.4585172e+01  -4.3463812e+01  -2.8878640e+01  -7.5842893e+00  -6.4174756e+00  -1.2251544e+01  -9.6262133e+00  -7.0008824e+00   2.3919682e+01  -4.6672549e+00   7.8759927e+00   3.2087378e+00  -2.0419240e+01  -8.4593996e+00  -1.4585172e+00  -5.8340687e-01  -1.0209620e+01  -1.1959841e+01  -1.4585172e+01   1.4585172e+00   0.0000000e+00
  -1.1959841e+01  -3.2670785e+01  -2.5086495e+01  -9.6262133e+00  -1.1084730e+01  -9.3345099e+00  -5.5423652e+00  -6.4174756e+00   3.3837598e+01   2.6253309e+00   9.6262133e+00   3.2087378e+00  -1.1959841e+01  -1.2251544e+01  -1.1668137e+00  -1.1668137e+01  -7.0008824e+00  -7.5842893e+00  -8.7511030e+00   4.6672549e+00   0.0000000e+00
  -9.9179168e+00  -2.0127537e+01  -2.0419240e+01  -1.0501324e+01  -1.6043689e+01  -7.8759927e+00  -2.0419240e+00  -7.2925859e+00   4.2880405e+01   7.5842893e+00   1.0793027e+01   4.6672549e+00  -3.5004412e+00  -1.6043689e+01  -8.7511030e-01  -1.6627096e+01  -3.7921446e+00  -2.0419240e+00  -3.2087378e+00   8.1676962e+00   0.0000000e+00
  -8.1676962e+00  -9.3345099e+00  -1.6918799e+01  -8.4593996e+00  -1.8669020e+01  -8.4593996e+00   0.0000000e+00  -9.6262133e+00   4.6964253e+01   7.8759927e+00   1.0793027e+01   6.7091790e+00   1.4585172e+00  -1.8085613e+01  -5.8340687e-01  -1.4001765e+01  -2.3336275e+00   2.6253309e+00   0.0000000e+00   9.6262133e+00   0.0000000e+00
  -7.0008824e+00  -3.5004412e+00  -1.5168579e+01  -2.9170343e+00  -1.8085613e+01  -1.1376434e+01   0.0000000e+00  -1.1959841e+01   4.4630625e+01   4.6672549e+00   9.3345099e+00   8.1676962e+00   1.1668137e+00  -1.7502206e+01   0.0000000e+00  -4.9589584e+00  -2.3336275e+00   4.9589584e+00   0.0000000e+00   8.4593996e+00   0.0000000e+00
  -6.1257721e+00  -3.7921446e+00  -1.5751985e+01   6.1257721e+00  -1.4876875e+01  -1.5460282e+01  -1.1668137e+00  -1.2834951e+01   3.7046336e+01   2.9170343e-01   6.1257721e+00   8.7511030e+00  -3.7921446e+00  -1.4001765e+01   8.7511030e-01   6.1257721e+00  -3.7921446e+00   4.3755515e+00  -2.6253309e+00   5.2506618e+00   0.0000000e+00
  -5.5423652e+00  -9.3345099e+00  -1.8085613e+01   1.6335392e+01  -1.1959841e+01  -1.9544130e+01  -3.2087378e+00  -1.1959841e+01   2.7128419e+01  -3.2087378e+00   1.7502206e+00   7.2925859e+00  -1.2251544e+01  -9.6262133e+00   8.7511030e-01   1.4585172e+01  -6.4174756e+00   8.7511030e-01  -7.2925859e+00   8.7511030e-01   0.0000000e+00
