nt = 4200
nc = 24
channels = F7 T3 T5 Fp1 F3 C3 P3 O1 F8 T4 T6 Fp2 F4 C4 P4 O2 Fz Cz Pz Oz TR SOn Occ RAp
ne = 20
type = N
fsmp = 600.0000000000
orig.file = s2_bl1
orig.nt = 295148
orig.sample_range = 245770 249969
orig.fsmp = 600
orig.subject = 2
orig.run = 43
   4.7833823e+00  -3.1275961e+00   5.8872397e+00   8.6468834e+00  -4.5994060e+00  -6.2551922e+00  -7.3590497e-01   5.5192872e+00   7.3590497e+00  -1.8397624e-01   7.1750734e+00   8.8308596e+00  -4.0474773e+00  -4.5994060e+00   3.4955486e+00   4.7833823e+00  -5.5192872e+00  -6.0712160e+00  -6.9910972e+00   4.9673585e+00   0.0000000e+00   0.0000000e+00   0.0000000e+00   0.0000000e+00
   4.9673585e+00  -3.6795248e+00   5.3353110e+00   1.0670622e+01  -4.4154298e+00  -6.6231447e+00  -1.6557862e+00   4.5994060e+00   8.0949546e+00  -5.5192872e-01   8.0949546e+00   1.2878337e+01  -2.3916911e+00  -4.0474773e+00   3.4955486e+00   4.9673585e+00  -4.9673585e+00  -5.8872397e+00  -7.5430259e+00   4.4154298e+00   0.0000000e+00   0.0000000e+00   0.0000000e+00   0.0000000e+00
   5.3353110e+00  -4.0474773e+00   4.7833823e+00   1.3430266e+01  -4.0474773e+00  -6.8071209e+00  -2.3916911e+00   3.6795248e+00   9.1988121e+00  -1.8397624e-01   9.1988121e+00   1.6741838e+01  -5.5192872e-01  -3.1275961e+00   3.6795248e+00   4.9673585e+00  -4.2314536e+00  -5.3353110e+00  -7.7270021e+00   3.8635011e+00   0.0000000e+00   0.0000000e+00   0.0000000e+00   0.0000000e+00
   5.5192872e+00  -4.4154298e+00   4.0474773e+00   1.6373886e+01  -3.4955486e+00  -7.1750734e+00  -3.1275961e+00   2.7596436e+00   1.0118693e+01   1.8397624e-01   9.5667646e+00   1.9501482e+01   9.1988121e-01  -2.5756674e+00   3.3115723e+00   4.5994060e+00  -3.6795248e+00  -4.9673585e+00  -8.0949546e+00   2.9436199e+00   0.0000000e+00   0.0000000e+00   0.0000000e+00   0.0000000e+00
   6.0712160e+00  -4.4154298e+00   3.4955486e+00   1.9869434e+01  -2.7596436e+00  -7.1750734e+00  -3.4955486e+00   2.0237387e+00   1.0670622e+01   1.2878337e+00   9.5667646e+00   2.1893173e+01   2.2077149e+00  -1.8397624e+00   3.1275961e+00   4.0474773e+00  -2.5756674e+00  -4.7833823e+00  -8.2789309e+00   2.0237387e+00   0.0000000e+00   0.0000000e+00   0.0000000e+00   0.0000000e+00
   6.8071209e+00  -4.2314536e+00   3.1275961e+00   2.3916911e+01  -1.6557862e+00  -6.8071209e+00  -3.6795248e+00   1.6557862e+00   1.1038574e+01   2.2077149e+00   8.8308596e+00   2.4284864e+01   3.3115723e+00  -9.1988121e-01   2.9436199e+00   3.4955486e+00  -1.2878337e+00  -4.4154298e+00  -7.9109784e+00   1.6557862e+00   0.0000000e+00   0.0000000e+00   0.0000000e+00   0.0000000e+00
   7.7270021e+00  -3.6795248e+00   3.1275961e+00   2.7964389e+01  -1.8397624e-01  -6.2551922e+00  -3.4955486e+00   1.6557862e+00   1.1222551e+01   3.3115723e+00   7.5430259e+00   2.6860531e+01   4.5994060e+00  -1.8397624e-01   3.1275961e+00   2.7596436e+00   3.6795248e-01  -4.2314536e+00  -7.5430259e+00   1.4718099e+00   0.0000000e+00   0.0000000e+00   0.0000000e+00   0.0000000e+00
   8.6468834e+00  -2.9436199e+00   3.1275961e+00   3.1827890e+01   1.4718099e+00  -5.1513348e+00  -2.7596436e+00   2.0237387e+00   1.1406527e+01   4.4154298e+00   6.0712160e+00   2.9988127e+01   6.0712160e+00   7.3590497e-01   3.1275961e+00   2.5756674e+00   2.2077149e+00  -3.6795248e+00  -6.6231447e+00   1.8397624e+00   0.0000000e+00   0.0000000e+00   0.0000000e+00   0.0000000e+00
   9.5667646e+00  -2.2077149e+00   3.4955486e+00   3.5323438e+01   2.9436199e+00  -3.8635011e+00  -2.0237387e+00   2.5756674e+00   1.1590503e+01   5.7032635e+00   4.7833823e+00   3.2747771e+01   7.3590497e+00   1.2878337e+00   3.3115723e+00   2.5756674e+00   3.8635011e+00  -2.9436199e+00  -5.8872397e+00   2.2077149e+00   0.0000000e+00   0.0000000e+00   0.0000000e+00   0.0000000e+00
   9.9347170e+00  -1.6557862e+00   3.4955486e+00   3.7531153e+01   3.8635011e+00  -2.9436199e+00  -1.6557862e+00   2.7596436e+00   1.1958456e+01   7.1750734e+00   3.8635011e+00   3.4219581e+01   7.9109784e+00   1.1038574e+00   2.7596436e+00   2.5756674e+00   5.1513348e+00  -2.3916911e+00  -5.7032635e+00   2.2077149e+00   0.0000000e+00   0.0000000e+00   0.0000000e+00   0.0000000e+00
   1.0118693e+01  -1.4718099e+00   3.4955486e+00   3.8635011e+01   4.4154298e+00  -2.3916911e+00  -1.4718099e+00   3.1275961e+00   1.2326408e+01   8.8308596e+00   3.6795248e+00   3.4587533e+01   8.4629071e+00   7.3590497e-01   2.0237387e+00   2.7596436e+00   6.0712160e+00  -1.8397624e+00  -5.7032635e+00   2.2077149e+00   0.0000000e+00   0.0000000e+00   0.0000000e+00   0.0000000e+00
   1.0118693e+01  -1.4718099e+00   3.4955486e+00   3.8451034e+01   4.5994060e+00  -2.2077149e+00  -1.4718099e+00   3.3115723e+00   1.3062313e+01   9.9347170e+00   4.2314536e+00   3.4219581e+01   8.6468834e+00   0.0000000e+00   9.1988121e-01   3.3115723e+00   6.4391685e+00  -1.1038574e+00  -6.0712160e+00   1.8397624e+00   0.0000000e+00   0.0000000e+00   0.0000000e+00   0.0000000e+00
   9.9347170e+00  -1.6557862e+00   3.3115723e+00   3.7531153e+01   4.5994060e+00  -2.2077149e+00  -1.8397624e+00   3.6795248e+00   1.3798218e+01   9.7507408e+00   4.9673585e+00   3.3667652e+01   8.8308596e+00  -7.3590497e-01   1.8397624e-01   3.6795248e+00   6.8071209e+00  -3.6795248e-01  -6.6231447e+00   1.8397624e+00   0.0000000e+00   0.0000000e+00   0.0000000e+00   0.0000000e+00
   9.3827883e+00  -2.3916911e+00   2.3916911e+00   3.5875367e+01   4.0474773e+00  -2.7596436e+00  -2.5756674e+00   3.4955486e+00   1.3982194e+01   8.2789309e+00   4.9673585e+00   3.3115723e+01   8.4629071e+00  -1.4718099e+00  -9.1988121e-01   3.6795248e+00   6.6231447e+00  -1.8397624e-01  -7.3590497e+00   1.4718099e+00   0.0000000e+00   0.0000000e+00   0.0000000e+00   0.0000000e+00
   9.0148358e+00  -2.5756674e+00   1.8397624e+00   3.4955486e+01   4.0474773e+00  -3.1275961e+00  -2.9436199e+00   3.8635011e+00   1.4166171e+01   6.6231447e+00   4.5994060e+00   3.2931747e+01   8.0949546e+00  -1.8397624e+00  -1.1038574e+00   3.6795248e+00   6.6231447e+00   0.0000000e+00  -7.9109784e+00   1.6557862e+00   0.0000000e+00   0.0000000e+00   0.0000000e+00   0.0000000e+00
   8.8308596e+00  -2.9436199e+00   1.4718099e+00   3.4219581e+01   4.0474773e+00  -3.4955486e+00  -3.3115723e+00   4.4154298e+00   1.3798218e+01   5.3353110e+00   3.4955486e+00   3.2563795e+01   7.7270021e+00  -1.8397624e+00  -9.1988121e-01   3.4955486e+00   6.4391685e+00  -1.8397624e-01  -8.0949546e+00   2.0237387e+00   0.0000000e+00   0.0000000e+00   0.0000000e+00   0.0000000e+00
   9.0148358e+00  -2.7596436e+00   1.2878337e+00   3.4035605e+01   4.4154298e+00  -3.4955486e+00  -3.1275961e+00   5.3353110e+00   1.3430266e+01   4.9673585e+00   2.0237387e+00   3.2195842e+01   7.5430259e+00  -1.2878337e+00  -3.6795248e-01   3.3115723e+00   6.6231447e+00  -1.8397624e-01  -7.7270021e+00   2.7596436e+00   0.0000000e+00   0.0000000e+00   0.0000000e+00   0.0000000e+00
   9.7507408e+00  -2.2077149e+00   1.4718099e+00   3.3851628e+01   5.3353110e+00  -3.1275961e+00  -2.7596436e+00   6.4391685e+00   1.3614242e+01   5.3353110e+00   7.3590497e-01   3.2379819e+01   7.9109784e+00  -3.6795248e-01   7.3590497e-01   3.6795248e+00   6.9910972e+00  -1.8397624e-01  -6.9910972e+00   3.8635011e+00   0.0000000e+00   0.0000000e+00   0.0000000e+00   0.0000000e+00
   1.0670622e+01  -1.6557862e+00   2.0237387e+00   3.3851628e+01   6.4391685e+00  -2.2077149e+00  -2.2077149e+00   7.7270021e+00   1.3982194e+01   5.8872397e+00   0.0000000e+00   3.3299700e+01   8.8308596e+00   9.1988121e-01   1.8397624e+00   4.5994060e+00   7.5430259e+00   1.8397624e-01  -5.7032635e+00   5.1513348e+00   0.0000000e+00   0.0000000e+00   0.0000000e+00   0.0000000e+00
   1.1222551e+01  -1.2878337e+00   2.0237387e+00   3.2931747e+01   7.3590497e+00  -1.6557862e+00  -1.6557862e+00   8.6468834e+00   1.4534123e+01   5.8872397e+00  -3.6795248e-01   3.4771510e+01   9.7507408e+00   1.8397624e+00   2.3916911e+00   5.5192872e+00   7.9109784e+00   5.5192872e-01  -4.7833823e+00   5.8872397e+00   0.0000000e+00   0.0000000e+00   0.0000000e+00   0.0000000e+00
   1.2142432e+01  -7.3590497e-01   2.3916911e+00   3.2011866e+01   8.6468834e+00  -5.5192872e-01  -9.1988121e-01   9.3827883e+00   1.5454004e+01   6.0712160e+00   3.6795248e-01   3.6795248e+01   1.1222551e+01   2.9436199e+00   3.3115723e+00   6.6231447e+00   8.8308596e+00   1.6557862e+00  -3.6795248e+00   6.8071209e+00   0.0000000e+00   0.0000000e+00   0.0000000e+00   0.0000000e+00
   1.2510384e+01  -3.6795248e-01   2.2077149e+00   3.0908009e+01   9.3827883e+00   3.6795248e-01  -3.6795248e-01   9.7507408e+00   1.6005933e+01   6.2551922e+00   1.4718099e+00   3.8267058e+01   1.2510384e+01   3.3115723e+00   3.6795248e+00   7.5430259e+00   9.1988121e+00   2.7596436e+00  -2.9436199e+00   6.9910972e+00   0.0000000e+00   0.0000000e+00   0.0000000e+00   0.0000000e+00
   1.3246289e+01   3.6795248e-01   2.2077149e+00   3.1091985e+01   1.0486646e+01   1.6557862e+00   5.5192872e-01   9.7507408e+00   1.6741838e+01   7.1750734e+00   3.1275961e+00   3.9186939e+01   1.3614242e+01   4.0474773e+00   4.2314536e+00   8.2789309e+00   1.0118693e+01   4.0474773e+00  -2.0237387e+00   7.3590497e+00   0.0000000e+00   0.0000000e+00   0.0000000e+00   0.0000000e+00
   1.4166171e+01   1.1038574e+00   2.3916911e+00   3.3299700e+01   1.1958456e+01   3.1275961e+00   1.6557862e+00   9.5667646e+00   1.7293767e+01   8.4629071e+00   4.7833823e+00   4.0106821e+01   1.4902076e+01   4.5994060e+00   4.9673585e+00   8.6468834e+00   1.1406527e+01   5.7032635e+00  -1.2878337e+00   7.5430259e+00   0.0000000e+00   0.0000000e+00   0.0000000e+00   0.0000000e+00
   1.4902076e+01   1.6557862e+00   2.3916911e+00   3.6979225e+01   1.3246289e+01   4.5994060e+00   2.7596436e+00   9.0148358e+00   1.7661719e+01   9.5667646e+00   5.5192872e+00   4.1210678e+01   1.5821957e+01   5.3353110e+00   5.3353110e+00   8.0949546e+00   1.2878337e+01   6.8071209e+00  -5.5192872e-01   7.3590497e+00   0.0000000e+00   0.0000000e+00   0.0000000e+00   0.0000000e+00
   1.5821957e+01   2.3916911e+00   2.9436199e+00   4.1946583e+01   1.5086052e+01   6.4391685e+00   4.0474773e+00   8.6468834e+00   1.8213648e+01   1.0302670e+01   5.5192872e+00   4.3418393e+01   1.6925814e+01   6.4391685e+00   6.0712160e+00   7.5430259e+00   1.4718099e+01   7.9109784e+00   1.8397624e-01   7.3590497e+00   0.0000000e+00   0.0000000e+00   0.0000000e+00   0.0000000e+00
   1.6373886e+01   2.9436199e+00   3.1275961e+00   4.7465870e+01   1.6925814e+01   8.0949546e+00   4.9673585e+00   7.9109784e+00   1.8581600e+01   1.0302670e+01   4.2314536e+00   4.5994060e+01   1.8029672e+01   7.3590497e+00   6.4391685e+00   6.2551922e+00   1.6557862e+01   8.4629071e+00   7.3590497e-01   7.1750734e+00   0.0000000e+00   0.0000000e+00   0.0000000e+00   0.0000000e+00
   1.6741838e+01   3.1275961e+00   3.3115723e+00   5.2433229e+01   1.8581600e+01   9.5667646e+00   5.7032635e+00   6.9910972e+00   1.8765577e+01   9.7507408e+00   2.3916911e+00   4.8569728e+01   1.8765577e+01   8.2789309e+00   6.4391685e+00   4.9673585e+00   1.8213648e+01   8.6468834e+00   9.1988121e-01   6.6231447e+00   0.0000000e+00   0.0000000e+00   0.0000000e+00   0.0000000e+00
   1.7109790e+01   3.3115723e+00   3.4955486e+00   5.6848659e+01   2.0053410e+01   1.0854598e+01   6.2551922e+00   5.8872397e+00   1.9133529e+01   9.1988121e+00   7.3590497e-01   5.0593466e+01   1.9501482e+01   9.0148358e+00   6.4391685e+00   3.8635011e+00   1.9501482e+01   8.8308596e+00   1.1038574e+00   5.8872397e+00   0.0000000e+00   0.0000000e+00   0.0000000e+00   0.0000000e+00
   1.7109790e+01   3.4955486e+00   3.3115723e+00   6.0160231e+01   2.1341244e+01   1.1774479e+01   6.4391685e+00   4.7833823e+00   1.9685458e+01   8.6468834e+00   1.8397624e-01   5.1145395e+01   1.9869434e+01   9.1988121e+00   6.2551922e+00   3.3115723e+00   2.0421363e+01   9.0148358e+00   1.1038574e+00   4.9673585e+00   0.0000000e+00   0.0000000e+00   0.0000000e+00   0.0000000e+00
   1.7293767e+01   3.6795248e+00   2.9436199e+00   6.2367946e+01   2.2077149e+01   1.2510384e+01   6.6231447e+00   3.6795248e+00   2.0053410e+01   8.0949546e+00   1.1038574e+00   5.0409490e+01   1.9685458e+01   9.1988121e+00   5.8872397e+00   3.1275961e+00   2.0973292e+01   9.7507408e+00   1.1038574e+00   3.8635011e+00   0.0000000e+00   0.0000000e+00   0.0000000e+00   0.0000000e+00
   1.7477743e+01   3.8635011e+00   2.5756674e+00   6.3287827e+01   2.2813054e+01   1.3062313e+01   6.6231447e+00   2.7596436e+00   2.0421363e+01   7.3590497e+00   3.1275961e+00   4.8937680e+01   1.9317505e+01   9.0148358e+00   5.5192872e+00   3.3115723e+00   2.1341244e+01   1.0670622e+01   9.1988121e-01   2.9436199e+00   0.0000000e+00   0.0000000e+00   0.0000000e+00   0.0000000e+00
   1.8213648e+01   4.5994060e+00   2.7596436e+00   6.3287827e+01   2.3732935e+01   1.4350147e+01   7.3590497e+00   2.3916911e+00   2.1341244e+01   7.1750734e+00   6.2551922e+00   4.8201775e+01   1.9317505e+01   9.1988121e+00   5.8872397e+00   4.0474773e+00   2.2077149e+01   1.2510384e+01   1.4718099e+00   2.5756674e+00   0.0000000e+00   0.0000000e+00   0.0000000e+00   0.0000000e+00
   1.8581600e+01   5.3353110e+00   2.7596436e+00   6.1816017e+01   2.4468840e+01   1.5454004e+01   7.9109784e+00   1.8397624e+00   2.1893173e+01   7.1750734e+00   8.8308596e+00   4.8017799e+01   1.9133529e+01   9.3827883e+00   6.2551922e+00   4.7833823e+00   2.2813054e+01   1.4166171e+01   1.8397624e+00   2.3916911e+00   0.0000000e+00   0.0000000e+00   0.0000000e+00   0.0000000e+00
   1.8949553e+01   6.0712160e+00   3.1275961e+00   5.9056374e+01   2.5020769e+01   1.6557862e+01   8.4629071e+00   1.8397624e+00   2.2261125e+01   8.0949546e+00   1.0670622e+01   4.8385752e+01   1.8949553e+01   9.7507408e+00   6.9910972e+00   5.1513348e+00   2.3732935e+01   1.5637981e+01   2.2077149e+00   2.5756674e+00   0.0000000e+00   0.0000000e+00   0.0000000e+00   0.0000000e+00
   1.8949553e+01   6.8071209e+00   3.4955486e+00   5.5192872e+01   2.5388721e+01   1.7845695e+01   9.1988121e+00   1.8397624e+00   2.2445101e+01   9.9347170e+00   1.1222551e+01   4.8017799e+01   1.8949553e+01   1.0118693e+01   7.9109784e+00   5.5192872e+00   2.4468840e+01   1.6741838e+01   2.9436199e+00   3.1275961e+00   0.0000000e+00   0.0000000e+00   0.0000000e+00   0.0000000e+00
   1.8949553e+01   7.3590497e+00   3.6795248e+00   5.1145395e+01   2.5204745e+01   1.8581600e+01   9.5667646e+00   1.8397624e+00   2.2445101e+01   1.1774479e+01   1.0670622e+01   4.7097918e+01   1.8581600e+01   1.0486646e+01   8.8308596e+00   5.5192872e+00   2.5020769e+01   1.7477743e+01   3.3115723e+00   3.6795248e+00   0.0000000e+00   0.0000000e+00   0.0000000e+00   0.0000000e+00
   1.8581600e+01   7.5430259e+00   3.6795248e+00   4.8201775e+01   2.5020769e+01   1.9133529e+01   9.7507408e+00   2.0237387e+00   2.2261125e+01   1.2878337e+01   9.3827883e+00   4.5994060e+01   1.8213648e+01   1.0670622e+01   9.5667646e+00   5.3353110e+00   2.5388721e+01   1.7661719e+01   3.4955486e+00   4.2314536e+00   0.0000000e+00   0.0000000e+00   0.0000000e+00   0.0000000e+00
   1.8213648e+01   7.5430259e+00   3.3115723e+00   4.6729965e+01   2.4652816e+01   1.8949553e+01   9.3827883e+00   1.8397624e+00   2.2077149e+01   1.2878337e+01   7.7270021e+00   4.5626108e+01   1.7845695e+01   1.0486646e+01   9.9347170e+00   4.9673585e+00   2.5572698e+01   1.7477743e+01   3.4955486e+00   4.2314536e+00   0.0000000e+00   0.0000000e+00   0.0000000e+00   0.0000000e+00
   1.8029672e+01   7.3590497e+00   2.9436199e+00   4.7465870e+01   2.4652816e+01   1.8581600e+01   8.8308596e+00   2.0237387e+00   2.2077149e+01   1.2510384e+01   6.4391685e+00   4.7097918e+01   1.8029672e+01   1.0302670e+01   1.0118693e+01   4.5994060e+00   2.5940650e+01   1.7477743e+01   3.4955486e+00   4.2314536e+00   0.0000000e+00   0.0000000e+00   0.0000000e+00   0.0000000e+00
   1.8029672e+01   6.9910972e+00   2.3916911e+00   4.9121657e+01   2.4468840e+01   1.8029672e+01   8.2789309e+00   1.8397624e+00   2.2629078e+01   1.2510384e+01   5.3353110e+00   4.9489609e+01   1.8765577e+01   1.0118693e+01   1.0118693e+01   4.4154298e+00   2.6308603e+01   1.7477743e+01   3.4955486e+00   3.8635011e+00   0.0000000e+00   0.0000000e+00   0.0000000e+00   0.0000000e+00
   1.8029672e+01   6.6231447e+00   1.6557862e+00   5.0593466e+01   2.4100888e+01   1.6925814e+01   7.1750734e+00   1.2878337e+00   2.3181006e+01   1.2878337e+01   5.1513348e+00   5.2433229e+01   1.9869434e+01   9.9347170e+00   1.0118693e+01   4.2314536e+00   2.6492579e+01   1.7293767e+01   3.1275961e+00   3.3115723e+00   0.0000000e+00   0.0000000e+00   0.0000000e+00   0.0000000e+00
   1.8213648e+01   6.0712160e+00   7.3590497e-01   5.1329371e+01   2.3548959e+01   1.5637981e+01   6.0712160e+00   5.5192872e-01   2.4100888e+01   1.3614242e+01   5.3353110e+00   5.5192872e+01   2.0789315e+01   9.3827883e+00   9.7507408e+00   4.0474773e+00   2.6308603e+01   1.7109790e+01   2.7596436e+00   2.5756674e+00   0.0000000e+00   0.0000000e+00   0.0000000e+00   0.0000000e+00
   1.8397624e+01   5.7032635e+00   1.8397624e-01   5.2065276e+01   2.2813054e+01   1.4534123e+01   5.1513348e+00   0.0000000e+00   2.5020769e+01   1.4350147e+01   6.0712160e+00   5.8320469e+01   2.1709197e+01   9.1988121e+00   9.7507408e+00   3.6795248e+00   2.6124626e+01   1.6925814e+01   2.3916911e+00   2.0237387e+00   0.0000000e+00   0.0000000e+00   0.0000000e+00   0.0000000e+00
   1.8397624e+01   5.5192872e+00  -1.8397624e-01   5.3353110e+01   2.2445101e+01   1.3430266e+01   4.4154298e+00  -7.3590497e-01   2.5756674e+01   1.4350147e+01   6.4391685e+00   6.1999993e+01   2.2629078e+01   9.3827883e+00   9.7507408e+00   3.1275961e+00   2.5756674e+01   1.6373886e+01   2.2077149e+00   1.6557862e+00   0.0000000e+00   0.0000000e+00   0.0000000e+00   0.0000000e+00
   1.8397624e+01   5.3353110e+00  -5.5192872e-01   5.6112754e+01   2.2261125e+01   1.2878337e+01   4.0474773e+00  -1.2878337e+00   2.6124626e+01   1.3798218e+01   5.8872397e+00   6.5863495e+01   2.3181006e+01   9.5667646e+00   9.7507408e+00   2.2077149e+00   2.5756674e+01   1.5821957e+01   2.0237387e+00   1.2878337e+00   0.0000000e+00   0.0000000e+00   0.0000000e+00   0.0000000e+00
   1.8581600e+01   5.5192872e+00  -5.5192872e-01   5.9976255e+01   2.2813054e+01   1.2694361e+01   4.0474773e+00  -1.8397624e+00   2.6124626e+01   1.2878337e+01   4.5994060e+00   6.8807114e+01   2.3916911e+01   1.0302670e+01   1.0302670e+01   1.1038574e+00   2.5940650e+01   1.5086052e+01   2.2077149e+00   1.1038574e+00   0.0000000e+00   0.0000000e+00   0.0000000e+00   0.0000000e+00
   1.8949553e+01   5.7032635e+00  -5.5192872e-01   6.3839756e+01   2.3548959e+01   1.2878337e+01   4.2314536e+00  -2.2077149e+00   2.5756674e+01   1.2510384e+01   2.9436199e+00   7.0094948e+01   2.4652816e+01   1.1222551e+01   1.0670622e+01   1.8397624e-01   2.5940650e+01   1.4534123e+01   2.3916911e+00   9.1988121e-01   0.0000000e+00   0.0000000e+00   0.0000000e+00   0.0000000e+00
   1.9317505e+01   5.7032635e+00  -7.3590497e-01   6.6415423e+01   2.4284864e+01   1.2878337e+01   4.4154298e+00  -2.7596436e+00   2.5020769e+01   1.2510384e+01   1.2878337e+00   6.8991091e+01   2.5020769e+01   1.1958456e+01   1.0854598e+01  -7.3590497e-01   2.5940650e+01   1.3982194e+01   2.3916911e+00   5.5192872e-01   0.0000000e+00   0.0000000e+00   0.0000000e+00   0.0000000e+00
   1.9869434e+01   5.8872397e+00  -7.3590497e-01   6.7519281e+01   2.5020769e+01   1.3062313e+01   4.4154298e+00  -3.1275961e+00   2.4836793e+01   1.3062313e+01   5.5192872e-01   6.6783376e+01   2.5388721e+01   1.2694361e+01   1.1038574e+01  -1.2878337e+00   2.5572698e+01   1.3798218e+01   2.3916911e+00   1.8397624e-01   0.0000000e+00   0.0000000e+00   0.0000000e+00   0.0000000e+00
   2.0237387e+01   5.8872397e+00  -9.1988121e-01   6.7151328e+01   2.5388721e+01   1.3062313e+01   4.0474773e+00  -3.4955486e+00   2.5020769e+01   1.3982194e+01   7.3590497e-01   6.4023732e+01   2.5756674e+01   1.3246289e+01   1.1222551e+01  -1.4718099e+00   2.5204745e+01   1.3798218e+01   2.3916911e+00  -1.8397624e-01   0.0000000e+00   0.0000000e+00   0.0000000e+00   0.0000000e+00
   2.0605339e+01   5.7032635e+00  -1.1038574e+00   6.5863495e+01   2.5388721e+01   1.2694361e+01   3.6795248e+00  -3.6795248e+00   2.5388721e+01   1.4718099e+01   1.6557862e+00   6.1632041e+01   2.6124626e+01   1.3614242e+01   1.1222551e+01  -1.2878337e+00   2.4468840e+01   1.4166171e+01   2.0237387e+00  -3.6795248e-01   0.0000000e+00   0.0000000e+00   0.0000000e+00   0.0000000e+00
   2.0789315e+01   5.1513348e+00  -1.4718099e+00   6.4391685e+01   2.5020769e+01   1.2326408e+01   3.1275961e+00  -4.0474773e+00   2.5940650e+01   1.5270028e+01   2.7596436e+00   5.9976255e+01   2.6124626e+01   1.3982194e+01   1.1038574e+01  -1.1038574e+00   2.3732935e+01   1.4350147e+01   1.8397624e+00  -3.6795248e-01   0.0000000e+00   0.0000000e+00   0.0000000e+00   0.0000000e+00
   2.0789315e+01   4.9673585e+00  -1.6557862e+00   6.2919875e+01   2.4652816e+01   1.1774479e+01   2.9436199e+00  -4.0474773e+00   2.6308603e+01   1.5821957e+01   3.4955486e+00   5.9056374e+01   2.6124626e+01   1.4166171e+01   1.0854598e+01  -7.3590497e-01   2.3181006e+01   1.4534123e+01   1.6557862e+00  -3.6795248e-01   0.0000000e+00   0.0000000e+00   0.0000000e+00   0.0000000e+00
   2.0973292e+01   4.7833823e+00  -1.6557862e+00   6.1816017e+01   2.4652816e+01   1.1406527e+01   2.9436199e+00  -4.0474773e+00   2.6676555e+01   1.6005933e+01   3.8635011e+00   5.9976255e+01   2.6308603e+01   1.4718099e+01   1.1038574e+01  -5.5192872e-01   2.2813054e+01   1.4902076e+01   1.6557862e+00   0.0000000e+00   0.0000000e+00   0.0000000e+00   0.0000000e+00   0.0000000e+00
   2.1341244e+01   5.1513348e+00  -1.4718099e+00   6.1080112e+01   2.4652816e+01   1.1406527e+01   3.3115723e+00  -3.6795248e+00   2.7044508e+01   1.6189909e+01   3.3115723e+00   6.2551922e+01   2.6676555e+01   1.5270028e+01   1.1590503e+01  -1.8397624e-01   2.2997030e+01   1.5086052e+01   2.0237387e+00   3.6795248e-01   0.0000000e+00   0.0000000e+00   0.0000000e+00   0.0000000e+00
   2.1893173e+01   5.7032635e+00  -1.1038574e+00   6.0712160e+01   2.4836793e+01   1.1590503e+01   3.8635011e+00  -3.4955486e+00   2.7044508e+01   1.6189909e+01   2.0237387e+00   6.6231447e+01   2.7412460e+01   1.5821957e+01   1.1958456e+01  -3.6795248e-01   2.3364983e+01   1.5270028e+01   2.7596436e+00   1.1038574e+00   0.0000000e+00   0.0000000e+00   0.0000000e+00   0.0000000e+00
   2.2445101e+01   6.2551922e+00  -9.1988121e-01   6.0712160e+01   2.5204745e+01   1.1958456e+01   4.5994060e+00  -2.9436199e+00   2.6860531e+01   1.5821957e+01   7.3590497e-01   7.0094948e+01   2.8332341e+01   1.6557862e+01   1.2694361e+01  -3.6795248e-01   2.4100888e+01   1.5270028e+01   3.6795248e+00   1.6557862e+00   0.0000000e+00   0.0000000e+00   0.0000000e+00   0.0000000e+00
   2.2813054e+01   6.8071209e+00  -7.3590497e-01   6.1264088e+01   2.5204745e+01   1.2326408e+01   4.9673585e+00  -2.5756674e+00   2.6676555e+01   1.5086052e+01  -3.6795248e-01   7.2670615e+01   2.9252222e+01   1.7109790e+01   1.3430266e+01  -3.6795248e-01   2.4836793e+01   1.5454004e+01   4.5994060e+00   2.3916911e+00   0.0000000e+00   0.0000000e+00   0.0000000e+00   0.0000000e+00
   2.3364983e+01   7.3590497e+00  -5.5192872e-01   6.2367946e+01   2.5388721e+01   1.2694361e+01   5.3353110e+00  -2.3916911e+00   2.6492579e+01   1.4534123e+01  -5.5192872e-01   7.3774473e+01   2.9620175e+01   1.7477743e+01   1.3982194e+01  -3.6795248e-01   2.5388721e+01   1.5637981e+01   5.7032635e+00   2.9436199e+00   0.0000000e+00   0.0000000e+00   0.0000000e+00   0.0000000e+00
   2.3732935e+01   7.5430259e+00  -3.6795248e-01   6.3655780e+01   2.5388721e+01   1.2878337e+01   5.5192872e+00  -2.0237387e+00   2.6308603e+01   1.4166171e+01   0.0000000e+00   7.3406520e+01   2.9620175e+01   1.7845695e+01   1.4534123e+01   0.0000000e+00   2.5756674e+01   1.6005933e+01   6.4391685e+00   3.3115723e+00   0.0000000e+00   0.0000000e+00   0.0000000e+00   0.0000000e+00
   2.3732935e+01   7.3590497e+00  -5.5192872e-01   6.4759637e+01   2.4836793e+01   1.2510384e+01   5.1513348e+00  -1.8397624e+00   2.6308603e+01   1.3982194e+01   1.2878337e+00   7.1934710e+01   2.9252222e+01   1.7661719e+01   1.4718099e+01   3.6795248e-01   2.5572698e+01   1.6373886e+01   6.6231447e+00   3.4955486e+00   0.0000000e+00   0.0000000e+00   0.0000000e+00   0.0000000e+00
   2.3732935e+01   6.9910972e+00  -1.8397624e-01   6.6047471e+01   2.4284864e+01   1.2142432e+01   5.1513348e+00  -1.4718099e+00   2.6860531e+01   1.4350147e+01   3.1275961e+00   7.0830853e+01   2.8700294e+01   1.7845695e+01   1.5086052e+01   1.1038574e+00   2.5572698e+01   1.6925814e+01   6.9910972e+00   4.0474773e+00   0.0000000e+00   0.0000000e+00   0.0000000e+00   0.0000000e+00
   2.3548959e+01   6.4391685e+00   0.0000000e+00   6.6231447e+01   2.3364983e+01   1.1406527e+01   4.9673585e+00  -1.1038574e+00   2.7780412e+01   1.4534123e+01   4.7833823e+00   6.9359043e+01   2.8148365e+01   1.7661719e+01   1.5270028e+01   1.8397624e+00   2.5020769e+01   1.7293767e+01   7.1750734e+00   4.5994060e+00   0.0000000e+00   0.0000000e+00   0.0000000e+00   0.0000000e+00
   2.2997030e+01   5.7032635e+00   1.8397624e-01   6.5311566e+01   2.2077149e+01   1.0302670e+01   4.5994060e+00  -9.1988121e-01   2.8332341e+01   1.4718099e+01   5.8872397e+00   6.7335304e+01   2.7228484e+01   1.7477743e+01   1.5270028e+01   2.2077149e+00   2.4284864e+01   1.7477743e+01   7.1750734e+00   5.1513348e+00   0.0000000e+00   0.0000000e+00   0.0000000e+00   0.0000000e+00
   2.2261125e+01   4.5994060e+00   1.8397624e-01   6.3471803e+01   2.0421363e+01   8.8308596e+00   4.2314536e+00  -7.3590497e-01   2.8516317e+01   1.4350147e+01   5.7032635e+00   6.4943613e+01   2.5756674e+01   1.6925814e+01   1.5086052e+01   2.2077149e+00   2.2997030e+01   1.6925814e+01   6.8071209e+00   5.7032635e+00   0.0000000e+00   0.0000000e+00   0.0000000e+00   0.0000000e+00
   2.1157268e+01   3.6795248e+00   5.5192872e-01   6.1816017e+01   1.8765577e+01   7.5430259e+00   4.0474773e+00  -3.6795248e-01   2.8148365e+01   1.4350147e+01   4.9673585e+00   6.2367946e+01   2.4284864e+01   1.6189909e+01   1.4902076e+01   2.0237387e+00   2.1709197e+01   1.6189909e+01   6.4391685e+00   6.0712160e+00   0.0000000e+00   0.0000000e+00   0.0000000e+00   0.0000000e+00
   2.0421363e+01   3.1275961e+00   7.3590497e-01   6.0896136e+01   1.7477743e+01   6.6231447e+00   4.0474773e+00   0.0000000e+00   2.7228484e+01   1.4718099e+01   3.4955486e+00   6.0160231e+01   2.2629078e+01   1.5637981e+01   1.4902076e+01   1.4718099e+00   2.0421363e+01   1.5270028e+01   6.4391685e+00   6.6231447e+00   0.0000000e+00   0.0000000e+00   0.0000000e+00   0.0000000e+00
   1.9869434e+01   2.5756674e+00   1.1038574e+00   6.0712160e+01   1.6741838e+01   5.7032635e+00   4.0474773e+00   5.5192872e-01   2.6308603e+01   1.4902076e+01   2.3916911e+00   5.8688421e+01   2.1157268e+01   1.4902076e+01   1.5086052e+01   1.1038574e+00   1.9317505e+01   1.4350147e+01   6.4391685e+00   7.1750734e+00   0.0000000e+00   0.0000000e+00   0.0000000e+00   0.0000000e+00
   1.9501482e+01   2.2077149e+00   1.2878337e+00   6.1080112e+01   1.6189909e+01   5.1513348e+00   4.0474773e+00   9.1988121e-01   2.5388721e+01   1.4902076e+01   1.6557862e+00   5.8320469e+01   2.0053410e+01   1.4350147e+01   1.5086052e+01   1.1038574e+00   1.8581600e+01   1.3614242e+01   6.6231447e+00   7.5430259e+00   0.0000000e+00   0.0000000e+00   0.0000000e+00   0.0000000e+00
   1.9869434e+01   2.3916911e+00   1.6557862e+00   6.1999993e+01   1.6741838e+01   5.1513348e+00   4.4154298e+00   1.6557862e+00   2.5572698e+01   1.4534123e+01   2.5756674e+00   5.9424326e+01   1.9869434e+01   1.3982194e+01   1.5637981e+01   1.6557862e+00   1.8397624e+01   1.3614242e+01   7.1750734e+00   8.4629071e+00   0.0000000e+00   0.0000000e+00   0.0000000e+00   0.0000000e+00
   2.0237387e+01   2.5756674e+00   2.0237387e+00   6.2919875e+01   1.7293767e+01   5.3353110e+00   4.5994060e+00   2.5756674e+00   2.6124626e+01   1.3798218e+01   4.2314536e+00   6.1816017e+01   2.0053410e+01   1.3614242e+01   1.6005933e+01   2.7596436e+00   1.8581600e+01   1.3982194e+01   7.7270021e+00   9.1988121e+00   0.0000000e+00   0.0000000e+00   0.0000000e+00   0.0000000e+00
   2.0789315e+01   2.9436199e+00   2.3916911e+00   6.3839756e+01   1.8213648e+01   5.8872397e+00   5.1513348e+00   3.3115723e+00   2.6860531e+01   1.2878337e+01   6.2551922e+00   6.4575661e+01   2.0237387e+01   1.3246289e+01   1.6189909e+01   3.8635011e+00   1.8765577e+01   1.4350147e+01   8.0949546e+00   9.9347170e+00   0.0000000e+00   0.0000000e+00   0.0000000e+00   0.0000000e+00
   2.0973292e+01   2.9436199e+00   2.5756674e+00   6.4575661e+01   1.8949553e+01   6.2551922e+00   5.5192872e+00   4.0474773e+00   2.7228484e+01   1.2326408e+01   7.9109784e+00   6.6967352e+01   2.0237387e+01   1.2694361e+01   1.6373886e+01   4.9673585e+00   1.8765577e+01   1.4718099e+01   8.4629071e+00   1.0670622e+01   0.0000000e+00   0.0000000e+00   0.0000000e+00   0.0000000e+00
   2.0973292e+01   3.1275961e+00   2.7596436e+00   6.4759637e+01   1.9685458e+01   6.9910972e+00   6.0712160e+00   4.7833823e+00   2.7412460e+01   1.2510384e+01   8.8308596e+00   6.8623138e+01   2.0053410e+01   1.2142432e+01   1.6925814e+01   5.8872397e+00   1.8765577e+01   1.4902076e+01   8.8308596e+00   1.1590503e+01   0.0000000e+00   0.0000000e+00   0.0000000e+00   0.0000000e+00
   2.0789315e+01   3.3115723e+00   2.9436199e+00   6.4207708e+01   2.0053410e+01   7.3590497e+00   6.6231447e+00   5.5192872e+00   2.6860531e+01   1.2878337e+01   9.0148358e+00   6.8623138e+01   1.9501482e+01   1.1590503e+01   1.7109790e+01   6.4391685e+00   1.8397624e+01   1.4718099e+01   9.1988121e+00   1.2326408e+01   0.0000000e+00   0.0000000e+00   0.0000000e+00   0.0000000e+00
   2.0237387e+01   3.3115723e+00   2.9436199e+00   6.2735898e+01   2.0053410e+01   7.5430259e+00   6.9910972e+00   6.2551922e+00   2.5756674e+01   1.3062313e+01   8.0949546e+00   6.7151328e+01   1.8581600e+01   1.0670622e+01   1.7293767e+01   6.6231447e+00   1.7661719e+01   1.3982194e+01   9.3827883e+00   1.3062313e+01   0.0000000e+00   0.0000000e+00   0.0000000e+00   0.0000000e+00
   1.9869434e+01   3.3115723e+00   2.9436199e+00   6.1080112e+01   2.0053410e+01   7.7270021e+00   7.3590497e+00   7.1750734e+00   2.4468840e+01   1.3062313e+01   6.9910972e+00   6.5311566e+01   1.7845695e+01   9.9347170e+00   1.7477743e+01   6.6231447e+00   1.6925814e+01   1.2878337e+01   9.5667646e+00   1.3798218e+01   0.0000000e+00   0.0000000e+00   0.0000000e+00   0.0000000e+00
   1.9317505e+01   3.1275961e+00   2.7596436e+00   5.9240350e+01   1.9869434e+01   7.5430259e+00   7.3590497e+00   7.5430259e+00   2.3364983e+01   1.2694361e+01   5.8872397e+00   6.4207708e+01   1.7109790e+01   8.8308596e+00   1.6925814e+01   6.6231447e+00   1.5821957e+01   1.1590503e+01   9.5667646e+00   1.4166171e+01   0.0000000e+00   0.0000000e+00   0.0000000e+00   0.0000000e+00
   1.9133529e+01   2.9436199e+00   2.7596436e+00   5.7952516e+01   1.9501482e+01   7.3590497e+00   7.3590497e+00   8.0949546e+00   2.2997030e+01   1.2510384e+01   5.8872397e+00   6.4759637e+01   1.6925814e+01   7.9109784e+00   1.6189909e+01   6.9910972e+00   1.4902076e+01   1.0670622e+01   9.1988121e+00   1.4166171e+01   0.0000000e+00   0.0000000e+00   0.0000000e+00   0.0000000e+00
   1.8765577e+01   2.5756674e+00   2.2077149e+00   5.6664682e+01   1.8949553e+01   6.8071209e+00   6.9910972e+00   7.9109784e+00   2.2629078e+01   1.1774479e+01   6.6231447e+00   6.6415423e+01   1.6925814e+01   6.6231447e+00   1.4718099e+01   7.1750734e+00   1.3614242e+01   9.7507408e+00   8.4629071e+00   1.3614242e+01   0.0000000e+00   0.0000000e+00   0.0000000e+00   0.0000000e+00
   1.8397624e+01   2.2077149e+00   1.6557862e+00   5.5560825e+01   1.8397624e+01   6.2551922e+00   6.6231447e+00   7.5430259e+00   2.2445101e+01   1.0486646e+01   8.0949546e+00   6.8255186e+01   1.6925814e+01   5.1513348e+00   1.2878337e+01   7.3590497e+00   1.2510384e+01   9.1988121e+00   7.5430259e+00   1.2694361e+01   0.0000000e+00   0.0000000e+00   0.0000000e+00   0.0000000e+00
   1.8029672e+01   2.0237387e+00   1.1038574e+00   5.4456968e+01   1.8029672e+01   6.0712160e+00   6.4391685e+00   6.9910972e+00   2.2261125e+01   8.6468834e+00   9.5667646e+00   6.9175067e+01   1.6925814e+01   3.6795248e+00   1.1222551e+01   7.5430259e+00   1.1774479e+01   8.6468834e+00   6.8071209e+00   1.1774479e+01   0.0000000e+00   0.0000000e+00   0.0000000e+00   0.0000000e+00
   1.8397624e+01   2.3916911e+00   1.1038574e+00   5.4089015e+01   1.8213648e+01   6.2551922e+00   6.4391685e+00   6.6231447e+00   2.2077149e+01   6.6231447e+00   1.0302670e+01   6.8623138e+01   1.6741838e+01   2.5756674e+00   9.7507408e+00   7.3590497e+00   1.1406527e+01   8.2789309e+00   6.0712160e+00   1.0854598e+01   0.0000000e+00   0.0000000e+00   0.0000000e+00   0.0000000e+00
   1.8949553e+01   2.9436199e+00   1.2878337e+00   5.4640944e+01   1.8949553e+01   6.9910972e+00   6.9910972e+00   6.4391685e+00   2.1525220e+01   5.3353110e+00   1.0118693e+01   6.6599399e+01   1.6557862e+01   2.0237387e+00   8.6468834e+00   6.9910972e+00   1.1590503e+01   8.0949546e+00   5.5192872e+00   9.9347170e+00   0.0000000e+00   0.0000000e+00   0.0000000e+00   0.0000000e+00
   1.9869434e+01   3.8635011e+00   1.8397624e+00   5.6296730e+01   2.0053410e+01   8.0949546e+00   7.5430259e+00   6.2551922e+00   2.0789315e+01   4.7833823e+00   8.8308596e+00   6.4391685e+01   1.6189909e+01   1.6557862e+00   7.9109784e+00   6.0712160e+00   1.2142432e+01   7.7270021e+00   5.1513348e+00   9.1988121e+00   0.0000000e+00   0.0000000e+00   0.0000000e+00   0.0000000e+00
   2.1341244e+01   5.1513348e+00   2.7596436e+00   5.8872397e+01   2.1341244e+01   9.3827883e+00   8.0949546e+00   6.4391685e+00   2.0237387e+01   5.5192872e+00   6.8071209e+00   6.3471803e+01   1.6189909e+01   2.0237387e+00   7.5430259e+00   4.9673585e+00   1.3246289e+01   7.3590497e+00   5.1513348e+00   8.6468834e+00   0.0000000e+00   0.0000000e+00   0.0000000e+00   0.0000000e+00
   2.2629078e+01   6.0712160e+00   3.3115723e+00   6.1264088e+01   2.2445101e+01   1.0486646e+01   8.4629071e+00   6.4391685e+00   1.9685458e+01   6.2551922e+00   4.5994060e+00   6.3287827e+01   1.6189909e+01   2.0237387e+00   6.8071209e+00   3.6795248e+00   1.4166171e+01   6.9910972e+00   4.5994060e+00   7.7270021e+00   0.0000000e+00   0.0000000e+00   0.0000000e+00   0.0000000e+00
   2.3732935e+01   6.9910972e+00   3.6795248e+00   6.3839756e+01   2.3181006e+01   1.1222551e+01   8.4629071e+00   6.4391685e+00   1.9317505e+01   6.6231447e+00   2.9436199e+00   6.3655780e+01   1.6189909e+01   2.2077149e+00   6.2551922e+00   2.3916911e+00   1.4902076e+01   6.8071209e+00   3.8635011e+00   6.9910972e+00   0.0000000e+00   0.0000000e+00   0.0000000e+00   0.0000000e+00
   2.4652816e+01   7.3590497e+00   3.8635011e+00   6.6047471e+01   2.3732935e+01   1.1590503e+01   8.2789309e+00   6.4391685e+00   1.9317505e+01   6.2551922e+00   2.2077149e+00   6.3471803e+01   1.6373886e+01   2.3916911e+00   5.5192872e+00   1.6557862e+00   1.5270028e+01   6.9910972e+00   3.1275961e+00   6.4391685e+00   0.0000000e+00   0.0000000e+00   0.0000000e+00   0.0000000e+00
   2.4836793e+01   7.1750734e+00   3.4955486e+00   6.7703257e+01   2.3548959e+01   1.1406527e+01   7.5430259e+00   6.0712160e+00   1.8949553e+01   5.3353110e+00   2.3916911e+00   6.2183970e+01   1.6189909e+01   2.0237387e+00   4.4154298e+00   9.1988121e-01   1.5086052e+01   7.1750734e+00   2.2077149e+00   5.5192872e+00   0.0000000e+00   0.0000000e+00   0.0000000e+00   0.0000000e+00
   2.4836793e+01   6.8071209e+00   3.3115723e+00   6.8991091e+01   2.3548959e+01   1.1222551e+01   6.9910972e+00   5.7032635e+00   1.9317505e+01   4.7833823e+00   3.6795248e+00   6.0896136e+01   1.6005933e+01   2.2077149e+00   3.8635011e+00   5.5192872e-01   1.4902076e+01   7.9109784e+00   1.8397624e+00   4.9673585e+00   0.0000000e+00   0.0000000e+00   0.0000000e+00   0.0000000e+00
   2.4284864e+01   6.2551922e+00   2.7596436e+00   6.9543019e+01   2.2997030e+01   1.0670622e+01   6.4391685e+00   4.7833823e+00   1.9501482e+01   4.5994060e+00   4.7833823e+00   5.9976255e+01   1.5821957e+01   2.3916911e+00   3.3115723e+00   1.8397624e-01   1.4718099e+01   8.6468834e+00   1.2878337e+00   4.4154298e+00   0.0000000e+00   0.0000000e+00   0.0000000e+00   0.0000000e+00
   2.4100888e+01   5.7032635e+00   2.2077149e+00   6.9726996e+01   2.2813054e+01   1.0118693e+01   5.8872397e+00   4.0474773e+00   1.9869434e+01   5.3353110e+00   6.0712160e+00   6.0160231e+01   1.6005933e+01   2.9436199e+00   2.9436199e+00  -3.6795248e-01   1.4902076e+01   9.5667646e+00   1.2878337e+00   4.0474773e+00   0.0000000e+00   0.0000000e+00   0.0000000e+00   0.0000000e+00
   2.4100888e+01   5.3353110e+00   2.0237387e+00   6.8991091e+01   2.2629078e+01   9.7507408e+00   5.5192872e+00   3.3115723e+00   2.0605339e+01   6.6231447e+00   6.8071209e+00   6.1080112e+01   1.6557862e+01   3.8635011e+00   3.1275961e+00  -7.3590497e-01   1.5270028e+01   1.0486646e+01   1.4718099e+00   3.6795248e+00   0.0000000e+00   0.0000000e+00   0.0000000e+00   0.0000000e+00
   2.3916911e+01   4.7833823e+00   1.4718099e+00   6.7703257e+01   2.2261125e+01   9.1988121e+00   5.1513348e+00   2.5756674e+00   2.0973292e+01   7.3590497e+00   6.6231447e+00   6.1999993e+01   1.7109790e+01   4.5994060e+00   3.3115723e+00  -1.4718099e+00   1.5637981e+01   1.1038574e+01   1.2878337e+00   3.4955486e+00   0.0000000e+00   0.0000000e+00   0.0000000e+00   0.0000000e+00
   2.3916911e+01   4.7833823e+00   1.6557862e+00   6.6415423e+01   2.2261125e+01   8.8308596e+00   4.9673585e+00   2.2077149e+00   2.1525220e+01   8.0949546e+00   5.8872397e+00   6.2919875e+01   1.7661719e+01   5.7032635e+00   3.6795248e+00  -1.8397624e+00   1.6373886e+01   1.1590503e+01   1.6557862e+00   3.4955486e+00   0.0000000e+00   0.0000000e+00   0.0000000e+00   0.0000000e+00
   2.3916911e+01   5.1513348e+00   2.0237387e+00   6.5311566e+01   2.2629078e+01   8.8308596e+00   5.3353110e+00   2.3916911e+00   2.1893173e+01   8.2789309e+00   4.7833823e+00   6.3103851e+01   1.8397624e+01   6.9910972e+00   4.4154298e+00  -1.8397624e+00   1.7293767e+01   1.1958456e+01   2.0237387e+00   4.0474773e+00   0.0000000e+00   0.0000000e+00   0.0000000e+00   0.0000000e+00
   2.3548959e+01   5.5192872e+00   2.2077149e+00   6.4207708e+01   2.2813054e+01   9.0148358e+00   5.5192872e+00   2.7596436e+00   2.1893173e+01   8.0949546e+00   3.4955486e+00   6.2551922e+01   1.8581600e+01   7.9109784e+00   5.1513348e+00  -1.8397624e+00   1.8029672e+01   1.2326408e+01   2.3916911e+00   4.4154298e+00   0.0000000e+00   0.0000000e+00   0.0000000e+00   0.0000000e+00
   2.3181006e+01   5.8872397e+00   2.3916911e+00   6.2919875e+01   2.3181006e+01   9.3827883e+00   5.8872397e+00   3.1275961e+00   2.1893173e+01   8.2789309e+00   2.5756674e+00   6.1448065e+01   1.8949553e+01   8.6468834e+00   5.7032635e+00  -1.4718099e+00   1.8765577e+01   1.2878337e+01   2.7596436e+00   4.7833823e+00   0.0000000e+00   0.0000000e+00   0.0000000e+00   0.0000000e+00
   2.2629078e+01   6.0712160e+00   2.2077149e+00   6.1448065e+01   2.3732935e+01   9.9347170e+00   6.0712160e+00   3.3115723e+00   2.2077149e+01   8.4629071e+00   2.3916911e+00   6.0160231e+01   1.9133529e+01   9.1988121e+00   6.0712160e+00  -1.2878337e+00   1.9317505e+01   1.3798218e+01   2.9436199e+00   4.9673585e+00   0.0000000e+00   0.0000000e+00   0.0000000e+00   0.0000000e+00
   2.2629078e+01   6.2551922e+00   2.0237387e+00   6.0160231e+01   2.4284864e+01   1.0486646e+01   6.2551922e+00   3.4955486e+00   2.2813054e+01   9.0148358e+00   3.3115723e+00   5.9608302e+01   1.9685458e+01   9.5667646e+00   6.6231447e+00  -5.5192872e-01   2.0053410e+01   1.4902076e+01   2.9436199e+00   4.9673585e+00   0.0000000e+00   0.0000000e+00   0.0000000e+00   0.0000000e+00
   2.2445101e+01   6.0712160e+00   1.4718099e+00   5.8688421e+01   2.4652816e+01   1.0670622e+01   5.8872397e+00   3.3115723e+00   2.3364983e+01   8.8308596e+00   4.4154298e+00   5.9240350e+01   1.9869434e+01   9.5667646e+00   6.6231447e+00  -3.6795248e-01   2.0421363e+01   1.5637981e+01   2.3916911e+00   4.7833823e+00   0.0000000e+00   0.0000000e+00   0.0000000e+00   0.0000000e+00
   2.2629078e+01   6.2551922e+00   1.2878337e+00   5.7216611e+01   2.5020769e+01   1.0854598e+01   5.7032635e+00   3.3115723e+00   2.3916911e+01   8.6468834e+00   5.7032635e+00   5.9608302e+01   1.9869434e+01   9.5667646e+00   6.8071209e+00   0.0000000e+00   2.0789315e+01   1.6189909e+01   1.6557862e+00   4.5994060e+00   0.0000000e+00   0.0000000e+00   0.0000000e+00   0.0000000e+00
   2.2813054e+01   6.4391685e+00   1.1038574e+00   5.6112754e+01   2.5204745e+01   1.0670622e+01   5.5192872e+00   3.3115723e+00   2.4100888e+01   8.4629071e+00   6.4391685e+00   5.9976255e+01   1.9685458e+01   9.1988121e+00   6.6231447e+00   1.8397624e-01   2.1157268e+01   1.6189909e+01   9.1988121e-01   4.7833823e+00   0.0000000e+00   0.0000000e+00   0.0000000e+00   0.0000000e+00
   2.3181006e+01   6.9910972e+00   1.4718099e+00   5.5560825e+01   2.5572698e+01   1.0670622e+01   5.5192872e+00   3.6795248e+00   2.3732935e+01   8.6468834e+00   6.4391685e+00   6.0896136e+01   1.9133529e+01   8.8308596e+00   6.8071209e+00   3.6795248e-01   2.1709197e+01   1.5821957e+01   3.6795248e-01   5.1513348e+00   0.0000000e+00   0.0000000e+00   0.0000000e+00   0.0000000e+00
   2.3364983e+01   7.3590497e+00   1.8397624e+00   5.5744801e+01   2.5756674e+01   1.0302670e+01   5.3353110e+00   3.8635011e+00   2.2629078e+01   8.8308596e+00   5.5192872e+00   6.1816017e+01   1.8213648e+01   7.9109784e+00   6.8071209e+00   1.8397624e-01   2.1893173e+01   1.4718099e+01  -1.8397624e-01   5.7032635e+00   0.0000000e+00   0.0000000e+00   0.0000000e+00   0.0000000e+00
   2.3181006e+01   7.5430259e+00   2.2077149e+00   5.7216611e+01   2.5756674e+01   9.9347170e+00   5.1513348e+00   4.0474773e+00   2.1341244e+01   9.0148358e+00   4.2314536e+00   6.2919875e+01   1.7109790e+01   6.9910972e+00   6.8071209e+00  -1.8397624e-01   2.1893173e+01   1.3614242e+01  -7.3590497e-01   6.0712160e+00   0.0000000e+00   0.0000000e+00   0.0000000e+00   0.0000000e+00
   2.2997030e+01   7.7270021e+00   2.3916911e+00   5.9424326e+01   2.6124626e+01   9.5667646e+00   4.9673585e+00   4.2314536e+00   2.0053410e+01   9.1988121e+00   3.3115723e+00   6.4023732e+01   1.6005933e+01   6.2551922e+00   6.9910972e+00  -1.8397624e-01   2.2077149e+01   1.2510384e+01  -7.3590497e-01   6.8071209e+00   0.0000000e+00   0.0000000e+00   0.0000000e+00   0.0000000e+00
   2.3181006e+01   7.9109784e+00   2.9436199e+00   6.1999993e+01   2.6492579e+01   9.3827883e+00   4.9673585e+00   4.7833823e+00   1.9317505e+01   9.3827883e+00   3.1275961e+00   6.5127590e+01   1.5454004e+01   5.7032635e+00   7.7270021e+00   1.8397624e-01   2.2077149e+01   1.2142432e+01  -5.5192872e-01   7.5430259e+00   0.0000000e+00   0.0000000e+00   0.0000000e+00   0.0000000e+00
   2.3732935e+01   8.0949546e+00   3.3115723e+00   6.4207708e+01   2.6676555e+01   9.3827883e+00   4.9673585e+00   5.3353110e+00   1.9133529e+01   9.3827883e+00   3.8635011e+00   6.6231447e+01   1.5454004e+01   5.5192872e+00   8.2789309e+00   9.1988121e-01   2.2261125e+01   1.2326408e+01   0.0000000e+00   8.4629071e+00   0.0000000e+00   0.0000000e+00   0.0000000e+00   0.0000000e+00
   2.4100888e+01   8.0949546e+00   3.6795248e+00   6.5311566e+01   2.6492579e+01   9.0148358e+00   4.7833823e+00   5.7032635e+00   1.9317505e+01   9.5667646e+00   5.1513348e+00   6.7151328e+01   1.5637981e+01   5.5192872e+00   8.8308596e+00   2.0237387e+00   2.2261125e+01   1.2694361e+01   5.5192872e-01   8.8308596e+00   0.0000000e+00   0.0000000e+00   0.0000000e+00   0.0000000e+00
   2.4284864e+01   7.9109784e+00   3.8635011e+00   6.6047471e+01   2.6308603e+01   8.8308596e+00   4.5994060e+00   5.8872397e+00   2.0053410e+01   1.0118693e+01   6.8071209e+00   6.8071209e+01   1.6189909e+01   5.8872397e+00   9.1988121e+00   3.3115723e+00   2.2629078e+01   1.3798218e+01   1.2878337e+00   9.3827883e+00   0.0000000e+00   0.0000000e+00   0.0000000e+00   0.0000000e+00
   2.4284864e+01   7.5430259e+00   3.8635011e+00   6.6599399e+01   2.5940650e+01   8.4629071e+00   4.4154298e+00   5.8872397e+00   2.0605339e+01   1.0670622e+01   8.2789309e+00   6.8255186e+01   1.6557862e+01   6.2551922e+00   9.3827883e+00   4.2314536e+00   2.2629078e+01   1.4902076e+01   1.8397624e+00   9.1988121e+00   0.0000000e+00   0.0000000e+00   0.0000000e+00   0.0000000e+00
   2.4100888e+01   7.1750734e+00   3.8635011e+00   6.7887233e+01   2.5940650e+01   8.4629071e+00   4.4154298e+00   5.7032635e+00   2.1157268e+01   1.1222551e+01   9.3827883e+00   6.7703257e+01   1.6741838e+01   6.9910972e+00   9.5667646e+00   5.1513348e+00   2.2997030e+01   1.6189909e+01   2.5756674e+00   9.3827883e+00   0.0000000e+00   0.0000000e+00   0.0000000e+00   0.0000000e+00
   2.3732935e+01   6.9910972e+00   3.8635011e+00   6.9543019e+01   2.6124626e+01   8.6468834e+00   4.4154298e+00   5.7032635e+00   2.1157268e+01   1.1038574e+01   9.7507408e+00   6.6231447e+01   1.6557862e+01   7.5430259e+00   9.9347170e+00   5.7032635e+00   2.3364983e+01   1.7477743e+01   3.3115723e+00   9.3827883e+00   0.0000000e+00   0.0000000e+00   0.0000000e+00   0.0000000e+00
   2.3732935e+01   6.9910972e+00   4.0474773e+00   7.0830853e+01   2.6492579e+01   9.0148358e+00   4.7833823e+00   5.8872397e+00   2.0789315e+01   1.0670622e+01   9.7507408e+00   6.4391685e+01   1.6189909e+01   8.0949546e+00   1.0486646e+01   6.0712160e+00   2.3732935e+01   1.8397624e+01   4.0474773e+00   9.9347170e+00   0.0000000e+00   0.0000000e+00   0.0000000e+00   0.0000000e+00
   2.3548959e+01   6.8071209e+00   4.4154298e+00   7.0830853e+01   2.6860531e+01   9.5667646e+00   5.1513348e+00   6.0712160e+00   1.9869434e+01   1.0486646e+01   9.1988121e+00   6.2735898e+01   1.5637981e+01   8.6468834e+00   1.0854598e+01   6.0712160e+00   2.4100888e+01   1.9133529e+01   4.5994060e+00   1.0118693e+01   0.0000000e+00   0.0000000e+00   0.0000000e+00   0.0000000e+00
   2.3732935e+01   7.1750734e+00   4.9673585e+00   6.9910972e+01   2.7228484e+01   1.0118693e+01   5.7032635e+00   6.4391685e+00   1.9501482e+01   1.0854598e+01   8.6468834e+00   6.2183970e+01   1.5454004e+01   9.3827883e+00   1.1590503e+01   6.4391685e+00   2.4836793e+01   1.9685458e+01   5.1513348e+00   1.0670622e+01   0.0000000e+00   0.0000000e+00   0.0000000e+00   0.0000000e+00
   2.3732935e+01   7.1750734e+00   5.5192872e+00   6.7703257e+01   2.7228484e+01   1.0302670e+01   6.0712160e+00   6.8071209e+00   1.9501482e+01   1.1222551e+01   8.2789309e+00   6.2919875e+01   1.5637981e+01   9.7507408e+00   1.1958456e+01   6.4391685e+00   2.5204745e+01   1.9869434e+01   5.3353110e+00   1.0854598e+01   0.0000000e+00   0.0000000e+00   0.0000000e+00   0.0000000e+00
   2.3181006e+01   6.8071209e+00   5.8872397e+00   6.5127590e+01   2.6492579e+01   9.9347170e+00   6.0712160e+00   6.6231447e+00   1.9869434e+01   1.1222551e+01   8.4629071e+00   6.4207708e+01   1.5821957e+01   9.9347170e+00   1.1958456e+01   6.2551922e+00   2.5204745e+01   1.9685458e+01   5.1513348e+00   1.0486646e+01   0.0000000e+00   0.0000000e+00   0.0000000e+00   0.0000000e+00
   2.2261125e+01   6.2551922e+00   5.8872397e+00   6.2367946e+01   2.5572698e+01   9.1988121e+00   5.8872397e+00   6.2551922e+00   2.0421363e+01   1.0302670e+01   9.5667646e+00   6.4759637e+01   1.5821957e+01   9.7507408e+00   1.1406527e+01   6.2551922e+00   2.4652816e+01   1.9317505e+01   4.4154298e+00   9.9347170e+00   0.0000000e+00   0.0000000e+00   0.0000000e+00   0.0000000e+00
   2.1157268e+01   5.5192872e+00   5.8872397e+00   6.0160231e+01   2.4284864e+01   7.9109784e+00   5.5192872e+00   5.8872397e+00   2.0789315e+01   8.6468834e+00   1.1038574e+01   6.3655780e+01   1.5454004e+01   9.0148358e+00   1.0670622e+01   6.0712160e+00   2.3364983e+01   1.8397624e+01   3.4955486e+00   9.1988121e+00   0.0000000e+00   0.0000000e+00   0.0000000e+00   0.0000000e+00
   2.0237387e+01   4.7833823e+00   6.0712160e+00   5.8688421e+01   2.3181006e+01   6.9910972e+00   5.1513348e+00   5.5192872e+00   2.0973292e+01   6.9910972e+00   1.2694361e+01   6.1632041e+01   1.4718099e+01   8.0949546e+00   1.0118693e+01   6.0712160e+00   2.1893173e+01   1.7293767e+01   2.5756674e+00   8.6468834e+00   0.0000000e+00   0.0000000e+00   0.0000000e+00   0.0000000e+00
   1.9685458e+01   4.4154298e+00   6.4391685e+00   5.8320469e+01   2.2629078e+01   6.4391685e+00   5.5192872e+00   5.7032635e+00   2.0973292e+01   6.4391685e+00   1.3430266e+01   5.9976255e+01   1.3982194e+01   7.3590497e+00   9.9347170e+00   6.0712160e+00   2.0605339e+01   1.6005933e+01   2.3916911e+00   8.8308596e+00   0.0000000e+00   0.0000000e+00   0.0000000e+00   0.0000000e+00
   1.9501482e+01   4.4154298e+00   7.1750734e+00   5.8872397e+01   2.2629078e+01   6.4391685e+00   6.2551922e+00   6.0712160e+00   2.0789315e+01   6.6231447e+00   1.2878337e+01   5.9976255e+01   1.3614242e+01   6.9910972e+00   1.0118693e+01   5.8872397e+00   1.9869434e+01   1.4902076e+01   2.5756674e+00   9.1988121e+00   0.0000000e+00   0.0000000e+00   0.0000000e+00   0.0000000e+00
   1.9317505e+01   4.5994060e+00   8.2789309e+00   5.9608302e+01   2.2445101e+01   6.8071209e+00   7.1750734e+00   6.6231447e+00   2.0605339e+01   6.9910972e+00   1.1038574e+01   6.1264088e+01   1.3430266e+01   6.8071209e+00   1.0486646e+01   5.5192872e+00   1.9317505e+01   1.3798218e+01   3.3115723e+00   9.7507408e+00   0.0000000e+00   0.0000000e+00   0.0000000e+00   0.0000000e+00
   1.9133529e+01   5.1513348e+00   9.3827883e+00   6.0344207e+01   2.2813054e+01   7.5430259e+00   8.6468834e+00   7.5430259e+00   2.0421363e+01   7.3590497e+00   8.8308596e+00   6.3471803e+01   1.3798218e+01   6.8071209e+00   1.1038574e+01   5.1513348e+00   1.9317505e+01   1.3062313e+01   4.5994060e+00   1.0486646e+01   0.0000000e+00   0.0000000e+00   0.0000000e+00   0.0000000e+00
   1.8949553e+01   5.7032635e+00   1.0670622e+01   6.0528183e+01   2.2813054e+01   8.4629071e+00   1.0118693e+01   8.2789309e+00   1.9869434e+01   7.1750734e+00   6.9910972e+00   6.5127590e+01   1.4166171e+01   6.8071209e+00   1.1406527e+01   4.5994060e+00   1.9317505e+01   1.2510384e+01   5.8872397e+00   1.1038574e+01   0.0000000e+00   0.0000000e+00   0.0000000e+00   0.0000000e+00
   1.8397624e+01   6.0712160e+00   1.1406527e+01   6.0160231e+01   2.2813054e+01   9.0148358e+00   1.1406527e+01   8.6468834e+00   1.9133529e+01   6.2551922e+00   5.8872397e+00   6.6231447e+01   1.4166171e+01   6.4391685e+00   1.1406527e+01   4.2314536e+00   1.9133529e+01   1.2142432e+01   6.9910972e+00   1.1038574e+01   0.0000000e+00   0.0000000e+00   0.0000000e+00   0.0000000e+00
   1.8029672e+01   6.4391685e+00   1.2142432e+01   6.0160231e+01   2.2813054e+01   9.5667646e+00   1.2510384e+01   9.1988121e+00   1.8397624e+01   5.5192872e+00   5.5192872e+00   6.6967352e+01   1.3982194e+01   6.0712160e+00   1.1222551e+01   4.4154298e+00   1.8765577e+01   1.2142432e+01   8.0949546e+00   1.1222551e+01   0.0000000e+00   0.0000000e+00   0.0000000e+00   0.0000000e+00
   1.8029672e+01   6.9910972e+00   1.2694361e+01   6.0528183e+01   2.3181006e+01   1.0118693e+01   1.3798218e+01   9.9347170e+00   1.7845695e+01   5.5192872e+00   6.2551922e+00   6.8071209e+01   1.3982194e+01   5.7032635e+00   1.1222551e+01   4.9673585e+00   1.8765577e+01   1.2878337e+01   9.0148358e+00   1.1406527e+01   0.0000000e+00   0.0000000e+00   0.0000000e+00   0.0000000e+00
   1.8029672e+01   7.5430259e+00   1.3246289e+01   6.0712160e+01   2.3364983e+01   1.0670622e+01   1.4902076e+01   1.0486646e+01   1.7477743e+01   5.8872397e+00   7.1750734e+00   6.8991091e+01   1.3982194e+01   5.5192872e+00   1.1222551e+01   5.7032635e+00   1.8765577e+01   1.3982194e+01   9.9347170e+00   1.1590503e+01   0.0000000e+00   0.0000000e+00   0.0000000e+00   0.0000000e+00
   1.7845695e+01   7.9109784e+00   1.3614242e+01   6.0712160e+01   2.3364983e+01   1.1038574e+01   1.5821957e+01   1.1038574e+01   1.7109790e+01   6.2551922e+00   8.0949546e+00   6.9175067e+01   1.3982194e+01   5.3353110e+00   1.1222551e+01   6.4391685e+00   1.8949553e+01   1.5086052e+01   1.0670622e+01   1.1774479e+01   0.0000000e+00   0.0000000e+00   0.0000000e+00   0.0000000e+00
   1.7477743e+01   8.2789309e+00   1.3798218e+01   6.0528183e+01   2.2997030e+01   1.1406527e+01   1.6741838e+01   1.1406527e+01   1.6741838e+01   6.4391685e+00   8.8308596e+00   6.8807114e+01   1.3798218e+01   5.1513348e+00   1.1406527e+01   6.9910972e+00   1.9317505e+01   1.6005933e+01   1.1222551e+01   1.2142432e+01   0.0000000e+00   0.0000000e+00   0.0000000e+00   0.0000000e+00
   1.7109790e+01   8.6468834e+00   1.3982194e+01   6.0160231e+01   2.2629078e+01   1.1590503e+01   1.7661719e+01   1.1590503e+01   1.6373886e+01   6.2551922e+00   9.0148358e+00   6.8071209e+01   1.3798218e+01   5.1513348e+00   1.1590503e+01   7.1750734e+00   1.9501482e+01   1.6557862e+01   1.1590503e+01   1.2510384e+01   0.0000000e+00   0.0000000e+00   0.0000000e+00   0.0000000e+00
   1.6925814e+01   9.0148358e+00   1.4166171e+01   6.0160231e+01   2.2261125e+01   1.1958456e+01   1.8765577e+01   1.1774479e+01   1.6189909e+01   6.2551922e+00   8.6468834e+00   6.7335304e+01   1.3614242e+01   5.1513348e+00   1.1774479e+01   7.1750734e+00   2.0053410e+01   1.6741838e+01   1.1958456e+01   1.2878337e+01   0.0000000e+00   0.0000000e+00   0.0000000e+00   0.0000000e+00
   1.6925814e+01   9.3827883e+00   1.4166171e+01   5.9976255e+01   2.1709197e+01   1.2326408e+01   1.9501482e+01   1.1590503e+01   1.5821957e+01   6.0712160e+00   7.5430259e+00   6.6599399e+01   1.3246289e+01   4.9673585e+00   1.1590503e+01   6.9910972e+00   2.0421363e+01   1.6373886e+01   1.1958456e+01   1.2694361e+01   0.0000000e+00   0.0000000e+00   0.0000000e+00   0.0000000e+00
   1.6925814e+01   9.7507408e+00   1.3982194e+01   5.9792279e+01   2.1341244e+01   1.2510384e+01   2.0237387e+01   1.1222551e+01   1.5637981e+01   6.0712160e+00   6.0712160e+00   6.5863495e+01   1.3062313e+01   4.7833823e+00   1.1406527e+01   6.8071209e+00   2.0605339e+01   1.6005933e+01   1.1958456e+01   1.2510384e+01   0.0000000e+00   0.0000000e+00   0.0000000e+00   0.0000000e+00
   1.7109790e+01   1.0118693e+01   1.3430266e+01   5.9424326e+01   2.0973292e+01   1.2878337e+01   2.0421363e+01   1.0670622e+01   1.5821957e+01   6.2551922e+00   5.1513348e+00   6.4391685e+01   1.2694361e+01   4.5994060e+00   1.1222551e+01   6.8071209e+00   2.0605339e+01   1.5454004e+01   1.1774479e+01   1.2326408e+01   0.0000000e+00   0.0000000e+00   0.0000000e+00   0.0000000e+00
   1.7661719e+01   1.0486646e+01   1.2694361e+01   5.8872397e+01   2.0605339e+01   1.3430266e+01   2.0605339e+01   1.0118693e+01   1.6557862e+01   6.6231447e+00   5.5192872e+00   6.2183970e+01   1.2510384e+01   4.4154298e+00   1.1038574e+01   7.5430259e+00   2.0605339e+01   1.5454004e+01   1.1774479e+01   1.1958456e+01   0.0000000e+00   0.0000000e+00   0.0000000e+00   0.0000000e+00
   1.8213648e+01   1.0670622e+01   1.1774479e+01   5.8688421e+01   2.0421363e+01   1.3614242e+01   2.0421363e+01   9.5667646e+00   1.7477743e+01   6.8071209e+00   6.8071209e+00   5.9240350e+01   1.2510384e+01   4.4154298e+00   1.1222551e+01   8.4629071e+00   2.0421363e+01   1.5821957e+01   1.1774479e+01   1.1774479e+01   0.0000000e+00   0.0000000e+00   0.0000000e+00   0.0000000e+00
   1.8765577e+01   1.0670622e+01   1.1038574e+01   5.8872397e+01   2.0421363e+01   1.3982194e+01   2.0237387e+01   9.1988121e+00   1.8581600e+01   6.9910972e+00   9.0148358e+00   5.6848659e+01   1.2510384e+01   4.4154298e+00   1.1590503e+01   9.3827883e+00   2.0421363e+01   1.6373886e+01   1.1590503e+01   1.1590503e+01   0.0000000e+00   0.0000000e+00   0.0000000e+00   0.0000000e+00
   1.9501482e+01   1.0670622e+01   1.0670622e+01   5.9056374e+01   2.0605339e+01   1.4534123e+01   2.0053410e+01   9.0148358e+00   1.9501482e+01   7.5430259e+00   1.1222551e+01   5.5560825e+01   1.2510384e+01   4.7833823e+00   1.2326408e+01   1.0118693e+01   2.0789315e+01   1.7109790e+01   1.1774479e+01   1.1590503e+01   0.0000000e+00   0.0000000e+00   0.0000000e+00   0.0000000e+00
   1.9869434e+01   1.0670622e+01   1.0486646e+01   5.8688421e+01   2.0973292e+01   1.4902076e+01   1.9685458e+01   9.0148358e+00   1.9501482e+01   8.4629071e+00   1.2510384e+01   5.5376849e+01   1.2326408e+01   5.1513348e+00   1.2878337e+01   1.0302670e+01   2.1157268e+01   1.7293767e+01   1.1774479e+01   1.1590503e+01   0.0000000e+00   0.0000000e+00   0.0000000e+00   0.0000000e+00
   2.0053410e+01   1.0670622e+01   1.0486646e+01   5.7952516e+01   2.1157268e+01   1.5270028e+01   1.9133529e+01   9.1988121e+00   1.8765577e+01   9.7507408e+00   1.2510384e+01   5.6112754e+01   1.2142432e+01   5.7032635e+00   1.3430266e+01   9.9347170e+00   2.1525220e+01   1.7293767e+01   1.1590503e+01   1.1590503e+01   0.0000000e+00   0.0000000e+00   0.0000000e+00   0.0000000e+00
   2.0053410e+01   1.0670622e+01   1.0670622e+01   5.7584564e+01   2.1893173e+01   1.5821957e+01   1.8581600e+01   9.3827883e+00   1.7661719e+01   1.1406527e+01   1.1590503e+01   5.7768540e+01   1.2326408e+01   6.6231447e+00   1.3798218e+01   9.3827883e+00   2.2077149e+01   1.6925814e+01   1.1406527e+01   1.1590503e+01   0.0000000e+00   0.0000000e+00   0.0000000e+00   0.0000000e+00
   1.9685458e+01   1.0486646e+01   1.0670622e+01   5.7768540e+01   2.2445101e+01   1.6189909e+01   1.7845695e+01   9.5667646e+00   1.6557862e+01   1.2510384e+01   1.0118693e+01   5.9792279e+01   1.2694361e+01   7.3590497e+00   1.3982194e+01   8.8308596e+00   2.2629078e+01   1.6373886e+01   1.0854598e+01   1.1406527e+01   0.0000000e+00   0.0000000e+00   0.0000000e+00   0.0000000e+00
   1.9317505e+01   1.0302670e+01   1.0854598e+01   5.8504445e+01   2.3364983e+01   1.6557862e+01   1.6925814e+01   9.5667646e+00   1.6005933e+01   1.3062313e+01   8.6468834e+00   6.2367946e+01   1.3614242e+01   8.2789309e+00   1.3798218e+01   8.4629071e+00   2.3364983e+01   1.6189909e+01   1.0302670e+01   1.1038574e+01   0.0000000e+00   0.0000000e+00   0.0000000e+00   0.0000000e+00
   1.8765577e+01   9.7507408e+00   1.0670622e+01   5.9608302e+01   2.4100888e+01   1.6373886e+01   1.5821957e+01   9.3827883e+00   1.5821957e+01   1.2694361e+01   7.7270021e+00   6.4575661e+01   1.4350147e+01   8.6468834e+00   1.3062313e+01   8.2789309e+00   2.3916911e+01   1.6005933e+01   9.1988121e+00   1.0486646e+01   0.0000000e+00   0.0000000e+00   0.0000000e+00   0.0000000e+00
   1.8397624e+01   8.8308596e+00   1.0486646e+01   6.0712160e+01   2.4652816e+01   1.6005933e+01   1.4534123e+01   9.1988121e+00   1.6005933e+01   1.1774479e+01   7.3590497e+00   6.5679518e+01   1.5086052e+01   8.6468834e+00   1.2142432e+01   8.2789309e+00   2.4284864e+01   1.6005933e+01   7.7270021e+00   9.7507408e+00   0.0000000e+00   0.0000000e+00   0.0000000e+00   0.0000000e+00
   1.8029672e+01   7.9109784e+00   1.0302670e+01   6.2367946e+01   2.5204745e+01   1.5637981e+01   1.3246289e+01   8.8308596e+00   1.6189909e+01   1.0302670e+01   7.5430259e+00   6.5863495e+01   1.5454004e+01   8.4629071e+00   1.1038574e+01   8.4629071e+00   2.4468840e+01   1.6189909e+01   6.2551922e+00   9.0148358e+00   0.0000000e+00   0.0000000e+00   0.0000000e+00   0.0000000e+00
   1.8213648e+01   7.3590497e+00   9.9347170e+00   6.4023732e+01   2.5756674e+01   1.5086052e+01   1.2142432e+01   8.6468834e+00   1.6557862e+01   9.1988121e+00   8.0949546e+00   6.5863495e+01   1.5821957e+01   8.0949546e+00   1.0118693e+01   8.4629071e+00   2.5020769e+01   1.6557862e+01   4.9673585e+00   8.4629071e+00   0.0000000e+00   0.0000000e+00   0.0000000e+00   0.0000000e+00
   1.8581600e+01   6.9910972e+00   9.5667646e+00   6.5863495e+01   2.6308603e+01   1.4718099e+01   1.1222551e+01   8.4629071e+00   1.6741838e+01   8.2789309e+00   8.6468834e+00   6.6231447e+01   1.6005933e+01   7.9109784e+00   9.3827883e+00   8.4629071e+00   2.5572698e+01   1.6925814e+01   3.6795248e+00   7.9109784e+00   0.0000000e+00   0.0000000e+00   0.0000000e+00   0.0000000e+00
   1.8949553e+01   6.9910972e+00   9.3827883e+00   6.6967352e+01   2.6860531e+01   1.3982194e+01   1.0670622e+01   8.4629071e+00   1.7109790e+01   7.7270021e+00   8.6468834e+00   6.7335304e+01   1.6005933e+01   7.9109784e+00   9.0148358e+00   7.9109784e+00   2.6308603e+01   1.7109790e+01   2.7596436e+00   7.7270021e+00   0.0000000e+00   0.0000000e+00   0.0000000e+00   0.0000000e+00
   1.9317505e+01   7.1750734e+00   9.1988121e+00   6.6967352e+01   2.7228484e+01   1.3430266e+01   1.0118693e+01   8.4629071e+00   1.7293767e+01   7.1750734e+00   7.9109784e+00   6.8991091e+01   1.6005933e+01   8.0949546e+00   8.6468834e+00   7.3590497e+00   2.6860531e+01   1.7109790e+01   1.8397624e+00   7.7270021e+00   0.0000000e+00   0.0000000e+00   0.0000000e+00   0.0000000e+00
   1.9869434e+01   7.7270021e+00   9.1988121e+00   6.5863495e+01   2.7228484e+01   1.2878337e+01   9.7507408e+00   8.6468834e+00   1.7661719e+01   6.9910972e+00   6.8071209e+00   7.0646877e+01   1.6189909e+01   8.8308596e+00   8.8308596e+00   7.1750734e+00   2.7412460e+01   1.6925814e+01   1.4718099e+00   7.9109784e+00   0.0000000e+00   0.0000000e+00   0.0000000e+00   0.0000000e+00
   2.0053410e+01   8.2789309e+00   9.0148358e+00   6.3655780e+01   2.7044508e+01   1.2142432e+01   9.5667646e+00   9.0148358e+00   1.7477743e+01   6.9910972e+00   5.5192872e+00   7.1750734e+01   1.5821957e+01   9.5667646e+00   8.8308596e+00   6.9910972e+00   2.7780412e+01   1.6189909e+01   1.1038574e+00   8.4629071e+00   0.0000000e+00   0.0000000e+00   0.0000000e+00   0.0000000e+00
   2.0237387e+01   8.6468834e+00   9.0148358e+00   6.1264088e+01   2.6676555e+01   1.1590503e+01   9.3827883e+00   9.5667646e+00   1.7109790e+01   7.1750734e+00   4.4154298e+00   7.2118687e+01   1.5637981e+01   1.0486646e+01   9.1988121e+00   7.1750734e+00   2.7780412e+01   1.5454004e+01   1.1038574e+00   9.0148358e+00   0.0000000e+00   0.0000000e+00   0.0000000e+00   0.0000000e+00
   2.0421363e+01   9.1988121e+00   9.0148358e+00   5.8688421e+01   2.6308603e+01   1.1222551e+01   9.1988121e+00   1.0302670e+01   1.6557862e+01   7.3590497e+00   4.0474773e+00   7.1382782e+01   1.5270028e+01   1.1038574e+01   9.7507408e+00   7.9109784e+00   2.7964389e+01   1.4902076e+01   1.2878337e+00   9.5667646e+00   0.0000000e+00   0.0000000e+00   0.0000000e+00   0.0000000e+00
   2.0789315e+01   9.5667646e+00   8.8308596e+00   5.6480706e+01   2.5940650e+01   1.1222551e+01   9.1988121e+00   1.1222551e+01   1.6005933e+01   7.5430259e+00   4.7833823e+00   6.9726996e+01   1.5270028e+01   1.1774479e+01   1.0486646e+01   9.0148358e+00   2.8332341e+01   1.4902076e+01   2.0237387e+00   1.0486646e+01   0.0000000e+00   0.0000000e+00   0.0000000e+00   0.0000000e+00
   2.0421363e+01   9.5667646e+00   8.4629071e+00   5.3537086e+01   2.5204745e+01   1.0854598e+01   8.8308596e+00   1.1590503e+01   1.5270028e+01   6.9910972e+00   6.0712160e+00   6.6967352e+01   1.5086052e+01   1.1774479e+01   1.0854598e+01   9.7507408e+00   2.8332341e+01   1.4902076e+01   2.2077149e+00   1.0854598e+01   0.0000000e+00   0.0000000e+00   0.0000000e+00   0.0000000e+00
   2.0053410e+01   9.5667646e+00   8.0949546e+00   5.0409490e+01   2.4468840e+01   1.0486646e+01   8.6468834e+00   1.1958456e+01   1.5086052e+01   6.8071209e+00   7.9109784e+00   6.4023732e+01   1.4902076e+01   1.1590503e+01   1.1038574e+01   1.0670622e+01   2.8516317e+01   1.5270028e+01   2.3916911e+00   1.1038574e+01   0.0000000e+00   0.0000000e+00   0.0000000e+00   0.0000000e+00
   1.9317505e+01   9.3827883e+00   7.5430259e+00   4.7833823e+01   2.3548959e+01   1.0118693e+01   8.4629071e+00   1.1958456e+01   1.4902076e+01   6.8071209e+00   9.7507408e+00   6.1816017e+01   1.4718099e+01   1.1038574e+01   1.1038574e+01   1.1222551e+01   2.8332341e+01   1.5637981e+01   2.2077149e+00   1.1222551e+01   0.0000000e+00   0.0000000e+00   0.0000000e+00   0.0000000e+00
   1.8397624e+01   9.0148358e+00   7.1750734e+00   4.6545989e+01   2.2629078e+01   9.3827883e+00   7.9109784e+00   1.1590503e+01   1.4902076e+01   6.8071209e+00   1.0486646e+01   6.0896136e+01   1.4718099e+01   1.0118693e+01   1.0486646e+01   1.1406527e+01   2.8148365e+01   1.5821957e+01   1.8397624e+00   1.1222551e+01   0.0000000e+00   0.0000000e+00   0.0000000e+00   0.0000000e+00
   1.7661719e+01   8.8308596e+00   6.8071209e+00   4.7097918e+01   2.2077149e+01   9.0148358e+00   7.7270021e+00   1.1406527e+01   1.4718099e+01   6.9910972e+00   1.0118693e+01   6.1080112e+01   1.4534123e+01   9.3827883e+00   1.0118693e+01   1.1406527e+01   2.7964389e+01   1.5821957e+01   1.2878337e+00   1.1038574e+01   0.0000000e+00   0.0000000e+00   0.0000000e+00   0.0000000e+00
   1.7293767e+01   9.0148358e+00   6.6231447e+00   4.9857561e+01   2.2077149e+01   8.8308596e+00   7.5430259e+00   1.1406527e+01   1.4534123e+01   6.9910972e+00   8.6468834e+00   6.1999993e+01   1.4534123e+01   9.0148358e+00   9.9347170e+00   1.1038574e+01   2.7780412e+01   1.5637981e+01   7.3590497e-01   1.1222551e+01   0.0000000e+00   0.0000000e+00   0.0000000e+00   0.0000000e+00
   1.7293767e+01   9.0148358e+00   6.6231447e+00   5.3537086e+01   2.2077149e+01   8.8308596e+00   7.1750734e+00   1.1406527e+01   1.3982194e+01   6.4391685e+00   6.4391685e+00   6.2367946e+01   1.4534123e+01   8.6468834e+00   9.9347170e+00   1.0670622e+01   2.7596436e+01   1.5086052e+01   1.8397624e-01   1.1406527e+01   0.0000000e+00   0.0000000e+00   0.0000000e+00   0.0000000e+00
   1.7661719e+01   9.0148358e+00   6.8071209e+00   5.7768540e+01   2.2445101e+01   8.8308596e+00   6.9910972e+00   1.1406527e+01   1.3430266e+01   6.2551922e+00   4.4154298e+00   6.1816017e+01   1.4350147e+01   8.2789309e+00   1.0118693e+01   1.0302670e+01   2.7228484e+01   1.4166171e+01  -1.8397624e-01   1.1590503e+01   0.0000000e+00   0.0000000e+00   0.0000000e+00   0.0000000e+00
   1.8213648e+01   9.0148358e+00   6.8071209e+00   6.1632041e+01   2.2813054e+01   8.8308596e+00   6.4391685e+00   1.1774479e+01   1.3246289e+01   6.2551922e+00   3.1275961e+00   6.0712160e+01   1.4166171e+01   7.9109784e+00   1.0486646e+01   1.0118693e+01   2.6676555e+01   1.3430266e+01  -3.6795248e-01   1.1774479e+01   0.0000000e+00   0.0000000e+00   0.0000000e+00   0.0000000e+00
   1.8765577e+01   8.4629071e+00   6.6231447e+00   6.4391685e+01   2.2813054e+01   8.0949546e+00   5.5192872e+00   1.1958456e+01   1.3430266e+01   6.9910972e+00   2.7596436e+00   6.0160231e+01   1.3982194e+01   7.3590497e+00   1.0670622e+01   1.0118693e+01   2.5756674e+01   1.2510384e+01  -5.5192872e-01   1.1958456e+01   0.0000000e+00   0.0000000e+00   0.0000000e+00   0.0000000e+00
   1.8765577e+01   7.5430259e+00   5.8872397e+00   6.6047471e+01   2.2261125e+01   6.9910972e+00   4.0474773e+00   1.1958456e+01   1.3798218e+01   7.5430259e+00   3.3115723e+00   6.0528183e+01   1.3430266e+01   6.4391685e+00   1.0302670e+01   1.0302670e+01   2.4468840e+01   1.1406527e+01  -1.1038574e+00   1.1774479e+01   0.0000000e+00   0.0000000e+00   0.0000000e+00   0.0000000e+00
   1.8765577e+01   6.4391685e+00   5.3353110e+00   6.7151328e+01   2.1709197e+01   5.7032635e+00   2.5756674e+00   1.1958456e+01   1.4718099e+01   8.4629071e+00   4.5994060e+00   6.2551922e+01   1.3246289e+01   5.8872397e+00   1.0302670e+01   1.0854598e+01   2.3364983e+01   1.0854598e+01  -1.6557862e+00   1.1590503e+01   0.0000000e+00   0.0000000e+00   0.0000000e+00   0.0000000e+00
   1.8581600e+01   5.5192872e+00   4.5994060e+00   6.7519281e+01   2.1157268e+01   4.4154298e+00   1.1038574e+00   1.1958456e+01   1.5637981e+01   8.8308596e+00   5.8872397e+00   6.5679518e+01   1.3246289e+01   5.5192872e+00   1.0118693e+01   1.1222551e+01   2.2445101e+01   1.0302670e+01  -2.2077149e+00   1.1406527e+01   0.0000000e+00   0.0000000e+00   0.0000000e+00   0.0000000e+00
   1.8397624e+01   4.5994060e+00   4.0474773e+00   6.6783376e+01   2.0421363e+01   3.3115723e+00  -3.6795248e-01   1.1406527e+01   1.6557862e+01   8.8308596e+00   6.9910972e+00   6.8071209e+01   1.3246289e+01   5.3353110e+00   9.9347170e+00   1.1406527e+01   2.1709197e+01   9.7507408e+00  -2.7596436e+00   1.1038574e+01   0.0000000e+00   0.0000000e+00   0.0000000e+00   0.0000000e+00
   1.8029672e+01   3.6795248e+00   3.6795248e+00   6.4943613e+01   1.9685458e+01   2.2077149e+00  -1.4718099e+00   1.0670622e+01   1.7293767e+01   9.0148358e+00   7.3590497e+00   6.8991091e+01   1.3430266e+01   5.3353110e+00   9.5667646e+00   1.1222551e+01   2.1341244e+01   8.8308596e+00  -3.4955486e+00   1.0670622e+01   0.0000000e+00   0.0000000e+00   0.0000000e+00   0.0000000e+00
   1.7477743e+01   2.5756674e+00   3.3115723e+00   6.1632041e+01   1.8765577e+01   9.1988121e-01  -2.7596436e+00   9.5667646e+00   1.7293767e+01   9.7507408e+00   7.1750734e+00   6.7519281e+01   1.3246289e+01   5.1513348e+00   9.0148358e+00   1.0486646e+01   2.0605339e+01   7.5430259e+00  -4.4154298e+00   9.7507408e+00   0.0000000e+00   0.0000000e+00   0.0000000e+00   0.0000000e+00
   1.6925814e+01   1.6557862e+00   2.9436199e+00   5.7400587e+01   1.7661719e+01   0.0000000e+00  -3.4955486e+00   8.4629071e+00   1.7293767e+01   1.0854598e+01   6.2551922e+00   6.5311566e+01   1.3246289e+01   4.9673585e+00   8.4629071e+00   9.5667646e+00   2.0237387e+01   6.2551922e+00  -5.1513348e+00   9.0148358e+00   0.0000000e+00   0.0000000e+00   0.0000000e+00   0.0000000e+00
   1.6189909e+01   9.1988121e-01   2.7596436e+00   5.2801181e+01   1.6557862e+01  -9.1988121e-01  -4.2314536e+00   7.3590497e+00   1.6925814e+01   1.1406527e+01   5.3353110e+00   6.3655780e+01   1.3062313e+01   4.5994060e+00   7.7270021e+00   8.8308596e+00   1.9685458e+01   5.3353110e+00  -5.7032635e+00   8.0949546e+00   0.0000000e+00   0.0000000e+00   0.0000000e+00   0.0000000e+00
   1.5454004e+01   1.8397624e-01   2.5756674e+00   4.8569728e+01   1.5454004e+01  -1.4718099e+00  -4.5994060e+00   6.4391685e+00   1.6741838e+01   1.1406527e+01   4.4154298e+00   6.3839756e+01   1.3246289e+01   4.2314536e+00   6.8071209e+00   8.0949546e+00   1.9133529e+01   4.5994060e+00  -6.0712160e+00   6.9910972e+00   0.0000000e+00   0.0000000e+00   0.0000000e+00   0.0000000e+00
   1.5086052e+01  -1.8397624e-01   2.5756674e+00   4.5810084e+01   1.4718099e+01  -2.0237387e+00  -4.5994060e+00   5.7032635e+00   1.6741838e+01   1.0670622e+01   4.2314536e+00   6.6231447e+01   1.3614242e+01   3.8635011e+00   6.0712160e+00   7.5430259e+00   1.8949553e+01   4.5994060e+00  -6.2551922e+00   6.0712160e+00   0.0000000e+00   0.0000000e+00   0.0000000e+00   0.0000000e+00
   1.4718099e+01  -5.5192872e-01   2.7596436e+00   4.4706227e+01   1.4350147e+01  -2.3916911e+00  -4.2314536e+00   4.9673585e+00   1.6925814e+01   9.9347170e+00   4.7833823e+00   6.9543019e+01   1.4166171e+01   3.3115723e+00   4.9673585e+00   7.3590497e+00   1.8581600e+01   4.7833823e+00  -6.2551922e+00   5.1513348e+00   0.0000000e+00   0.0000000e+00   0.0000000e+00   0.0000000e+00
   1.4350147e+01  -7.3590497e-01   2.7596436e+00   4.4706227e+01   1.4166171e+01  -2.7596436e+00  -4.0474773e+00   4.4154298e+00   1.6925814e+01   9.5667646e+00   5.3353110e+00   7.2118687e+01   1.4166171e+01   2.5756674e+00   3.6795248e+00   7.1750734e+00   1.8213648e+01   4.9673585e+00  -6.4391685e+00   4.0474773e+00   0.0000000e+00   0.0000000e+00   0.0000000e+00   0.0000000e+00
   1.4350147e+01  -7.3590497e-01   3.1275961e+00   4.5810084e+01   1.4534123e+01  -2.9436199e+00  -3.3115723e+00   3.8635011e+00   1.6925814e+01   9.5667646e+00   5.8872397e+00   7.3406520e+01   1.3982194e+01   1.8397624e+00   2.3916911e+00   6.8071209e+00   1.7845695e+01   4.9673585e+00  -6.4391685e+00   3.1275961e+00   0.0000000e+00   0.0000000e+00   0.0000000e+00   0.0000000e+00
   1.4350147e+01  -5.5192872e-01   3.6795248e+00   4.7097918e+01   1.4902076e+01  -3.1275961e+00  -2.5756674e+00   3.3115723e+00   1.6557862e+01   9.5667646e+00   5.5192872e+00   7.2670615e+01   1.3430266e+01   9.1988121e-01   1.2878337e+00   6.2551922e+00   1.7293767e+01   4.7833823e+00  -6.6231447e+00   2.2077149e+00   0.0000000e+00   0.0000000e+00   0.0000000e+00   0.0000000e+00
   1.4718099e+01   0.0000000e+00   4.4154298e+00   4.9305633e+01   1.6005933e+01  -2.5756674e+00  -1.4718099e+00   3.1275961e+00   1.6005933e+01   9.5667646e+00   4.4154298e+00   7.1198806e+01   1.2510384e+01   5.5192872e-01   5.5192872e-01   5.5192872e+00   1.7293767e+01   4.5994060e+00  -6.0712160e+00   1.6557862e+00   0.0000000e+00   0.0000000e+00   0.0000000e+00   0.0000000e+00
   1.4718099e+01   7.3590497e-01   5.1513348e+00   5.2433229e+01   1.6925814e+01  -1.8397624e+00  -3.6795248e-01   2.9436199e+00   1.4902076e+01   8.8308596e+00   2.5756674e+00   6.8991091e+01   1.1222551e+01   0.0000000e+00   0.0000000e+00   4.5994060e+00   1.7293767e+01   3.8635011e+00  -5.7032635e+00   1.2878337e+00   0.0000000e+00   0.0000000e+00   0.0000000e+00   0.0000000e+00
   1.5454004e+01   2.0237387e+00   6.2551922e+00   5.6480706e+01   1.8581600e+01  -3.6795248e-01   1.4718099e+00   3.1275961e+00   1.3982194e+01   8.2789309e+00   9.1988121e-01   6.7519281e+01   1.0670622e+01   1.8397624e-01   3.6795248e-01   3.8635011e+00   1.8029672e+01   3.8635011e+00  -4.5994060e+00   1.4718099e+00   0.0000000e+00   0.0000000e+00   0.0000000e+00   0.0000000e+00
   1.6005933e+01   3.3115723e+00   7.3590497e+00   5.9792279e+01   1.9685458e+01   1.2878337e+00   3.1275961e+00   3.4955486e+00   1.3062313e+01   7.9109784e+00  -7.3590497e-01   6.6231447e+01   9.9347170e+00   3.6795248e-01   9.1988121e-01   2.9436199e+00   1.8765577e+01   3.8635011e+00  -3.6795248e+00   1.4718099e+00   0.0000000e+00   0.0000000e+00   0.0000000e+00   0.0000000e+00
   1.6373886e+01   4.5994060e+00   8.0949546e+00   6.1816017e+01   2.0605339e+01   2.9436199e+00   4.5994060e+00   3.4955486e+00   1.1958456e+01   7.5430259e+00  -1.8397624e+00   6.5127590e+01   9.1988121e+00   7.3590497e-01   1.2878337e+00   2.0237387e+00   1.9133529e+01   4.0474773e+00  -2.9436199e+00   1.4718099e+00   0.0000000e+00   0.0000000e+00   0.0000000e+00   0.0000000e+00
   1.6557862e+01   5.8872397e+00   8.8308596e+00   6.1999993e+01   2.0789315e+01   4.2314536e+00   5.8872397e+00   3.4955486e+00   1.1038574e+01   7.5430259e+00  -2.3916911e+00   6.3655780e+01   8.6468834e+00   7.3590497e-01   1.4718099e+00   1.2878337e+00   1.9317505e+01   4.4154298e+00  -2.2077149e+00   1.4718099e+00   0.0000000e+00   0.0000000e+00   0.0000000e+00   0.0000000e+00
   1.6741838e+01   6.9910972e+00   9.7507408e+00   6.1080112e+01   2.0605339e+01   5.3353110e+00   7.1750734e+00   3.3115723e+00   1.0486646e+01   7.5430259e+00  -2.0237387e+00   6.1816017e+01   8.2789309e+00   9.1988121e-01   1.6557862e+00   9.1988121e-01   1.9133529e+01   5.1513348e+00  -1.6557862e+00   1.2878337e+00   0.0000000e+00   0.0000000e+00   0.0000000e+00   0.0000000e+00
   1.6741838e+01   7.7270021e+00   1.0302670e+01   5.9608302e+01   2.0237387e+01   6.2551922e+00   8.0949546e+00   3.1275961e+00   1.0118693e+01   7.3590497e+00  -1.1038574e+00   5.9608302e+01   7.7270021e+00   1.1038574e+00   1.6557862e+00   7.3590497e-01   1.8581600e+01   6.0712160e+00  -1.1038574e+00   1.1038574e+00   0.0000000e+00   0.0000000e+00   0.0000000e+00   0.0000000e+00
   1.6741838e+01   8.4629071e+00   1.1038574e+01   5.8136492e+01   1.9501482e+01   6.9910972e+00   9.1988121e+00   2.9436199e+00   9.9347170e+00   6.9910972e+00  -1.8397624e-01   5.7216611e+01   7.1750734e+00   1.2878337e+00   1.8397624e+00   7.3590497e-01   1.7845695e+01   7.1750734e+00  -7.3590497e-01   1.1038574e+00   0.0000000e+00   0.0000000e+00   0.0000000e+00   0.0000000e+00
   1.6557862e+01   8.8308596e+00   1.1590503e+01   5.6296730e+01   1.8765577e+01   7.5430259e+00   9.7507408e+00   2.9436199e+00   9.7507408e+00   6.6231447e+00   3.6795248e-01   5.5192872e+01   6.4391685e+00   1.4718099e+00   1.8397624e+00   7.3590497e-01   1.7109790e+01   8.2789309e+00  -1.8397624e-01   1.1038574e+00   0.0000000e+00   0.0000000e+00   0.0000000e+00   0.0000000e+00
   1.6741838e+01   9.1988121e+00   1.2142432e+01   5.4640944e+01   1.8213648e+01   8.4629071e+00   1.0670622e+01   3.1275961e+00   9.7507408e+00   6.6231447e+00   3.6795248e-01   5.4089015e+01   5.8872397e+00   1.8397624e+00   2.0237387e+00   9.1988121e-01   1.6925814e+01   9.1988121e+00   5.5192872e-01   1.4718099e+00   0.0000000e+00   0.0000000e+00   0.0000000e+00   0.0000000e+00
   1.6925814e+01   9.5667646e+00   1.2694361e+01   5.2985158e+01   1.8029672e+01   9.0148358e+00   1.1222551e+01   3.3115723e+00   9.5667646e+00   6.6231447e+00   0.0000000e+00   5.3905039e+01   5.7032635e+00   2.2077149e+00   2.5756674e+00   9.1988121e-01   1.6925814e+01   1.0118693e+01   1.2878337e+00   1.8397624e+00   0.0000000e+00   0.0000000e+00   0.0000000e+00   0.0000000e+00
   1.7477743e+01   9.9347170e+00   1.3246289e+01   5.1881300e+01   1.8213648e+01   9.5667646e+00   1.1774479e+01   3.4955486e+00   9.1988121e+00   6.4391685e+00  -9.1988121e-01   5.4272991e+01   5.5192872e+00   2.3916911e+00   3.1275961e+00   5.5192872e-01   1.7293767e+01   1.0670622e+01   2.0237387e+00   2.0237387e+00   0.0000000e+00   0.0000000e+00   0.0000000e+00   0.0000000e+00
   1.8029672e+01   1.0486646e+01   1.3798218e+01   5.1881300e+01   1.8581600e+01   9.9347170e+00   1.2326408e+01   3.8635011e+00   9.0148358e+00   5.7032635e+00  -1.4718099e+00   5.4640944e+01   5.7032635e+00   2.5756674e+00   3.6795248e+00   1.8397624e-01   1.7845695e+01   1.1038574e+01   2.7596436e+00   2.3916911e+00   0.0000000e+00   0.0000000e+00   0.0000000e+00   0.0000000e+00
   1.8581600e+01   1.0854598e+01   1.3982194e+01   5.2801181e+01   1.9317505e+01   9.9347170e+00   1.2142432e+01   3.8635011e+00   8.8308596e+00   4.4154298e+00  -1.8397624e+00   5.5008896e+01   5.7032635e+00   2.5756674e+00   3.8635011e+00  -1.8397624e-01   1.8397624e+01   1.1406527e+01   2.7596436e+00   2.3916911e+00   0.0000000e+00   0.0000000e+00   0.0000000e+00   0.0000000e+00
   1.8949553e+01   1.0854598e+01   1.3798218e+01   5.4089015e+01   1.9869434e+01   9.5667646e+00   1.1590503e+01   3.6795248e+00   9.0148358e+00   3.1275961e+00  -1.4718099e+00   5.5560825e+01   5.8872397e+00   2.2077149e+00   3.6795248e+00  -7.3590497e-01   1.8765577e+01   1.1774479e+01   2.3916911e+00   2.0237387e+00   0.0000000e+00   0.0000000e+00   0.0000000e+00   0.0000000e+00
   1.9317505e+01   1.0854598e+01   1.3430266e+01   5.5008896e+01   2.0421363e+01   9.3827883e+00   1.1038574e+01   3.4955486e+00   9.5667646e+00   2.5756674e+00  -3.6795248e-01   5.6664682e+01   6.2551922e+00   2.0237387e+00   3.4955486e+00  -1.1038574e+00   1.9317505e+01   1.2326408e+01   1.8397624e+00   1.4718099e+00   0.0000000e+00   0.0000000e+00   0.0000000e+00   0.0000000e+00
   1.9501482e+01   1.0670622e+01   1.2694361e+01   5.5744801e+01   2.1157268e+01   9.1988121e+00   9.9347170e+00   3.1275961e+00   1.0486646e+01   2.9436199e+00   9.1988121e-01   5.7768540e+01   6.9910972e+00   1.8397624e+00   3.1275961e+00  -1.1038574e+00   2.0053410e+01   1.2878337e+01   1.2878337e+00   9.1988121e-01   0.0000000e+00   0.0000000e+00   0.0000000e+00   0.0000000e+00
   2.0237387e+01   1.0854598e+01   1.2142432e+01   5.6664682e+01   2.2077149e+01   9.3827883e+00   9.3827883e+00   2.9436199e+00   1.1958456e+01   4.2314536e+00   2.3916911e+00   5.8504445e+01   8.0949546e+00   2.2077149e+00   3.3115723e+00  -9.1988121e-01   2.1157268e+01   1.3614242e+01   9.1988121e-01   7.3590497e-01   0.0000000e+00   0.0000000e+00   0.0000000e+00   0.0000000e+00
   2.0973292e+01   1.1222551e+01   1.1774479e+01   5.8320469e+01   2.3364983e+01   9.7507408e+00   9.0148358e+00   3.3115723e+00   1.3246289e+01   5.7032635e+00   3.3115723e+00   5.8872397e+01   9.1988121e+00   2.7596436e+00   3.8635011e+00  -3.6795248e-01   2.2445101e+01   1.4350147e+01   9.1988121e-01   9.1988121e-01   0.0000000e+00   0.0000000e+00   0.0000000e+00   0.0000000e+00
   2.2077149e+01   1.1774479e+01   1.1590503e+01   6.0528183e+01   2.4652816e+01   1.0486646e+01   9.0148358e+00   3.6795248e+00   1.4534123e+01   6.8071209e+00   3.3115723e+00   5.9056374e+01   1.0486646e+01   3.6795248e+00   4.4154298e+00   0.0000000e+00   2.3916911e+01   1.4902076e+01   1.2878337e+00   1.4718099e+00   0.0000000e+00   0.0000000e+00   0.0000000e+00   0.0000000e+00
   2.3364983e+01   1.2694361e+01   1.1958456e+01   6.3103851e+01   2.6308603e+01   1.1406527e+01   9.3827883e+00   4.7833823e+00   1.5637981e+01   7.9109784e+00   3.1275961e+00   5.9976255e+01   1.1774479e+01   4.9673585e+00   5.5192872e+00   7.3590497e-01   2.5388721e+01   1.5637981e+01   2.0237387e+00   2.7596436e+00   0.0000000e+00   0.0000000e+00   0.0000000e+00   0.0000000e+00
   2.4284864e+01   1.3614242e+01   1.2326408e+01   6.4759637e+01   2.7780412e+01   1.2510384e+01   1.0118693e+01   5.7032635e+00   1.6557862e+01   9.0148358e+00   2.2077149e+00   6.1080112e+01   1.3062313e+01   6.2551922e+00   6.2551922e+00   1.1038574e+00   2.6492579e+01   1.6189909e+01   2.9436199e+00   4.0474773e+00   0.0000000e+00   0.0000000e+00   0.0000000e+00   0.0000000e+00
   2.5204745e+01   1.4350147e+01   1.2694361e+01   6.5679518e+01   2.8884270e+01   1.3614242e+01   1.0670622e+01   6.4391685e+00   1.7293767e+01   1.0486646e+01   1.4718099e+00   6.2367946e+01   1.4166171e+01   7.7270021e+00   6.9910972e+00   1.6557862e+00   2.7228484e+01   1.6741838e+01   3.8635011e+00   5.3353110e+00   0.0000000e+00   0.0000000e+00   0.0000000e+00   0.0000000e+00
   2.5756674e+01   1.4902076e+01   1.2510384e+01   6.5863495e+01   2.9804151e+01   1.4350147e+01   1.0854598e+01   6.8071209e+00   1.7845695e+01   1.2142432e+01   9.1988121e-01   6.3287827e+01   1.5086052e+01   8.8308596e+00   7.5430259e+00   2.2077149e+00   2.7596436e+01   1.7293767e+01   4.5994060e+00   6.4391685e+00   0.0000000e+00   0.0000000e+00   0.0000000e+00   0.0000000e+00
   2.5756674e+01   1.4718099e+01   1.2326408e+01   6.6047471e+01   3.0356080e+01   1.4902076e+01   1.1038574e+01   6.8071209e+00   1.8213648e+01   1.3430266e+01   1.2878337e+00   6.4023732e+01   1.5637981e+01   9.9347170e+00   8.0949546e+00   2.7596436e+00   2.7780412e+01   1.8029672e+01   5.1513348e+00   7.1750734e+00   0.0000000e+00   0.0000000e+00   0.0000000e+00   0.0000000e+00
   2.5388721e+01   1.4350147e+01   1.1590503e+01   6.6599399e+01   3.0540056e+01   1.5086052e+01   1.0670622e+01   6.4391685e+00   1.8397624e+01   1.3798218e+01   2.3916911e+00   6.4943613e+01   1.6189909e+01   1.0670622e+01   8.6468834e+00   3.3115723e+00   2.7780412e+01   1.8765577e+01   5.7032635e+00   7.5430259e+00   0.0000000e+00   0.0000000e+00   0.0000000e+00   0.0000000e+00
   2.5020769e+01   1.3614242e+01   1.0854598e+01   6.6967352e+01   3.0356080e+01   1.5086052e+01   1.0486646e+01   6.0712160e+00   1.8765577e+01   1.3798218e+01   4.2314536e+00   6.6783376e+01   1.6557862e+01   1.1406527e+01   9.3827883e+00   3.6795248e+00   2.7964389e+01   1.9501482e+01   6.4391685e+00   7.9109784e+00   0.0000000e+00   0.0000000e+00   0.0000000e+00   0.0000000e+00
   2.4468840e+01   1.2878337e+01   1.0486646e+01   6.6783376e+01   3.0172104e+01   1.4902076e+01   1.0302670e+01   5.7032635e+00   1.9133529e+01   1.3614242e+01   6.4391685e+00   6.9175067e+01   1.6925814e+01   1.1958456e+01   1.0486646e+01   4.0474773e+00   2.7964389e+01   2.0421363e+01   6.9910972e+00   8.2789309e+00   0.0000000e+00   0.0000000e+00   0.0000000e+00   0.0000000e+00
   2.3732935e+01   1.2142432e+01   9.9347170e+00   6.5495542e+01   2.9804151e+01   1.4534123e+01   1.0118693e+01   5.3353110e+00   1.9685458e+01   1.4350147e+01   7.9109784e+00   7.1566758e+01   1.7109790e+01   1.2694361e+01   1.1590503e+01   4.2314536e+00   2.8148365e+01   2.1341244e+01   7.7270021e+00   8.6468834e+00   0.0000000e+00   0.0000000e+00   0.0000000e+00   0.0000000e+00
   2.2813054e+01   1.1222551e+01   9.3827883e+00   6.3471803e+01   2.9252222e+01   1.3982194e+01   9.9347170e+00   4.7833823e+00   1.9685458e+01   1.5270028e+01   8.0949546e+00   7.3406520e+01   1.6925814e+01   1.3246289e+01   1.2510384e+01   4.0474773e+00   2.7780412e+01   2.1525220e+01   8.0949546e+00   8.8308596e+00   0.0000000e+00   0.0000000e+00   0.0000000e+00   0.0000000e+00
   2.1893173e+01   1.0486646e+01   8.8308596e+00   6.0896136e+01   2.8700294e+01   1.3430266e+01   9.7507408e+00   4.2314536e+00   1.9501482e+01   1.6373886e+01   7.3590497e+00   7.4142425e+01   1.6557862e+01   1.3798218e+01   1.3246289e+01   3.6795248e+00   2.7412460e+01   2.1341244e+01   8.2789309e+00   9.0148358e+00   0.0000000e+00   0.0000000e+00   0.0000000e+00   0.0000000e+00
   2.0789315e+01   9.9347170e+00   8.2789309e+00   5.8320469e+01   2.7964389e+01   1.2878337e+01   9.3827883e+00   3.6795248e+00   1.9317505e+01   1.6557862e+01   6.0712160e+00   7.3774473e+01   1.6189909e+01   1.4166171e+01   1.3798218e+01   3.6795248e+00   2.6860531e+01   2.0973292e+01   8.2789309e+00   9.0148358e+00   0.0000000e+00   0.0000000e+00   0.0000000e+00   0.0000000e+00
   1.9685458e+01   9.1988121e+00   7.5430259e+00   5.6296730e+01   2.7044508e+01   1.2326408e+01   9.0148358e+00   3.1275961e+00   1.9133529e+01   1.5637981e+01   4.7833823e+00   7.2854592e+01   1.5637981e+01   1.4166171e+01   1.3798218e+01   3.8635011e+00   2.6308603e+01   2.0237387e+01   8.2789309e+00   8.8308596e+00   0.0000000e+00   0.0000000e+00   0.0000000e+00   0.0000000e+00
   1.9317505e+01   9.0148358e+00   7.3590497e+00   5.5192872e+01   2.6676555e+01   1.2142432e+01   8.8308596e+00   2.9436199e+00   1.9501482e+01   1.4718099e+01   4.0474773e+00   7.2118687e+01   1.5637981e+01   1.4350147e+01   1.3798218e+01   4.4154298e+00   2.5940650e+01   1.9685458e+01   8.2789309e+00   8.8308596e+00   0.0000000e+00   0.0000000e+00   0.0000000e+00   0.0000000e+00
   1.8765577e+01   8.4629071e+00   6.4391685e+00   5.5192872e+01   2.6124626e+01   1.1774479e+01   8.0949546e+00   2.3916911e+00   1.9869434e+01   1.3798218e+01   3.6795248e+00   7.1014829e+01   1.5637981e+01   1.3982194e+01   1.3614242e+01   5.1513348e+00   2.5572698e+01   1.9317505e+01   8.0949546e+00   8.4629071e+00   0.0000000e+00   0.0000000e+00   0.0000000e+00   0.0000000e+00
   1.9317505e+01   8.2789309e+00   6.0712160e+00   5.6296730e+01   2.6308603e+01   1.1958456e+01   7.7270021e+00   2.2077149e+00   2.1157268e+01   1.4166171e+01   4.2314536e+00   7.0278924e+01   1.6373886e+01   1.4166171e+01   1.3614242e+01   6.2551922e+00   2.5756674e+01   1.9685458e+01   8.0949546e+00   8.0949546e+00   0.0000000e+00   0.0000000e+00   0.0000000e+00   0.0000000e+00
   1.9685458e+01   7.9109784e+00   5.1513348e+00   5.7952516e+01   2.6308603e+01   1.1774479e+01   7.1750734e+00   1.6557862e+00   2.2445101e+01   1.4718099e+01   4.9673585e+00   6.8623138e+01   1.7109790e+01   1.4166171e+01   1.3246289e+01   6.9910972e+00   2.5940650e+01   2.0237387e+01   7.5430259e+00   7.3590497e+00   0.0000000e+00   0.0000000e+00   0.0000000e+00   0.0000000e+00
   2.0605339e+01   7.7270021e+00   4.5994060e+00   5.9976255e+01   2.7044508e+01   1.1958456e+01   6.8071209e+00   1.2878337e+00   2.3732935e+01   1.5637981e+01   6.0712160e+00   6.6783376e+01   1.8213648e+01   1.4534123e+01   1.3062313e+01   7.7270021e+00   2.6676555e+01   2.0973292e+01   7.3590497e+00   6.9910972e+00   0.0000000e+00   0.0000000e+00   0.0000000e+00   0.0000000e+00
   2.1341244e+01   7.7270021e+00   4.0474773e+00   6.1632041e+01   2.7596436e+01   1.1958456e+01   6.4391685e+00   9.1988121e-01   2.4652816e+01   1.6005933e+01   6.8071209e+00   6.5311566e+01   1.9133529e+01   1.5086052e+01   1.3062313e+01   8.0949546e+00   2.7228484e+01   2.1341244e+01   6.9910972e+00   6.4391685e+00   0.0000000e+00   0.0000000e+00   0.0000000e+00   0.0000000e+00
   2.1893173e+01   7.9109784e+00   3.6795248e+00   6.3103851e+01   2.8148365e+01   1.1774479e+01   6.0712160e+00   5.5192872e-01   2.5020769e+01   1.6189909e+01   6.8071209e+00   6.4943613e+01   1.9685458e+01   1.5637981e+01   1.3062313e+01   8.0949546e+00   2.7780412e+01   2.1525220e+01   6.6231447e+00   5.8872397e+00   0.0000000e+00   0.0000000e+00   0.0000000e+00   0.0000000e+00
   2.2077149e+01   7.9109784e+00   3.4955486e+00   6.4575661e+01   2.8516317e+01   1.1774479e+01   5.7032635e+00   5.5192872e-01   2.4836793e+01   1.6189909e+01   5.7032635e+00   6.6047471e+01   2.0053410e+01   1.6189909e+01   1.3246289e+01   7.5430259e+00   2.8332341e+01   2.1157268e+01   6.2551922e+00   5.3353110e+00   0.0000000e+00   0.0000000e+00   0.0000000e+00   0.0000000e+00
   2.2445101e+01   8.0949546e+00   3.4955486e+00   6.6231447e+01   2.8884270e+01   1.1958456e+01   5.5192872e+00   7.3590497e-01   2.4284864e+01   1.6557862e+01   4.0474773e+00   6.8439162e+01   2.0605339e+01   1.6925814e+01   1.3246289e+01   6.9910972e+00   2.8884270e+01   2.0789315e+01   5.8872397e+00   4.9673585e+00   0.0000000e+00   0.0000000e+00   0.0000000e+00   0.0000000e+00
   2.2445101e+01   7.9109784e+00   3.1275961e+00   6.7703257e+01   2.8700294e+01   1.1774479e+01   4.7833823e+00   5.5192872e-01   2.3548959e+01   1.6557862e+01   2.2077149e+00   7.1198806e+01   2.0605339e+01   1.6925814e+01   1.3062313e+01   6.2551922e+00   2.8884270e+01   2.0053410e+01   5.3353110e+00   4.2314536e+00   0.0000000e+00   0.0000000e+00   0.0000000e+00   0.0000000e+00
   2.2813054e+01   7.5430259e+00   2.7596436e+00   6.9175067e+01   2.8700294e+01   1.1590503e+01   4.2314536e+00   3.6795248e-01   2.2997030e+01   1.6189909e+01   9.1988121e-01   7.3774473e+01   2.0605339e+01   1.6741838e+01   1.2694361e+01   5.8872397e+00   2.9068246e+01   1.9501482e+01   4.5994060e+00   3.6795248e+00   0.0000000e+00   0.0000000e+00   0.0000000e+00   0.0000000e+00
   2.2997030e+01   7.1750734e+00   2.3916911e+00   6.9910972e+01   2.8148365e+01   1.1222551e+01   3.3115723e+00   0.0000000e+00   2.2813054e+01   1.5454004e+01   7.3590497e-01   7.4694354e+01   2.0605339e+01   1.6189909e+01   1.1958456e+01   6.0712160e+00   2.8700294e+01   1.9133529e+01   3.6795248e+00   2.9436199e+00   0.0000000e+00   0.0000000e+00   0.0000000e+00   0.0000000e+00
   2.2997030e+01   6.6231447e+00   1.8397624e+00   6.9359043e+01   2.7412460e+01   1.0486646e+01   2.5756674e+00  -1.8397624e-01   2.2813054e+01   1.4166171e+01   1.6557862e+00   7.3958449e+01   2.0053410e+01   1.5270028e+01   1.1222551e+01   6.6231447e+00   2.8148365e+01   1.8949553e+01   2.7596436e+00   2.3916911e+00   0.0000000e+00   0.0000000e+00   0.0000000e+00   0.0000000e+00
   2.2629078e+01   6.0712160e+00   1.6557862e+00   6.7703257e+01   2.6492579e+01   9.5667646e+00   2.0237387e+00   0.0000000e+00   2.2629078e+01   1.3062313e+01   3.3115723e+00   7.1934710e+01   1.9133529e+01   1.4166171e+01   1.0670622e+01   7.5430259e+00   2.7412460e+01   1.8949553e+01   2.0237387e+00   2.2077149e+00   0.0000000e+00   0.0000000e+00   0.0000000e+00   0.0000000e+00
   2.1893173e+01   5.5192872e+00   1.8397624e+00   6.5311566e+01   2.5204745e+01   8.8308596e+00   2.0237387e+00   1.8397624e-01   2.2261125e+01   1.2142432e+01   4.7833823e+00   6.9359043e+01   1.7661719e+01   1.3062313e+01   1.0118693e+01   8.6468834e+00   2.6492579e+01   1.8949553e+01   1.2878337e+00   2.3916911e+00   0.0000000e+00   0.0000000e+00   0.0000000e+00   0.0000000e+00
   2.1157268e+01   5.3353110e+00   2.5756674e+00   6.2735898e+01   2.4100888e+01   8.2789309e+00   2.5756674e+00   9.1988121e-01   2.1341244e+01   1.1590503e+01   5.8872397e+00   6.7887233e+01   1.6189909e+01   1.2142432e+01   9.9347170e+00   9.3827883e+00   2.5756674e+01   1.8949553e+01   1.2878337e+00   2.9436199e+00   0.0000000e+00   0.0000000e+00   0.0000000e+00   0.0000000e+00
   2.0421363e+01   5.5192872e+00   3.6795248e+00   6.0896136e+01   2.3364983e+01   8.2789309e+00   3.6795248e+00   1.6557862e+00   2.0421363e+01   1.1406527e+01   6.4391685e+00   6.7519281e+01   1.4902076e+01   1.1590503e+01   1.0302670e+01   1.0118693e+01   2.5388721e+01   1.8949553e+01   1.8397624e+00   4.0474773e+00   0.0000000e+00   0.0000000e+00   0.0000000e+00   0.0000000e+00
   2.0053410e+01   5.7032635e+00   5.1513348e+00   5.9792279e+01   2.2813054e+01   8.6468834e+00   5.1513348e+00   2.5756674e+00   1.9317505e+01   1.1406527e+01   6.4391685e+00   6.7887233e+01   1.3982194e+01   1.1406527e+01   1.1222551e+01   1.0670622e+01   2.5204745e+01   1.9133529e+01   3.1275961e+00   5.3353110e+00   0.0000000e+00   0.0000000e+00   0.0000000e+00   0.0000000e+00
   1.9317505e+01   5.7032635e+00   6.4391685e+00   5.8872397e+01   2.2077149e+01   9.0148358e+00   6.4391685e+00   2.9436199e+00   1.8029672e+01   1.1222551e+01   5.8872397e+00   6.8071209e+01   1.3246289e+01   1.1406527e+01   1.2142432e+01   1.0670622e+01   2.4652816e+01   1.8765577e+01   4.2314536e+00   6.4391685e+00   0.0000000e+00   0.0000000e+00   0.0000000e+00   0.0000000e+00
   1.8581600e+01   5.5192872e+00   7.5430259e+00   5.8320469e+01   2.1341244e+01   9.1988121e+00   7.7270021e+00   3.1275961e+00   1.6741838e+01   1.1038574e+01   5.7032635e+00   6.7335304e+01   1.2694361e+01   1.1406527e+01   1.3062313e+01   1.0854598e+01   2.4284864e+01   1.8581600e+01   5.3353110e+00   7.1750734e+00   0.0000000e+00   0.0000000e+00   0.0000000e+00   0.0000000e+00
   1.7477743e+01   5.1513348e+00   8.4629071e+00   5.7216611e+01   2.0421363e+01   9.1988121e+00   8.6468834e+00   3.1275961e+00   1.5454004e+01   1.0670622e+01   5.3353110e+00   6.5863495e+01   1.2326408e+01   1.1038574e+01   1.3614242e+01   1.0854598e+01   2.3364983e+01   1.8029672e+01   6.2551922e+00   7.5430259e+00   0.0000000e+00   0.0000000e+00   0.0000000e+00   0.0000000e+00
   1.6557862e+01   5.1513348e+00   9.5667646e+00   5.5744801e+01   1.9685458e+01   9.1988121e+00   9.5667646e+00   3.3115723e+00   1.4718099e+01   1.0670622e+01   5.7032635e+00   6.4207708e+01   1.2326408e+01   1.0486646e+01   1.3982194e+01   1.0854598e+01   2.2629078e+01   1.7845695e+01   6.8071209e+00   7.9109784e+00   0.0000000e+00   0.0000000e+00   0.0000000e+00   0.0000000e+00
   1.5821957e+01   5.1513348e+00   1.0486646e+01   5.3905039e+01   1.8765577e+01   9.1988121e+00   1.0118693e+01   3.6795248e+00   1.4350147e+01   1.0302670e+01   6.2551922e+00   6.2919875e+01   1.2326408e+01   9.7507408e+00   1.3798218e+01   1.0670622e+01   2.1893173e+01   1.7477743e+01   7.3590497e+00   8.0949546e+00   0.0000000e+00   0.0000000e+00   0.0000000e+00   0.0000000e+00
   1.5270028e+01   5.3353110e+00   1.1590503e+01   5.2249253e+01   1.7845695e+01   9.0148358e+00   1.0854598e+01   4.0474773e+00   1.4534123e+01   1.0118693e+01   7.3590497e+00   6.1999993e+01   1.2694361e+01   9.0148358e+00   1.3614242e+01   1.0670622e+01   2.1157268e+01   1.7293767e+01   7.9109784e+00   8.0949546e+00   0.0000000e+00   0.0000000e+00   0.0000000e+00   0.0000000e+00
   1.5086052e+01   5.5192872e+00   1.2510384e+01   5.0961419e+01   1.7109790e+01   9.0148358e+00   1.1590503e+01   4.5994060e+00   1.4718099e+01   9.9347170e+00   8.2789309e+00   6.1080112e+01   1.2878337e+01   8.0949546e+00   1.2878337e+01   1.0302670e+01   2.0237387e+01   1.6925814e+01   8.0949546e+00   8.0949546e+00   0.0000000e+00   0.0000000e+00   0.0000000e+00   0.0000000e+00
   1.4718099e+01   5.3353110e+00   1.2878337e+01   5.0041538e+01   1.6189909e+01   8.2789309e+00   1.1590503e+01   4.5994060e+00   1.4718099e+01   9.5667646e+00   8.6468834e+00   5.9608302e+01   1.2510384e+01   6.9910972e+00   1.1958456e+01   9.3827883e+00   1.8949553e+01   1.5821957e+01   7.7270021e+00   7.9109784e+00   0.0000000e+00   0.0000000e+00   0.0000000e+00   0.0000000e+00
   1.4718099e+01   5.1513348e+00   1.3062313e+01   5.0225514e+01   1.5454004e+01   7.7270021e+00   1.1590503e+01   4.7833823e+00   1.4902076e+01   9.9347170e+00   8.0949546e+00   5.8504445e+01   1.2142432e+01   6.0712160e+00   1.1038574e+01   8.0949546e+00   1.7845695e+01   1.4718099e+01   7.1750734e+00   7.5430259e+00   0.0000000e+00   0.0000000e+00   0.0000000e+00   0.0000000e+00
   1.4902076e+01   5.1513348e+00   1.3430266e+01   5.1697324e+01   1.5086052e+01   7.3590497e+00   1.1406527e+01   4.7833823e+00   1.5086052e+01   1.0854598e+01   7.1750734e+00   5.8504445e+01   1.2326408e+01   5.7032635e+00   1.0302670e+01   6.9910972e+00   1.7293767e+01   1.3430266e+01   6.6231447e+00   7.3590497e+00   0.0000000e+00   0.0000000e+00   0.0000000e+00   0.0000000e+00
   1.5086052e+01   4.9673585e+00   1.3614242e+01   5.3353110e+01   1.5086052e+01   7.1750734e+00   1.1222551e+01   4.7833823e+00   1.5270028e+01   1.1958456e+01   5.8872397e+00   5.9792279e+01   1.2878337e+01   5.7032635e+00   9.5667646e+00   6.0712160e+00   1.7109790e+01   1.2326408e+01   6.0712160e+00   6.9910972e+00   0.0000000e+00   0.0000000e+00   0.0000000e+00   0.0000000e+00
   1.5454004e+01   5.1513348e+00   1.3982194e+01   5.4824920e+01   1.5086052e+01   7.1750734e+00   1.0854598e+01   5.1513348e+00   1.6005933e+01   1.2878337e+01   4.9673585e+00   6.2551922e+01   1.4166171e+01   6.0712160e+00   9.1988121e+00   5.7032635e+00   1.7477743e+01   1.1590503e+01   5.7032635e+00   6.8071209e+00   0.0000000e+00   0.0000000e+00   0.0000000e+00   0.0000000e+00
   1.5454004e+01   5.1513348e+00   1.4350147e+01   5.5560825e+01   1.5270028e+01   7.3590497e+00   1.0670622e+01   5.1513348e+00   1.6557862e+01   1.3246289e+01   4.4154298e+00   6.5863495e+01   1.5637981e+01   6.6231447e+00   8.8308596e+00   5.3353110e+00   1.7845695e+01   1.0854598e+01   5.5192872e+00   6.4391685e+00   0.0000000e+00   0.0000000e+00   0.0000000e+00   0.0000000e+00
   1.5270028e+01   5.3353110e+00   1.4534123e+01   5.5744801e+01   1.5270028e+01   7.5430259e+00   1.0302670e+01   5.1513348e+00   1.7109790e+01   1.3062313e+01   4.9673585e+00   6.8807114e+01   1.7109790e+01   6.9910972e+00   8.6468834e+00   5.3353110e+00   1.8213648e+01   1.0670622e+01   5.5192872e+00   5.8872397e+00   0.0000000e+00   0.0000000e+00   0.0000000e+00   0.0000000e+00
   1.5086052e+01   5.1513348e+00   1.4718099e+01   5.5928777e+01   1.5270028e+01   7.5430259e+00   9.7507408e+00   4.7833823e+00   1.7661719e+01   1.2142432e+01   6.2551922e+00   7.1014829e+01   1.8029672e+01   7.1750734e+00   8.4629071e+00   5.3353110e+00   1.8213648e+01   1.0670622e+01   5.1513348e+00   5.1513348e+00   0.0000000e+00   0.0000000e+00   0.0000000e+00   0.0000000e+00
   1.5270028e+01   4.9673585e+00   1.4718099e+01   5.6664682e+01   1.5086052e+01   7.3590497e+00   9.3827883e+00   4.2314536e+00   1.8029672e+01   1.1406527e+01   8.0949546e+00   7.2486639e+01   1.8765577e+01   7.1750734e+00   8.2789309e+00   5.5192872e+00   1.8213648e+01   1.0854598e+01   4.9673585e+00   4.2314536e+00   0.0000000e+00   0.0000000e+00   0.0000000e+00   0.0000000e+00
   1.5270028e+01   4.7833823e+00   1.4718099e+01   5.7768540e+01   1.4902076e+01   6.9910972e+00   8.8308596e+00   3.4955486e+00   1.8029672e+01   1.0302670e+01   9.3827883e+00   7.2302663e+01   1.8765577e+01   6.9910972e+00   8.0949546e+00   5.7032635e+00   1.8213648e+01   1.1222551e+01   4.4154298e+00   3.4955486e+00   0.0000000e+00   0.0000000e+00   0.0000000e+00   0.0000000e+00
   1.5270028e+01   4.5994060e+00   1.4718099e+01   5.9056374e+01   1.4718099e+01   6.8071209e+00   8.4629071e+00   2.9436199e+00   1.8029672e+01   9.5667646e+00   1.0118693e+01   7.0830853e+01   1.8765577e+01   6.9910972e+00   8.0949546e+00   5.8872397e+00   1.8029672e+01   1.1958456e+01   4.2314536e+00   2.9436199e+00   0.0000000e+00   0.0000000e+00   0.0000000e+00   0.0000000e+00
   1.4902076e+01   4.4154298e+00   1.4718099e+01   5.8872397e+01   1.4350147e+01   6.6231447e+00   8.2789309e+00   2.7596436e+00   1.7109790e+01   8.2789309e+00   9.3827883e+00   6.8255186e+01   1.8029672e+01   6.8071209e+00   8.0949546e+00   5.7032635e+00   1.7845695e+01   1.2142432e+01   4.0474773e+00   2.7596436e+00   0.0000000e+00   0.0000000e+00   0.0000000e+00   0.0000000e+00
   1.4350147e+01   4.2314536e+00   1.4534123e+01   5.7216611e+01   1.3982194e+01   6.6231447e+00   8.0949546e+00   2.5756674e+00   1.6005933e+01   6.6231447e+00   7.5430259e+00   6.5495542e+01   1.7109790e+01   6.6231447e+00   8.0949546e+00   5.3353110e+00   1.7845695e+01   1.2142432e+01   3.8635011e+00   2.5756674e+00   0.0000000e+00   0.0000000e+00   0.0000000e+00   0.0000000e+00
   1.3614242e+01   4.4154298e+00   1.4534123e+01   5.4824920e+01   1.3798218e+01   6.8071209e+00   8.2789309e+00   2.7596436e+00   1.4718099e+01   4.7833823e+00   5.1513348e+00   6.3471803e+01   1.6189909e+01   6.6231447e+00   8.2789309e+00   4.5994060e+00   1.7845695e+01   1.2142432e+01   3.8635011e+00   2.9436199e+00   0.0000000e+00   0.0000000e+00   0.0000000e+00   0.0000000e+00
   1.3062313e+01   4.9673585e+00   1.4350147e+01   5.2985158e+01   1.3798218e+01   7.1750734e+00   8.6468834e+00   3.1275961e+00   1.3798218e+01   3.6795248e+00   2.9436199e+00   6.1999993e+01   1.5454004e+01   6.6231447e+00   8.2789309e+00   3.8635011e+00   1.8213648e+01   1.2326408e+01   3.8635011e+00   3.1275961e+00   0.0000000e+00   0.0000000e+00   0.0000000e+00   0.0000000e+00
   1.2694361e+01   5.3353110e+00   1.4350147e+01   5.2065276e+01   1.3798218e+01   7.7270021e+00   9.0148358e+00   3.4955486e+00   1.3246289e+01   3.3115723e+00   1.4718099e+00   6.0896136e+01   1.4902076e+01   6.4391685e+00   8.0949546e+00   3.4955486e+00   1.8397624e+01   1.2878337e+01   4.0474773e+00   3.3115723e+00   0.0000000e+00   0.0000000e+00   0.0000000e+00   0.0000000e+00
   1.2694361e+01   5.7032635e+00   1.4166171e+01   5.2065276e+01   1.4166171e+01   7.9109784e+00   9.3827883e+00   3.8635011e+00   1.3246289e+01   3.8635011e+00   1.2878337e+00   5.9424326e+01   1.4350147e+01   6.4391685e+00   8.0949546e+00   3.4955486e+00   1.8581600e+01   1.3614242e+01   4.4154298e+00   3.6795248e+00   0.0000000e+00   0.0000000e+00   0.0000000e+00   0.0000000e+00
   1.2878337e+01   6.0712160e+00   1.4166171e+01   5.2433229e+01   1.4534123e+01   8.4629071e+00   9.9347170e+00   4.2314536e+00   1.3982194e+01   4.9673585e+00   2.2077149e+00   5.8136492e+01   1.4350147e+01   6.4391685e+00   8.0949546e+00   4.2314536e+00   1.8949553e+01   1.4902076e+01   5.1513348e+00   4.4154298e+00   0.0000000e+00   0.0000000e+00   0.0000000e+00   0.0000000e+00
   1.3062313e+01   6.2551922e+00   1.3798218e+01   5.2065276e+01   1.4534123e+01   8.4629071e+00   1.0302670e+01   4.4154298e+00   1.4534123e+01   5.8872397e+00   3.8635011e+00   5.7400587e+01   1.4166171e+01   6.2551922e+00   8.2789309e+00   4.9673585e+00   1.8765577e+01   1.5821957e+01   5.7032635e+00   4.7833823e+00   0.0000000e+00   0.0000000e+00   0.0000000e+00   0.0000000e+00
   1.3246289e+01   6.2551922e+00   1.3614242e+01   5.0777443e+01   1.4534123e+01   8.4629071e+00   1.0670622e+01   4.4154298e+00   1.5454004e+01   6.6231447e+00   5.7032635e+00   5.7952516e+01   1.4350147e+01   6.6231447e+00   8.6468834e+00   6.0712160e+00   1.8765577e+01   1.6741838e+01   6.4391685e+00   5.5192872e+00   0.0000000e+00   0.0000000e+00   0.0000000e+00   0.0000000e+00
   1.3430266e+01   6.4391685e+00   1.3246289e+01   4.8569728e+01   1.4350147e+01   8.4629071e+00   1.1038574e+01   4.5994060e+00   1.6189909e+01   7.3590497e+00   7.3590497e+00   5.9424326e+01   1.4534123e+01   6.8071209e+00   9.1988121e+00   6.8071209e+00   1.8765577e+01   1.7293767e+01   7.1750734e+00   6.2551922e+00   0.0000000e+00   0.0000000e+00   0.0000000e+00   0.0000000e+00
   1.3982194e+01   6.8071209e+00   1.3430266e+01   4.6729965e+01   1.4350147e+01   8.6468834e+00   1.1590503e+01   4.9673585e+00   1.6557862e+01   8.2789309e+00   8.4629071e+00   6.1080112e+01   1.4534123e+01   7.5430259e+00   1.0118693e+01   7.3590497e+00   1.9133529e+01   1.7661719e+01   8.0949546e+00   7.1750734e+00   0.0000000e+00   0.0000000e+00   0.0000000e+00   0.0000000e+00
   1.4350147e+01   7.3590497e+00   1.3614242e+01   4.5626108e+01   1.4166171e+01   8.8308596e+00   1.2326408e+01   5.7032635e+00   1.6557862e+01   9.5667646e+00   8.6468834e+00   6.1816017e+01   1.4534123e+01   8.4629071e+00   1.1038574e+01   7.9109784e+00   1.9317505e+01   1.7477743e+01   8.8308596e+00   8.2789309e+00   0.0000000e+00   0.0000000e+00   0.0000000e+00   0.0000000e+00
   1.4902076e+01   7.7270021e+00   1.3798218e+01   4.5626108e+01   1.4166171e+01   9.0148358e+00   1.2694361e+01   6.2551922e+00   1.6005933e+01   1.0486646e+01   7.9109784e+00   6.1080112e+01   1.3982194e+01   9.1988121e+00   1.1774479e+01   8.0949546e+00   1.9501482e+01   1.7109790e+01   9.5667646e+00   9.1988121e+00   0.0000000e+00   0.0000000e+00   0.0000000e+00   0.0000000e+00
   1.5454004e+01   8.2789309e+00   1.3982194e+01   4.6545989e+01   1.4350147e+01   9.1988121e+00   1.3062313e+01   6.8071209e+00   1.5454004e+01   1.1038574e+01   6.8071209e+00   5.9976255e+01   1.3798218e+01   9.9347170e+00   1.2510384e+01   8.4629071e+00   1.9869434e+01   1.6741838e+01   9.9347170e+00   9.9347170e+00   0.0000000e+00   0.0000000e+00   0.0000000e+00   0.0000000e+00
   1.5821957e+01   8.0949546e+00   1.3798218e+01   4.7833823e+01   1.4350147e+01   9.0148358e+00   1.2694361e+01   7.1750734e+00   1.4718099e+01   1.0854598e+01   5.7032635e+00   5.9056374e+01   1.3430266e+01   1.0118693e+01   1.2694361e+01   8.8308596e+00   1.9869434e+01   1.6189909e+01   9.7507408e+00   1.0118693e+01   0.0000000e+00   0.0000000e+00   0.0000000e+00   0.0000000e+00
   1.6005933e+01   7.9109784e+00   1.3246289e+01   4.9489609e+01   1.4534123e+01   8.6468834e+00   1.1958456e+01   7.3590497e+00   1.4534123e+01   1.0486646e+01   5.3353110e+00   5.9240350e+01   1.3614242e+01   1.0302670e+01   1.2694361e+01   9.3827883e+00   2.0053410e+01   1.5821957e+01   9.3827883e+00   1.0118693e+01   0.0000000e+00   0.0000000e+00   0.0000000e+00   0.0000000e+00
   1.6373886e+01   7.3590497e+00   1.2694361e+01   5.1513348e+01   1.4718099e+01   8.2789309e+00   1.1038574e+01   7.3590497e+00   1.4902076e+01   1.0670622e+01   5.8872397e+00   6.0160231e+01   1.4166171e+01   1.0302670e+01   1.2694361e+01   1.0302670e+01   2.0421363e+01   1.6005933e+01   8.6468834e+00   1.0118693e+01   0.0000000e+00   0.0000000e+00   0.0000000e+00   0.0000000e+00
   1.6373886e+01   6.6231447e+00   1.1774479e+01   5.3353110e+01   1.4534123e+01   7.5430259e+00   9.7507408e+00   6.9910972e+00   1.5637981e+01   1.1222551e+01   6.8071209e+00   6.0712160e+01   1.4718099e+01   1.0118693e+01   1.2510384e+01   1.0854598e+01   2.0421363e+01   1.6005933e+01   7.7270021e+00   9.7507408e+00   0.0000000e+00   0.0000000e+00   0.0000000e+00   0.0000000e+00
   1.6557862e+01   6.0712160e+00   1.1222551e+01   5.5928777e+01   1.4902076e+01   7.1750734e+00   8.8308596e+00   6.9910972e+00   1.6925814e+01   1.2326408e+01   8.2789309e+00   6.0712160e+01   1.5454004e+01   1.0118693e+01   1.2510384e+01   1.1406527e+01   2.0789315e+01   1.6557862e+01   6.9910972e+00   9.5667646e+00   0.0000000e+00   0.0000000e+00   0.0000000e+00   0.0000000e+00
   1.6373886e+01   5.5192872e+00   1.0486646e+01   5.8320469e+01   1.5270028e+01   6.8071209e+00   7.9109784e+00   6.6231447e+00   1.7845695e+01   1.3246289e+01   9.1988121e+00   6.0160231e+01   1.5821957e+01   9.9347170e+00   1.2510384e+01   1.1406527e+01   2.0973292e+01   1.6925814e+01   6.2551922e+00   9.1988121e+00   0.0000000e+00   0.0000000e+00   0.0000000e+00   0.0000000e+00
   1.6741838e+01   5.5192872e+00   1.0302670e+01   6.0712160e+01   1.6005933e+01   6.8071209e+00   7.5430259e+00   6.6231447e+00   1.8765577e+01   1.3798218e+01   9.7507408e+00   5.9608302e+01   1.6189909e+01   1.0118693e+01   1.2878337e+01   1.1222551e+01   2.1341244e+01   1.7109790e+01   6.0712160e+00   9.3827883e+00   0.0000000e+00   0.0000000e+00   0.0000000e+00   0.0000000e+00
   1.6925814e+01   5.7032635e+00   1.0302670e+01   6.2367946e+01   1.6925814e+01   6.8071209e+00   7.5430259e+00   6.8071209e+00   1.9317505e+01   1.4166171e+01   9.3827883e+00   5.9608302e+01   1.6557862e+01   1.0486646e+01   1.3430266e+01   1.1038574e+01   2.1525220e+01   1.7109790e+01   6.0712160e+00   9.5667646e+00   0.0000000e+00   0.0000000e+00   0.0000000e+00   0.0000000e+00
   1.6741838e+01   5.7032635e+00   1.0118693e+01   6.2735898e+01   1.7293767e+01   6.4391685e+00   7.3590497e+00   6.9910972e+00   1.8949553e+01   1.3982194e+01   8.0949546e+00   6.0160231e+01   1.6557862e+01   1.0302670e+01   1.3798218e+01   1.0302670e+01   2.0973292e+01   1.6373886e+01   6.0712160e+00   9.7507408e+00   0.0000000e+00   0.0000000e+00   0.0000000e+00   0.0000000e+00
   1.6373886e+01   5.5192872e+00   1.0118693e+01   6.1816017e+01   1.7293767e+01   6.0712160e+00   7.3590497e+00   7.3590497e+00   1.8397624e+01   1.4350147e+01   6.8071209e+00   6.1448065e+01   1.6189909e+01   1.0118693e+01   1.4166171e+01   1.0118693e+01   2.0237387e+01   1.5270028e+01   6.0712160e+00   1.0118693e+01   0.0000000e+00   0.0000000e+00   0.0000000e+00   0.0000000e+00
   1.5637981e+01   4.9673585e+00   9.7507408e+00   5.9424326e+01   1.6373886e+01   5.1513348e+00   6.9910972e+00   7.3590497e+00   1.7477743e+01   1.4350147e+01   5.8872397e+00   6.2551922e+01   1.5270028e+01   9.3827883e+00   1.4350147e+01   9.7507408e+00   1.8949553e+01   1.3982194e+01   5.8872397e+00   9.9347170e+00   0.0000000e+00   0.0000000e+00   0.0000000e+00   0.0000000e+00
   1.4902076e+01   4.5994060e+00   9.5667646e+00   5.6664682e+01   1.5086052e+01   4.5994060e+00   6.8071209e+00   7.7270021e+00   1.6925814e+01   1.4534123e+01   6.2551922e+00   6.3103851e+01   1.4350147e+01   8.8308596e+00   1.4534123e+01   1.0118693e+01   1.7477743e+01   1.3062313e+01   6.0712160e+00   1.0302670e+01   0.0000000e+00   0.0000000e+00   0.0000000e+00   0.0000000e+00
   1.4166171e+01   4.2314536e+00   9.3827883e+00   5.3537086e+01   1.3798218e+01   4.0474773e+00   6.6231447e+00   7.9109784e+00   1.6741838e+01   1.4166171e+01   7.7270021e+00   6.2919875e+01   1.3246289e+01   8.4629071e+00   1.4718099e+01   1.0854598e+01   1.6189909e+01   1.2694361e+01   6.2551922e+00   1.0486646e+01   0.0000000e+00   0.0000000e+00   0.0000000e+00   0.0000000e+00
   1.3798218e+01   4.2314536e+00   9.1988121e+00   5.0409490e+01   1.2694361e+01   3.6795248e+00   6.6231447e+00   8.2789309e+00   1.7109790e+01   1.3614242e+01   9.5667646e+00   6.2183970e+01   1.2326408e+01   8.0949546e+00   1.5086052e+01   1.1958456e+01   1.5454004e+01   1.2694361e+01   6.6231447e+00   1.0670622e+01   0.0000000e+00   0.0000000e+00   0.0000000e+00   0.0000000e+00
   1.3430266e+01   4.0474773e+00   9.0148358e+00   4.7833823e+01   1.1590503e+01   3.4955486e+00   6.6231447e+00   8.4629071e+00   1.7293767e+01   1.2878337e+01   1.1038574e+01   6.1080112e+01   1.1406527e+01   7.7270021e+00   1.5086052e+01   1.2694361e+01   1.4534123e+01   1.2694361e+01   6.8071209e+00   1.0854598e+01   0.0000000e+00   0.0000000e+00   0.0000000e+00   0.0000000e+00
   1.3430266e+01   4.4154298e+00   9.1988121e+00   4.6362013e+01   1.1222551e+01   3.4955486e+00   6.9910972e+00   8.6468834e+00   1.7293767e+01   1.2694361e+01   1.2142432e+01   6.0344207e+01   1.0670622e+01   7.5430259e+00   1.5270028e+01   1.3430266e+01   1.4350147e+01   1.2878337e+01   6.9910972e+00   1.1406527e+01   0.0000000e+00   0.0000000e+00   0.0000000e+00   0.0000000e+00
   1.3614242e+01   4.9673585e+00   9.1988121e+00   4.5626108e+01   1.0854598e+01   3.6795248e+00   7.3590497e+00   8.6468834e+00   1.6925814e+01   1.2878337e+01   1.1774479e+01   5.9424326e+01   9.9347170e+00   7.3590497e+00   1.5270028e+01   1.3614242e+01   1.4166171e+01   1.2694361e+01   7.1750734e+00   1.1774479e+01   0.0000000e+00   0.0000000e+00   0.0000000e+00   0.0000000e+00
   1.3982194e+01   5.7032635e+00   9.3827883e+00   4.5258155e+01   1.0670622e+01   3.8635011e+00   7.5430259e+00   8.4629071e+00   1.6005933e+01   1.3062313e+01   1.0486646e+01   5.8688421e+01   9.0148358e+00   6.8071209e+00   1.5086052e+01   1.3062313e+01   1.4166171e+01   1.1958456e+01   7.1750734e+00   1.1958456e+01   0.0000000e+00   0.0000000e+00   0.0000000e+00   0.0000000e+00
   1.4534123e+01   6.2551922e+00   9.5667646e+00   4.4522250e+01   1.0670622e+01   4.0474773e+00   7.7270021e+00   8.0949546e+00   1.4718099e+01   1.2694361e+01   8.4629071e+00   5.7584564e+01   8.0949546e+00   6.4391685e+00   1.4718099e+01   1.2142432e+01   1.3982194e+01   1.1038574e+01   6.9910972e+00   1.1958456e+01   0.0000000e+00   0.0000000e+00   0.0000000e+00   0.0000000e+00
   1.5270028e+01   6.9910972e+00   9.5667646e+00   4.3970322e+01   1.0854598e+01   4.4154298e+00   7.9109784e+00   7.5430259e+00   1.3430266e+01   1.1958456e+01   6.2551922e+00   5.7032635e+01   7.7270021e+00   6.0712160e+00   1.4350147e+01   1.1406527e+01   1.4166171e+01   1.0302670e+01   6.9910972e+00   1.1774479e+01   0.0000000e+00   0.0000000e+00   0.0000000e+00   0.0000000e+00
   1.6005933e+01   7.7270021e+00   9.3827883e+00   4.3602369e+01   1.1222551e+01   4.7833823e+00   7.9109784e+00   7.1750734e+00   1.2326408e+01   1.0670622e+01   4.5994060e+00   5.7216611e+01   7.7270021e+00   5.7032635e+00   1.3982194e+01   1.0486646e+01   1.4166171e+01   9.5667646e+00   6.8071209e+00   1.1406527e+01   0.0000000e+00   0.0000000e+00   0.0000000e+00   0.0000000e+00
   1.6925814e+01   8.2789309e+00   9.0148358e+00   4.4338274e+01   1.1958456e+01   5.1513348e+00   8.0949546e+00   6.6231447e+00   1.1774479e+01   9.7507408e+00   3.6795248e+00   5.8320469e+01   8.2789309e+00   5.5192872e+00   1.3614242e+01   1.0118693e+01   1.4534123e+01   9.3827883e+00   6.9910972e+00   1.1038574e+01   0.0000000e+00   0.0000000e+00   0.0000000e+00   0.0000000e+00
   1.7661719e+01   8.6468834e+00   8.6468834e+00   4.6545989e+01   1.3062313e+01   5.8872397e+00   8.2789309e+00   6.2551922e+00   1.1774479e+01   9.3827883e+00   4.0474773e+00   5.9976255e+01   9.5667646e+00   5.7032635e+00   1.3246289e+01   9.9347170e+00   1.5086052e+01   9.9347170e+00   7.1750734e+00   1.0670622e+01   0.0000000e+00   0.0000000e+00   0.0000000e+00   0.0000000e+00
   1.8029672e+01   8.8308596e+00   8.0949546e+00   4.9673585e+01   1.3982194e+01   6.2551922e+00   8.2789309e+00   5.7032635e+00   1.1774479e+01   9.1988121e+00   4.9673585e+00   6.1448065e+01   1.0302670e+01   5.5192872e+00   1.2694361e+01   9.7507408e+00   1.5270028e+01   1.0302670e+01   6.9910972e+00   9.9347170e+00   0.0000000e+00   0.0000000e+00   0.0000000e+00   0.0000000e+00
   1.8581600e+01   8.8308596e+00   7.9109784e+00   5.3169134e+01   1.4902076e+01   6.8071209e+00   8.4629071e+00   5.3353110e+00   1.2142432e+01   9.3827883e+00   6.2551922e+00   6.2735898e+01   1.1222551e+01   5.5192872e+00   1.2142432e+01   9.7507408e+00   1.5637981e+01   1.1038574e+01   6.9910972e+00   9.5667646e+00   0.0000000e+00   0.0000000e+00   0.0000000e+00   0.0000000e+00
   1.8949553e+01   9.0148358e+00   7.9109784e+00   5.5928777e+01   1.6005933e+01   7.5430259e+00   8.8308596e+00   5.1513348e+00   1.2510384e+01   9.7507408e+00   7.1750734e+00   6.4023732e+01   1.1958456e+01   5.7032635e+00   1.1774479e+01   1.0118693e+01   1.6189909e+01   1.1774479e+01   7.1750734e+00   9.3827883e+00   0.0000000e+00   0.0000000e+00   0.0000000e+00   0.0000000e+00
   1.9317505e+01   9.1988121e+00   8.0949546e+00   5.7768540e+01   1.6925814e+01   8.2789309e+00   9.1988121e+00   4.9673585e+00   1.2694361e+01   1.0302670e+01   6.9910972e+00   6.4391685e+01   1.2326408e+01   5.8872397e+00   1.1590503e+01   1.0118693e+01   1.6925814e+01   1.2142432e+01   7.1750734e+00   9.3827883e+00   0.0000000e+00   0.0000000e+00   0.0000000e+00   0.0000000e+00
   1.9685458e+01   9.5667646e+00   8.2789309e+00   5.8872397e+01   1.8029672e+01   9.1988121e+00   9.9347170e+00   4.9673585e+00   1.3246289e+01   1.1222551e+01   5.8872397e+00   6.4207708e+01   1.2878337e+01   6.2551922e+00   1.1774479e+01   1.0118693e+01   1.7661719e+01   1.2326408e+01   7.5430259e+00   9.5667646e+00   0.0000000e+00   0.0000000e+00   0.0000000e+00   0.0000000e+00
   2.0237387e+01   9.7507408e+00   8.6468834e+00   5.9056374e+01   1.8765577e+01   9.9347170e+00   1.0486646e+01   4.7833823e+00   1.3430266e+01   1.2510384e+01   4.0474773e+00   6.2735898e+01   1.3430266e+01   6.6231447e+00   1.2142432e+01   9.7507408e+00   1.8581600e+01   1.2326408e+01   7.7270021e+00   9.7507408e+00   0.0000000e+00   0.0000000e+00   0.0000000e+00   0.0000000e+00
   2.0973292e+01   1.0118693e+01   8.6468834e+00   5.8872397e+01   1.9501482e+01   1.0486646e+01   1.1038574e+01   4.5994060e+00   1.3614242e+01   1.3982194e+01   2.3916911e+00   6.0160231e+01   1.3614242e+01   6.8071209e+00   1.2510384e+01   9.3827883e+00   1.9133529e+01   1.1958456e+01   8.0949546e+00   9.7507408e+00   0.0000000e+00   0.0000000e+00   0.0000000e+00   0.0000000e+00
   2.1709197e+01   1.0118693e+01   8.4629071e+00   5.7584564e+01   1.9501482e+01   1.0670622e+01   1.1038574e+01   4.2314536e+00   1.3614242e+01   1.4902076e+01   9.1988121e-01   5.6664682e+01   1.3246289e+01   6.6231447e+00   1.2510384e+01   8.6468834e+00   1.9317505e+01   1.1406527e+01   8.2789309e+00   9.5667646e+00   0.0000000e+00   0.0000000e+00   0.0000000e+00   0.0000000e+00
   2.2261125e+01   1.0118693e+01   8.0949546e+00   5.5744801e+01   1.9317505e+01   1.0486646e+01   1.0854598e+01   3.8635011e+00   1.3798218e+01   1.5086052e+01   7.3590497e-01   5.3169134e+01   1.2694361e+01   6.4391685e+00   1.2510384e+01   8.4629071e+00   1.9317505e+01   1.1038574e+01   8.2789309e+00   9.1988121e+00   0.0000000e+00   0.0000000e+00   0.0000000e+00   0.0000000e+00
   2.2629078e+01   9.7507408e+00   7.3590497e+00   5.3721063e+01   1.8765577e+01   1.0118693e+01   1.0302670e+01   3.4955486e+00   1.3982194e+01   1.4534123e+01   1.1038574e+00   5.0225514e+01   1.1958456e+01   6.2551922e+00   1.2142432e+01   8.2789309e+00   1.8581600e+01   1.1038574e+01   8.0949546e+00   9.0148358e+00   0.0000000e+00   0.0000000e+00   0.0000000e+00   0.0000000e+00
   2.2629078e+01   9.1988121e+00   6.6231447e+00   5.2065276e+01   1.8029672e+01   9.5667646e+00   9.5667646e+00   3.1275961e+00   1.4350147e+01   1.3798218e+01   2.2077149e+00   4.8937680e+01   1.1222551e+01   6.2551922e+00   1.2142432e+01   8.6468834e+00   1.8029672e+01   1.1222551e+01   8.2789309e+00   8.6468834e+00   0.0000000e+00   0.0000000e+00   0.0000000e+00   0.0000000e+00
   2.2629078e+01   8.8308596e+00   6.0712160e+00   5.1329371e+01   1.7477743e+01   9.1988121e+00   9.1988121e+00   2.9436199e+00   1.4718099e+01   1.3430266e+01   3.4955486e+00   4.9121657e+01   1.0670622e+01   6.8071209e+00   1.2510384e+01   9.1988121e+00   1.7477743e+01   1.1774479e+01   8.4629071e+00   8.8308596e+00   0.0000000e+00   0.0000000e+00   0.0000000e+00   0.0000000e+00
   2.2261125e+01   8.4629071e+00   5.5192872e+00   5.1513348e+01   1.6925814e+01   8.6468834e+00   8.8308596e+00   2.9436199e+00   1.4718099e+01   1.3430266e+01   4.4154298e+00   4.9857561e+01   1.0118693e+01   7.3590497e+00   1.2878337e+01   9.5667646e+00   1.7109790e+01   1.2142432e+01   8.8308596e+00   8.8308596e+00   0.0000000e+00   0.0000000e+00   0.0000000e+00   0.0000000e+00
   2.2077149e+01   8.0949546e+00   5.3353110e+00   5.2433229e+01   1.6557862e+01   8.2789309e+00   8.4629071e+00   3.1275961e+00   1.4718099e+01   1.3430266e+01   4.9673585e+00   5.0777443e+01   9.7507408e+00   8.0949546e+00   1.3430266e+01   9.7507408e+00   1.7109790e+01   1.2694361e+01   9.3827883e+00   9.3827883e+00   0.0000000e+00   0.0000000e+00   0.0000000e+00   0.0000000e+00
   2.1341244e+01   7.5430259e+00   5.1513348e+00   5.3169134e+01   1.6005933e+01   7.7270021e+00   8.0949546e+00   3.3115723e+00   1.4534123e+01   1.3430266e+01   4.7833823e+00   5.1145395e+01   9.1988121e+00   8.6468834e+00   1.3798218e+01   9.7507408e+00   1.7109790e+01   1.2878337e+01   9.5667646e+00   9.7507408e+00   0.0000000e+00   0.0000000e+00   0.0000000e+00   0.0000000e+00
   2.0605339e+01   6.9910972e+00   5.1513348e+00   5.3537086e+01   1.5454004e+01   7.1750734e+00   7.5430259e+00   3.6795248e+00   1.3982194e+01   1.2878337e+01   4.0474773e+00   5.1329371e+01   8.8308596e+00   9.0148358e+00   1.4166171e+01   9.7507408e+00   1.7293767e+01   1.2694361e+01   9.3827883e+00   1.0118693e+01   0.0000000e+00   0.0000000e+00   0.0000000e+00   0.0000000e+00
   1.9869434e+01   6.2551922e+00   5.1513348e+00   5.3537086e+01   1.5086052e+01   6.4391685e+00   6.8071209e+00   4.0474773e+00   1.3798218e+01   1.2510384e+01   2.7596436e+00   5.1881300e+01   8.2789309e+00   9.0148358e+00   1.4350147e+01   9.5667646e+00   1.7477743e+01   1.2326408e+01   9.0148358e+00   1.0302670e+01   0.0000000e+00   0.0000000e+00   0.0000000e+00   0.0000000e+00
   1.8581600e+01   5.5192872e+00   5.1513348e+00   5.2801181e+01   1.4534123e+01   5.7032635e+00   6.0712160e+00   4.2314536e+00   1.3430266e+01   1.2142432e+01   1.6557862e+00   5.3169134e+01   7.9109784e+00   8.6468834e+00   1.3982194e+01   9.3827883e+00   1.7293767e+01   1.1774479e+01   8.2789309e+00   1.0118693e+01   0.0000000e+00   0.0000000e+00   0.0000000e+00   0.0000000e+00
   1.7477743e+01   4.9673585e+00   5.1513348e+00   5.1697324e+01   1.4350147e+01   5.1513348e+00   5.5192872e+00   4.4154298e+00   1.3062313e+01   1.2326408e+01   1.4718099e+00   5.5192872e+01   7.7270021e+00   8.2789309e+00   1.3430266e+01   9.3827883e+00   1.7109790e+01   1.1406527e+01   7.3590497e+00   9.9347170e+00   0.0000000e+00   0.0000000e+00   0.0000000e+00   0.0000000e+00
