nt = 4200
nc = 24
channels = F7 T3 T5 Fp1 F3 C3 P3 O1 F8 T4 T6 Fp2 F4 C4 P4 O2 Fz Cz Pz Oz TR SOn Occ RAp
ne = 20
type = B
fsmp = 600.0000000000
orig.file = s3_bl1
orig.nt = 281334
orig.sample_range = 47710 51909
orig.fsmp = 600
orig.subject = 3
orig.run = 9
  -1.8722965e+01  -6.4561947e+00  -3.5509071e+00   9.6842920e-01  -1.0329912e+01  -1.2912389e+00  -1.4203628e+01  -3.2280973e+00  -1.5494867e+01  -1.5817677e+01  -1.8077345e+01  -3.2280973e-01  -1.5494867e+01  -8.0702434e+00  -1.7431726e+01  -1.4849248e+01  -8.0702434e+00   1.9368584e+00  -1.8077345e+01  -1.8400155e+01   0.0000000e+00   0.0000000e+00   0.0000000e+00   0.0000000e+00
  -2.0659823e+01  -9.0386726e+00  -5.1649558e+00  -6.4561947e-01  -1.2266770e+01  -3.5509071e+00  -1.4526438e+01  -4.1965265e+00  -1.6786106e+01  -1.5494867e+01  -1.7754535e+01  -1.2912389e+00  -1.5494867e+01  -9.0386726e+00  -1.7754535e+01  -1.4526438e+01  -1.0007102e+01   6.4561947e-01  -1.8722965e+01  -1.7431726e+01   0.0000000e+00   0.0000000e+00   0.0000000e+00   0.0000000e+00
  -2.3242301e+01  -1.2589580e+01  -5.8105752e+00  -3.5509071e+00  -1.3880819e+01  -8.3930531e+00  -1.5494867e+01  -6.4561947e+00  -1.8077345e+01  -1.4849248e+01  -1.7108916e+01  -2.2596681e+00  -1.4203628e+01  -1.2589580e+01  -1.8722965e+01  -1.5494867e+01  -1.4526438e+01  -1.2912389e+00  -2.0982633e+01  -1.7754535e+01   0.0000000e+00   0.0000000e+00   0.0000000e+00   0.0000000e+00
  -2.6147588e+01  -1.5172058e+01  -5.8105752e+00  -6.4561947e+00  -1.5172058e+01  -1.3880819e+01  -1.6463296e+01  -9.0386726e+00  -1.9691394e+01  -1.5172058e+01  -1.7108916e+01  -3.5509071e+00  -1.3558009e+01  -1.6786106e+01  -1.9691394e+01  -1.7431726e+01  -1.9045774e+01  -3.8737168e+00  -2.3242301e+01  -1.8400155e+01   0.0000000e+00   0.0000000e+00   0.0000000e+00   0.0000000e+00
  -2.7116018e+01  -1.5494867e+01  -5.1649558e+00  -6.4561947e+00  -1.5494867e+01  -1.5494867e+01  -1.5817677e+01  -9.6842920e+00  -2.0659823e+01  -1.5172058e+01  -1.6786106e+01  -4.1965265e+00  -1.3558009e+01  -1.8722965e+01  -1.9368584e+01  -1.7431726e+01  -2.0659823e+01  -5.4877655e+00  -2.3565111e+01  -1.8400155e+01   0.0000000e+00   0.0000000e+00   0.0000000e+00   0.0000000e+00
  -2.6470398e+01  -1.3880819e+01  -5.8105752e+00  -4.5193363e+00  -1.5172058e+01  -1.4203628e+01  -1.4526438e+01  -9.3614823e+00  -2.1305442e+01  -1.5817677e+01  -1.6786106e+01  -4.8421460e+00  -1.4849248e+01  -1.7108916e+01  -1.9045774e+01  -1.6786106e+01  -1.9045774e+01  -6.1333850e+00  -2.1628252e+01  -1.7431726e+01   0.0000000e+00   0.0000000e+00   0.0000000e+00   0.0000000e+00
  -2.4210730e+01  -1.1621150e+01  -7.1018142e+00  -9.6842920e-01  -1.4203628e+01  -1.0329912e+01  -1.2266770e+01  -8.0702434e+00  -2.1305442e+01  -1.6463296e+01  -1.6463296e+01  -5.1649558e+00  -1.6463296e+01  -1.2912389e+01  -1.8077345e+01  -1.4849248e+01  -1.5172058e+01  -5.8105752e+00  -1.8400155e+01  -1.6140487e+01   0.0000000e+00   0.0000000e+00   0.0000000e+00   0.0000000e+00
  -2.2273872e+01  -1.1298341e+01  -8.7158628e+00   9.6842920e-01  -1.3235199e+01  -8.7158628e+00  -1.1621150e+01  -7.7474336e+00  -2.1628252e+01  -1.7431726e+01  -1.6786106e+01  -5.8105752e+00  -1.7754535e+01  -1.0007102e+01  -1.8077345e+01  -1.4526438e+01  -1.2589580e+01  -6.1333850e+00  -1.6463296e+01  -1.6786106e+01   0.0000000e+00   0.0000000e+00   0.0000000e+00   0.0000000e+00
  -2.0982633e+01  -1.2912389e+01  -1.0007102e+01   1.2912389e+00  -1.2589580e+01  -1.0007102e+01  -1.1943960e+01  -9.0386726e+00  -2.2273872e+01  -1.7754535e+01  -1.7108916e+01  -6.7790044e+00  -1.7108916e+01  -1.0329912e+01  -1.8722965e+01  -1.6140487e+01  -1.2589580e+01  -7.1018142e+00  -1.6786106e+01  -1.9045774e+01   0.0000000e+00   0.0000000e+00   0.0000000e+00   0.0000000e+00
  -2.0659823e+01  -1.5494867e+01  -1.0652721e+01   0.0000000e+00  -1.1943960e+01  -1.3558009e+01  -1.3235199e+01  -1.0975531e+01  -2.2919491e+01  -1.8077345e+01  -1.7431726e+01  -7.1018142e+00  -1.5172058e+01  -1.2912389e+01  -1.9691394e+01  -1.8722965e+01  -1.4203628e+01  -8.3930531e+00  -1.8077345e+01  -2.2919491e+01   0.0000000e+00   0.0000000e+00   0.0000000e+00   0.0000000e+00
  -2.0982633e+01  -1.7108916e+01  -1.1621150e+01  -6.4561947e-01  -1.0975531e+01  -1.6140487e+01  -1.3880819e+01  -1.2589580e+01  -2.2596681e+01  -1.7431726e+01  -1.7431726e+01  -6.4561947e+00  -1.2266770e+01  -1.5817677e+01  -1.9691394e+01  -2.0659823e+01  -1.5817677e+01  -8.7158628e+00  -1.8400155e+01  -2.6793208e+01   0.0000000e+00   0.0000000e+00   0.0000000e+00   0.0000000e+00
  -2.0014204e+01  -1.5817677e+01  -1.2912389e+01   9.6842920e-01  -8.7158628e+00  -1.4849248e+01  -1.2589580e+01  -1.2266770e+01  -2.0337013e+01  -1.6140487e+01  -1.6463296e+01  -4.1965265e+00  -9.3614823e+00  -1.5172058e+01  -1.8400155e+01  -2.0014204e+01  -1.4203628e+01  -6.7790044e+00  -1.5172058e+01  -2.8730066e+01   0.0000000e+00   0.0000000e+00   0.0000000e+00   0.0000000e+00
  -1.7108916e+01  -1.1621150e+01  -1.4526438e+01   4.8421460e+00  -5.1649558e+00  -9.0386726e+00  -9.3614823e+00  -9.3614823e+00  -1.6140487e+01  -1.3880819e+01  -1.4849248e+01  -3.2280973e-01  -6.7790044e+00  -1.0007102e+01  -1.5172058e+01  -1.6786106e+01  -8.3930531e+00  -2.5824779e+00  -9.0386726e+00  -2.7438827e+01   0.0000000e+00   0.0000000e+00   0.0000000e+00   0.0000000e+00
  -1.4203628e+01  -7.1018142e+00  -1.6786106e+01   9.0386726e+00  -2.5824779e+00  -1.9368584e+00  -5.8105752e+00  -6.1333850e+00  -1.2589580e+01  -1.2266770e+01  -1.3880819e+01   2.9052876e+00  -5.8105752e+00  -2.9052876e+00  -1.2589580e+01  -1.2912389e+01  -1.6140487e+00   2.2596681e+00  -2.9052876e+00  -2.4533540e+01   0.0000000e+00   0.0000000e+00   0.0000000e+00   0.0000000e+00
  -1.1298341e+01  -4.1965265e+00  -1.8400155e+01   1.1621150e+01  -3.2280973e-01   3.2280973e+00  -3.2280973e+00  -3.5509071e+00  -9.6842920e+00  -1.1298341e+01  -1.3235199e+01   5.4877655e+00  -4.8421460e+00   3.5509071e+00  -1.0652721e+01  -1.0007102e+01   3.8737168e+00   6.1333850e+00   6.4561947e-01  -2.1305442e+01   0.0000000e+00   0.0000000e+00   0.0000000e+00   0.0000000e+00
  -1.0007102e+01  -3.8737168e+00  -1.9045774e+01   1.0975531e+01   9.6842920e-01   4.1965265e+00  -2.9052876e+00  -3.2280973e+00  -8.3930531e+00  -1.0652721e+01  -1.2912389e+01   6.7790044e+00  -3.5509071e+00   6.1333850e+00  -1.0652721e+01  -9.6842920e+00   5.1649558e+00   8.3930531e+00   0.0000000e+00  -1.8722965e+01   0.0000000e+00   0.0000000e+00   0.0000000e+00   0.0000000e+00
  -1.0652721e+01  -6.1333850e+00  -1.9368584e+01   7.7474336e+00   6.4561947e-01   6.4561947e-01  -4.8421460e+00  -5.8105752e+00  -9.0386726e+00  -1.1298341e+01  -1.3558009e+01   6.7790044e+00  -1.9368584e+00   4.5193363e+00  -1.1943960e+01  -1.1621150e+01   2.9052876e+00   8.0702434e+00  -4.8421460e+00  -1.7754535e+01   0.0000000e+00   0.0000000e+00   0.0000000e+00   0.0000000e+00
  -1.1621150e+01  -9.0386726e+00  -1.9368584e+01   4.8421460e+00   6.4561947e-01  -3.2280973e+00  -7.1018142e+00  -9.3614823e+00  -1.0007102e+01  -1.1943960e+01  -1.4203628e+01   7.1018142e+00  -6.4561947e-01   9.6842920e-01  -1.3558009e+01  -1.4203628e+01  -3.2280973e-01   7.4246239e+00  -1.0007102e+01  -1.7108916e+01   0.0000000e+00   0.0000000e+00   0.0000000e+00   0.0000000e+00
  -1.1943960e+01  -9.6842920e+00  -1.9045774e+01   4.1965265e+00   9.6842920e-01  -4.1965265e+00  -8.3930531e+00  -1.1943960e+01  -1.0329912e+01  -1.2589580e+01  -1.4203628e+01   8.3930531e+00   3.2280973e-01  -9.6842920e-01  -1.4526438e+01  -1.4849248e+01  -1.2912389e+00   7.7474336e+00  -1.2589580e+01  -1.5817677e+01   0.0000000e+00   0.0000000e+00   0.0000000e+00   0.0000000e+00
  -1.0652721e+01  -8.7158628e+00  -1.9368584e+01   7.1018142e+00   2.5824779e+00  -1.9368584e+00  -8.7158628e+00  -1.2589580e+01  -9.6842920e+00  -1.3235199e+01  -1.3880819e+01   1.0329912e+01   0.0000000e+00   3.2280973e-01  -1.4526438e+01  -1.3880819e+01   9.6842920e-01   9.0386726e+00  -1.1298341e+01  -1.4203628e+01   0.0000000e+00   0.0000000e+00   0.0000000e+00   0.0000000e+00
  -8.3930531e+00  -7.1018142e+00  -1.9368584e+01   1.1621150e+01   4.5193363e+00   2.5824779e+00  -8.3930531e+00  -1.1943960e+01  -8.7158628e+00  -1.3880819e+01  -1.3558009e+01   1.2266770e+01  -6.4561947e-01   3.5509071e+00  -1.4203628e+01  -1.2266770e+01   5.1649558e+00   1.0652721e+01  -7.7474336e+00  -1.2589580e+01   0.0000000e+00   0.0000000e+00   0.0000000e+00   0.0000000e+00
  -6.4561947e+00  -6.4561947e+00  -1.8722965e+01   1.5817677e+01   6.1333850e+00   5.4877655e+00  -8.3930531e+00  -1.0975531e+01  -8.3930531e+00  -1.4526438e+01  -1.3235199e+01   1.3235199e+01  -1.2912389e+00   5.8105752e+00  -1.4526438e+01  -1.1298341e+01   8.3930531e+00   1.1298341e+01  -4.8421460e+00  -1.2266770e+01   0.0000000e+00   0.0000000e+00   0.0000000e+00   0.0000000e+00
  -6.1333850e+00  -7.7474336e+00  -1.7431726e+01   1.7431726e+01   7.4246239e+00   4.5193363e+00  -1.0329912e+01  -1.1621150e+01  -8.7158628e+00  -1.4849248e+01  -1.3880819e+01   1.3235199e+01  -3.2280973e-01   5.1649558e+00  -1.5494867e+01  -1.2589580e+01   8.7158628e+00   1.0329912e+01  -5.1649558e+00  -1.3880819e+01   0.0000000e+00   0.0000000e+00   0.0000000e+00   0.0000000e+00
  -7.7474336e+00  -1.0975531e+01  -1.5172058e+01   1.6140487e+01   7.7474336e+00   3.2280973e-01  -1.3558009e+01  -1.3235199e+01  -1.0329912e+01  -1.5494867e+01  -1.5172058e+01   1.2589580e+01   1.2912389e+00   9.6842920e-01  -1.7431726e+01  -1.6463296e+01   5.4877655e+00   7.1018142e+00  -8.7158628e+00  -1.7108916e+01   0.0000000e+00   0.0000000e+00   0.0000000e+00   0.0000000e+00
  -9.3614823e+00  -1.3880819e+01  -1.2266770e+01   1.4849248e+01   8.0702434e+00  -3.8737168e+00  -1.6463296e+01  -1.5172058e+01  -1.1621150e+01  -1.5494867e+01  -1.6140487e+01   1.2266770e+01   3.2280973e+00  -4.5193363e+00  -1.9368584e+01  -2.0337013e+01   1.9368584e+00   4.1965265e+00  -1.3558009e+01  -1.9691394e+01   0.0000000e+00   0.0000000e+00   0.0000000e+00   0.0000000e+00
  -9.6842920e+00  -1.4203628e+01  -9.6842920e+00   1.4849248e+01   9.0386726e+00  -4.8421460e+00  -1.7754535e+01  -1.5494867e+01  -1.1943960e+01  -1.4849248e+01  -1.7431726e+01   1.2912389e+01   4.5193363e+00  -7.4246239e+00  -2.0337013e+01  -2.2919491e+01   3.2280973e-01   2.5824779e+00  -1.7108916e+01  -2.0014204e+01   0.0000000e+00   0.0000000e+00   0.0000000e+00   0.0000000e+00
  -8.0702434e+00  -1.1298341e+01  -7.7474336e+00   1.8077345e+01   1.1298341e+01  -1.2912389e+00  -1.6463296e+01  -1.4203628e+01  -1.0652721e+01  -1.3880819e+01  -1.8077345e+01   1.4526438e+01   4.8421460e+00  -6.4561947e+00  -2.0014204e+01  -2.2273872e+01   2.9052876e+00   2.9052876e+00  -1.7754535e+01  -1.7431726e+01   0.0000000e+00   0.0000000e+00   0.0000000e+00   0.0000000e+00
  -4.8421460e+00  -7.1018142e+00  -7.1018142e+00   2.2273872e+01   1.3558009e+01   4.8421460e+00  -1.3880819e+01  -1.1943960e+01  -8.7158628e+00  -1.2589580e+01  -1.8400155e+01   1.6140487e+01   4.1965265e+00  -2.2596681e+00  -1.9368584e+01  -1.9691394e+01   7.7474336e+00   4.5193363e+00  -1.6140487e+01  -1.2912389e+01   0.0000000e+00   0.0000000e+00   0.0000000e+00   0.0000000e+00
  -1.9368584e+00  -2.5824779e+00  -6.1333850e+00   2.5824779e+01   1.5494867e+01   1.0329912e+01  -1.0975531e+01  -1.0329912e+01  -6.7790044e+00  -1.0975531e+01  -1.8077345e+01   1.7108916e+01   4.1965265e+00   2.2596681e+00  -1.8400155e+01  -1.6786106e+01   1.2266770e+01   6.7790044e+00  -1.3880819e+01  -8.0702434e+00   0.0000000e+00   0.0000000e+00   0.0000000e+00   0.0000000e+00
   0.0000000e+00   0.0000000e+00  -4.8421460e+00   2.6793208e+01   1.6463296e+01   1.1943960e+01  -9.3614823e+00  -9.6842920e+00  -5.8105752e+00  -1.0007102e+01  -1.7754535e+01   1.7431726e+01   4.8421460e+00   4.1965265e+00  -1.8077345e+01  -1.5172058e+01   1.3880819e+01   7.7474336e+00  -1.3235199e+01  -4.8421460e+00   0.0000000e+00   0.0000000e+00   0.0000000e+00   0.0000000e+00
   0.0000000e+00   9.6842920e-01  -2.5824779e+00   2.4856350e+01   1.6140487e+01   1.0007102e+01  -8.7158628e+00  -1.0329912e+01  -5.4877655e+00  -9.0386726e+00  -1.7108916e+01   1.6786106e+01   5.8105752e+00   2.9052876e+00  -1.8400155e+01  -1.5494867e+01   1.2266770e+01   7.7474336e+00  -1.4203628e+01  -3.8737168e+00   0.0000000e+00   0.0000000e+00   0.0000000e+00   0.0000000e+00
  -3.2280973e-01   1.2912389e+00   3.2280973e-01   2.1951062e+01   1.5172058e+01   6.7790044e+00  -8.3930531e+00  -1.0975531e+01  -5.8105752e+00  -8.7158628e+00  -1.7108916e+01   1.6463296e+01   6.7790044e+00   0.0000000e+00  -1.9045774e+01  -1.7108916e+01   9.3614823e+00   7.7474336e+00  -1.5817677e+01  -3.5509071e+00   0.0000000e+00   0.0000000e+00   0.0000000e+00   0.0000000e+00
  -9.6842920e-01   1.9368584e+00   3.2280973e+00   1.9368584e+01   1.3558009e+01   5.4877655e+00  -7.7474336e+00  -1.0975531e+01  -6.1333850e+00  -9.0386726e+00  -1.7754535e+01   1.6140487e+01   6.1333850e+00  -1.6140487e+00  -2.0014204e+01  -1.8722965e+01   7.7474336e+00   8.0702434e+00  -1.6463296e+01  -3.2280973e+00   0.0000000e+00   0.0000000e+00   0.0000000e+00   0.0000000e+00
   3.2280973e-01   4.5193363e+00   5.1649558e+00   1.9691394e+01   1.2912389e+01   8.0702434e+00  -5.1649558e+00  -9.3614823e+00  -5.4877655e+00  -9.0386726e+00  -1.8400155e+01   1.7108916e+01   4.8421460e+00   3.2280973e-01  -1.9691394e+01  -1.8077345e+01   9.6842920e+00   1.0652721e+01  -1.5172058e+01  -1.2912389e+00   0.0000000e+00   0.0000000e+00   0.0000000e+00   0.0000000e+00
   1.6140487e+00   6.7790044e+00   6.1333850e+00   2.1305442e+01   1.2589580e+01   1.2266770e+01  -1.9368584e+00  -7.1018142e+00  -4.1965265e+00  -9.3614823e+00  -1.9045774e+01   1.8077345e+01   2.5824779e+00   4.5193363e+00  -1.9691394e+01  -1.6786106e+01   1.3235199e+01   1.3558009e+01  -1.2589580e+01   1.6140487e+00   0.0000000e+00   0.0000000e+00   0.0000000e+00   0.0000000e+00
   2.2596681e+00   8.0702434e+00   5.8105752e+00   2.2596681e+01   1.1298341e+01   1.5172058e+01   0.0000000e+00  -5.8105752e+00  -3.5509071e+00  -1.0007102e+01  -2.0014204e+01   1.7754535e+01   3.2280973e-01   8.0702434e+00  -2.0014204e+01  -1.5817677e+01   1.5817677e+01   1.5494867e+01  -1.1621150e+01   3.5509071e+00   0.0000000e+00   0.0000000e+00   0.0000000e+00   0.0000000e+00
   6.4561947e-01   6.7790044e+00   4.8421460e+00   2.1951062e+01   9.3614823e+00   1.3880819e+01   3.2280973e-01  -6.1333850e+00  -3.8737168e+00  -1.0652721e+01  -2.0982633e+01   1.6140487e+01  -9.6842920e-01   8.0702434e+00  -2.1305442e+01  -1.6786106e+01   1.5494867e+01   1.5817677e+01  -1.2912389e+01   3.2280973e+00   0.0000000e+00   0.0000000e+00   0.0000000e+00   0.0000000e+00
  -2.2596681e+00   3.5509071e+00   4.8421460e+00   1.8722965e+01   7.1018142e+00   9.0386726e+00  -1.2912389e+00  -8.0702434e+00  -5.1649558e+00  -1.1298341e+01  -2.2273872e+01   1.3880819e+01  -1.2912389e+00   3.8737168e+00  -2.2919491e+01  -1.9368584e+01   1.1943960e+01   1.3880819e+01  -1.6786106e+01   3.2280973e-01   0.0000000e+00   0.0000000e+00   0.0000000e+00   0.0000000e+00
  -6.1333850e+00   3.2280973e-01   5.4877655e+00   1.4849248e+01   4.8421460e+00   2.5824779e+00  -3.5509071e+00  -1.0007102e+01  -7.1018142e+00  -1.1943960e+01  -2.3887920e+01   1.1298341e+01  -1.2912389e+00  -2.2596681e+00  -2.4856350e+01  -2.2273872e+01   6.7790044e+00   1.1298341e+01  -2.1305442e+01  -4.1965265e+00   0.0000000e+00   0.0000000e+00   0.0000000e+00   0.0000000e+00
  -9.3614823e+00  -2.5824779e+00   5.8105752e+00   1.1621150e+01   3.2280973e+00  -1.9368584e+00  -5.1649558e+00  -1.1621150e+01  -9.0386726e+00  -1.3558009e+01  -2.5501969e+01   9.3614823e+00  -1.9368584e+00  -7.4246239e+00  -2.6470398e+01  -2.4533540e+01   2.9052876e+00   8.7158628e+00  -2.4856350e+01  -9.0386726e+00   0.0000000e+00   0.0000000e+00   0.0000000e+00   0.0000000e+00
  -1.0329912e+01  -2.9052876e+00   6.4561947e+00   1.1621150e+01   3.2280973e+00  -1.9368584e+00  -5.1649558e+00  -1.0975531e+01  -9.6842920e+00  -1.4849248e+01  -2.6793208e+01   9.0386726e+00  -2.5824779e+00  -8.7158628e+00  -2.6793208e+01  -2.3887920e+01   2.5824779e+00   8.0702434e+00  -2.5179159e+01  -1.1943960e+01   0.0000000e+00   0.0000000e+00   0.0000000e+00   0.0000000e+00
  -9.6842920e+00  -2.9052876e+00   5.8105752e+00   1.3235199e+01   2.9052876e+00  -3.2280973e-01  -4.8421460e+00  -1.0007102e+01  -1.0329912e+01  -1.6786106e+01  -2.8407257e+01   8.3930531e+00  -4.8421460e+00  -8.0702434e+00  -2.7438827e+01  -2.2596681e+01   4.5193363e+00   7.1018142e+00  -2.4533540e+01  -1.3880819e+01   0.0000000e+00   0.0000000e+00   0.0000000e+00   0.0000000e+00
  -9.0386726e+00  -3.8737168e+00   4.5193363e+00   1.4849248e+01   2.2596681e+00   6.4561947e-01  -5.1649558e+00  -9.6842920e+00  -1.0975531e+01  -1.8722965e+01  -2.9698496e+01   7.4246239e+00  -6.7790044e+00  -7.1018142e+00  -2.8407257e+01  -2.1628252e+01   5.8105752e+00   5.8105752e+00  -2.4533540e+01  -1.5817677e+01   0.0000000e+00   0.0000000e+00   0.0000000e+00   0.0000000e+00
  -9.6842920e+00  -6.4561947e+00   2.9052876e+00   1.4203628e+01   3.2280973e-01  -2.2596681e+00  -7.4246239e+00  -1.1298341e+01  -1.2589580e+01  -2.0982633e+01  -3.0989735e+01   5.4877655e+00  -8.7158628e+00  -9.0386726e+00  -3.0666925e+01  -2.2596681e+01   4.1965265e+00   2.2596681e+00  -2.7438827e+01  -1.9368584e+01   0.0000000e+00   0.0000000e+00   0.0000000e+00   0.0000000e+00
  -1.1298341e+01  -1.0007102e+01   2.2596681e+00   1.0975531e+01  -2.2596681e+00  -8.3930531e+00  -1.0975531e+01  -1.4203628e+01  -1.4849248e+01  -2.2273872e+01  -3.1635354e+01   3.2280973e+00  -9.0386726e+00  -1.4203628e+01  -3.2926593e+01  -2.5179159e+01  -3.2280973e-01  -1.9368584e+00  -3.2280973e+01  -2.3242301e+01   0.0000000e+00   0.0000000e+00   0.0000000e+00   0.0000000e+00
  -1.4526438e+01  -1.3880819e+01   1.9368584e+00   6.4561947e+00  -5.4877655e+00  -1.5817677e+01  -1.5172058e+01  -1.8077345e+01  -1.7431726e+01  -2.3887920e+01  -3.2280973e+01   1.2912389e+00  -9.6842920e+00  -2.0982633e+01  -3.5831881e+01  -2.8730066e+01  -6.4561947e+00  -6.7790044e+00  -3.8737168e+01  -2.7761637e+01   0.0000000e+00   0.0000000e+00   0.0000000e+00   0.0000000e+00
  -1.7431726e+01  -1.5817677e+01   1.6140487e+00   2.9052876e+00  -8.3930531e+00  -2.0982633e+01  -1.8722965e+01  -2.0337013e+01  -1.9368584e+01  -2.5179159e+01  -3.1958164e+01   0.0000000e+00  -1.0652721e+01  -2.6147588e+01  -3.7445929e+01  -3.0989735e+01  -1.0975531e+01  -1.0329912e+01  -4.3256504e+01  -3.0989735e+01   0.0000000e+00   0.0000000e+00   0.0000000e+00   0.0000000e+00
  -1.9045774e+01  -1.5172058e+01   9.6842920e-01   2.2596681e+00  -1.0007102e+01  -2.1628252e+01  -2.0659823e+01  -2.0982633e+01  -2.0014204e+01  -2.6147588e+01  -3.1312544e+01  -3.2280973e-01  -1.2266770e+01  -2.7116018e+01  -3.8414358e+01  -3.1312544e+01  -1.1943960e+01  -1.2266770e+01  -4.4547743e+01  -3.2280973e+01   0.0000000e+00   0.0000000e+00   0.0000000e+00   0.0000000e+00
  -1.9045774e+01  -1.2912389e+01   0.0000000e+00   4.1965265e+00  -1.0652721e+01  -1.8400155e+01  -2.0982633e+01  -2.0014204e+01  -1.9368584e+01  -2.6793208e+01  -3.0021305e+01   0.0000000e+00  -1.4526438e+01  -2.4210730e+01  -3.8091549e+01  -2.9698496e+01  -9.6842920e+00  -1.2266770e+01  -4.2933695e+01  -3.1635354e+01   0.0000000e+00   0.0000000e+00   0.0000000e+00   0.0000000e+00
  -1.8077345e+01  -1.0007102e+01  -6.4561947e-01   6.7790044e+00  -1.0652721e+01  -1.4203628e+01  -2.0982633e+01  -1.8400155e+01  -1.8077345e+01  -2.6470398e+01  -2.7761637e+01   3.2280973e-01  -1.5817677e+01  -2.0014204e+01  -3.7123119e+01  -2.7438827e+01  -6.4561947e+00  -1.1621150e+01  -3.9705597e+01  -3.0021305e+01   0.0000000e+00   0.0000000e+00   0.0000000e+00   0.0000000e+00
  -1.8077345e+01  -9.0386726e+00  -1.2912389e+00   7.7474336e+00  -1.0975531e+01  -1.2589580e+01  -2.1951062e+01  -1.8400155e+01  -1.7754535e+01  -2.5501969e+01  -2.5824779e+01  -6.4561947e-01  -1.6786106e+01  -1.7754535e+01  -3.6800310e+01  -2.6793208e+01  -5.8105752e+00  -1.1621150e+01  -3.8091549e+01  -2.9375686e+01   0.0000000e+00   0.0000000e+00   0.0000000e+00   0.0000000e+00
  -1.8722965e+01  -9.0386726e+00  -6.4561947e-01   6.4561947e+00  -1.1943960e+01  -1.4203628e+01  -2.3887920e+01  -1.9368584e+01  -1.7431726e+01  -2.3887920e+01  -2.3887920e+01  -2.2596681e+00  -1.6463296e+01  -1.8077345e+01  -3.6477500e+01  -2.7116018e+01  -7.4246239e+00  -1.1943960e+01  -3.7768739e+01  -2.9375686e+01   0.0000000e+00   0.0000000e+00   0.0000000e+00   0.0000000e+00
  -2.0337013e+01  -9.3614823e+00   3.2280973e-01   3.8737168e+00  -1.2912389e+01  -1.6463296e+01  -2.5501969e+01  -2.0337013e+01  -1.7108916e+01  -2.1628252e+01  -2.1628252e+01  -3.5509071e+00  -1.5817677e+01  -2.0014204e+01  -3.6154690e+01  -2.7761637e+01  -1.0329912e+01  -1.1943960e+01  -3.8091549e+01  -2.9375686e+01   0.0000000e+00   0.0000000e+00   0.0000000e+00   0.0000000e+00
  -2.2273872e+01  -9.6842920e+00   9.6842920e-01   1.2912389e+00  -1.4203628e+01  -1.8400155e+01  -2.6793208e+01  -2.0982633e+01  -1.7431726e+01  -2.0659823e+01  -2.0659823e+01  -4.8421460e+00  -1.6463296e+01  -2.1628252e+01  -3.6154690e+01  -2.8407257e+01  -1.2589580e+01  -1.1298341e+01  -3.8091549e+01  -2.9375686e+01   0.0000000e+00   0.0000000e+00   0.0000000e+00   0.0000000e+00
  -2.3565111e+01  -8.7158628e+00   3.2280973e-01   6.4561947e-01  -1.6140487e+01  -1.7108916e+01  -2.7116018e+01  -2.0337013e+01  -1.7431726e+01  -2.0337013e+01  -2.0337013e+01  -5.8105752e+00  -1.9368584e+01  -2.0659823e+01  -3.5831881e+01  -2.7438827e+01  -1.2589580e+01  -1.0007102e+01  -3.6800310e+01  -2.8084447e+01   0.0000000e+00   0.0000000e+00   0.0000000e+00   0.0000000e+00
  -2.3887920e+01  -7.7474336e+00  -1.2912389e+00   1.2912389e+00  -1.8077345e+01  -1.4203628e+01  -2.6793208e+01  -1.9045774e+01  -1.7431726e+01  -2.1628252e+01  -2.0982633e+01  -6.7790044e+00  -2.3242301e+01  -1.7754535e+01  -3.5509071e+01  -2.5824779e+01  -1.0652721e+01  -8.0702434e+00  -3.4217832e+01  -2.5824779e+01   0.0000000e+00   0.0000000e+00   0.0000000e+00   0.0000000e+00
  -2.3242301e+01  -7.1018142e+00  -3.2280973e+00   2.9052876e+00  -1.9045774e+01  -1.0652721e+01  -2.6147588e+01  -1.7108916e+01  -1.7108916e+01  -2.2596681e+01  -2.0982633e+01  -7.1018142e+00  -2.5824779e+01  -1.3235199e+01  -3.4540642e+01  -2.3565111e+01  -7.7474336e+00  -5.8105752e+00  -3.0989735e+01  -2.2919491e+01   0.0000000e+00   0.0000000e+00   0.0000000e+00   0.0000000e+00
  -2.3565111e+01  -8.3930531e+00  -4.8421460e+00   2.9052876e+00  -2.0659823e+01  -1.0652721e+01  -2.6470398e+01  -1.6786106e+01  -1.7431726e+01  -2.3887920e+01  -2.1305442e+01  -8.0702434e+00  -2.6793208e+01  -1.1298341e+01  -3.3895022e+01  -2.2919491e+01  -7.4246239e+00  -5.1649558e+00  -3.0021305e+01  -2.1628252e+01   0.0000000e+00   0.0000000e+00   0.0000000e+00   0.0000000e+00
  -2.4533540e+01  -1.1298341e+01  -5.8105752e+00   6.4561947e-01  -2.2273872e+01  -1.3880819e+01  -2.8084447e+01  -1.7754535e+01  -1.7754535e+01  -2.3887920e+01  -2.1305442e+01  -9.0386726e+00  -2.5501969e+01  -1.2589580e+01  -3.3895022e+01  -2.4210730e+01  -1.0007102e+01  -5.8105752e+00  -3.0989735e+01  -2.1951062e+01   0.0000000e+00   0.0000000e+00   0.0000000e+00   0.0000000e+00
  -2.6470398e+01  -1.4849248e+01  -6.1333850e+00  -3.2280973e+00  -2.3565111e+01  -1.9368584e+01  -3.0344115e+01  -2.0014204e+01  -1.8400155e+01  -2.3242301e+01  -2.1305442e+01  -9.6842920e+00  -2.3565111e+01  -1.5817677e+01  -3.3572212e+01  -2.6470398e+01  -1.4526438e+01  -7.4246239e+00  -3.3249403e+01  -2.3242301e+01   0.0000000e+00   0.0000000e+00   0.0000000e+00   0.0000000e+00
  -2.8730066e+01  -1.7754535e+01  -6.7790044e+00  -6.7790044e+00  -2.5179159e+01  -2.3565111e+01  -3.2280973e+01  -2.2273872e+01  -1.8722965e+01  -2.2273872e+01  -2.1951062e+01  -1.0329912e+01  -2.2273872e+01  -1.9045774e+01  -3.3572212e+01  -2.8730066e+01  -1.8722965e+01  -9.0386726e+00  -3.5509071e+01  -2.4533540e+01   0.0000000e+00   0.0000000e+00   0.0000000e+00   0.0000000e+00
  -3.0344115e+01  -1.9045774e+01  -7.7474336e+00  -8.3930531e+00  -2.6147588e+01  -2.4533540e+01  -3.3249403e+01  -2.3242301e+01  -1.8722965e+01  -2.1628252e+01  -2.2273872e+01  -1.0652721e+01  -2.1951062e+01  -1.9368584e+01  -3.3249403e+01  -2.8730066e+01  -2.0014204e+01  -1.0329912e+01  -3.5509071e+01  -2.4533540e+01   0.0000000e+00   0.0000000e+00   0.0000000e+00   0.0000000e+00
  -3.1312544e+01  -1.9368584e+01  -1.0652721e+01  -8.7158628e+00  -2.7438827e+01  -2.3242301e+01  -3.3249403e+01  -2.3242301e+01  -1.9045774e+01  -2.1628252e+01  -2.3242301e+01  -1.1621150e+01  -2.3565111e+01  -1.7108916e+01  -3.2603783e+01  -2.7438827e+01  -1.9045774e+01  -1.1298341e+01  -3.4217832e+01  -2.3242301e+01   0.0000000e+00   0.0000000e+00   0.0000000e+00   0.0000000e+00
  -3.0989735e+01  -1.9045774e+01  -1.3235199e+01  -7.4246239e+00  -2.7761637e+01  -2.0982633e+01  -3.2603783e+01  -2.2273872e+01  -1.9045774e+01  -2.1305442e+01  -2.3242301e+01  -1.2589580e+01  -2.4856350e+01  -1.3558009e+01  -3.1635354e+01  -2.4533540e+01  -1.7108916e+01  -1.1943960e+01  -3.2280973e+01  -2.1305442e+01   0.0000000e+00   0.0000000e+00   0.0000000e+00   0.0000000e+00
  -3.1312544e+01  -1.9691394e+01  -1.6463296e+01  -7.1018142e+00  -2.8407257e+01  -2.0982633e+01  -3.2926593e+01  -2.2596681e+01  -1.9045774e+01  -2.1305442e+01  -2.3242301e+01  -1.4203628e+01  -2.4856350e+01  -1.2266770e+01  -3.0666925e+01  -2.2596681e+01  -1.6463296e+01  -1.3880819e+01  -3.1635354e+01  -2.0014204e+01   0.0000000e+00   0.0000000e+00   0.0000000e+00   0.0000000e+00
  -3.2280973e+01  -2.1951062e+01  -1.9045774e+01  -7.7474336e+00  -2.9052876e+01  -2.4210730e+01  -3.4217832e+01  -2.3887920e+01  -1.9045774e+01  -2.0659823e+01  -2.3242301e+01  -1.6140487e+01  -2.3565111e+01  -1.3558009e+01  -3.0021305e+01  -2.2596681e+01  -1.8400155e+01  -1.6463296e+01  -3.2926593e+01  -1.9691394e+01   0.0000000e+00   0.0000000e+00   0.0000000e+00   0.0000000e+00
  -3.3895022e+01  -2.4210730e+01  -2.0659823e+01  -9.3614823e+00  -2.9375686e+01  -2.8730066e+01  -3.5831881e+01  -2.6147588e+01  -1.9045774e+01  -1.9368584e+01  -2.2919491e+01  -1.7754535e+01  -2.1305442e+01  -1.7108916e+01  -2.9698496e+01  -2.3565111e+01  -2.1628252e+01  -1.8722965e+01  -3.4863451e+01  -2.0014204e+01   0.0000000e+00   0.0000000e+00   0.0000000e+00   0.0000000e+00
  -3.5186261e+01  -2.5501969e+01  -2.1628252e+01  -9.3614823e+00  -2.9052876e+01  -3.1635354e+01  -3.6800310e+01  -2.7438827e+01  -1.8400155e+01  -1.7754535e+01  -2.2919491e+01  -1.7754535e+01  -1.9368584e+01  -1.9691394e+01  -2.9052876e+01  -2.4210730e+01  -2.3565111e+01  -2.0014204e+01  -3.5831881e+01  -1.9691394e+01   0.0000000e+00   0.0000000e+00   0.0000000e+00   0.0000000e+00
  -3.4863451e+01  -2.5179159e+01  -2.2596681e+01  -7.1018142e+00  -2.8407257e+01  -3.1312544e+01  -3.6154690e+01  -2.7761637e+01  -1.7108916e+01  -1.6463296e+01  -2.2919491e+01  -1.6463296e+01  -1.8400155e+01  -1.9368584e+01  -2.7761637e+01  -2.3565111e+01  -2.2596681e+01  -1.9691394e+01  -3.4217832e+01  -1.8077345e+01   0.0000000e+00   0.0000000e+00   0.0000000e+00   0.0000000e+00
  -3.2926593e+01  -2.3242301e+01  -2.3565111e+01  -2.5824779e+00  -2.6470398e+01  -2.6793208e+01  -3.3895022e+01  -2.6147588e+01  -1.4526438e+01  -1.5172058e+01  -2.3242301e+01  -1.3558009e+01  -1.8077345e+01  -1.5494867e+01  -2.5501969e+01  -2.0982633e+01  -1.8077345e+01  -1.7431726e+01  -3.0344115e+01  -1.4526438e+01   0.0000000e+00   0.0000000e+00   0.0000000e+00   0.0000000e+00
  -3.0666925e+01  -2.1628252e+01  -2.5501969e+01   2.2596681e+00  -2.4856350e+01  -2.1951062e+01  -3.1958164e+01  -2.4533540e+01  -1.2266770e+01  -1.4203628e+01  -2.3565111e+01  -1.0329912e+01  -1.7754535e+01  -1.0329912e+01  -2.3565111e+01  -1.8400155e+01  -1.3235199e+01  -1.5172058e+01  -2.5824779e+01  -1.1621150e+01   0.0000000e+00   0.0000000e+00   0.0000000e+00   0.0000000e+00
  -2.8084447e+01  -2.0982633e+01  -2.6470398e+01   6.1333850e+00  -2.3242301e+01  -1.8722965e+01  -3.0344115e+01  -2.3565111e+01  -9.6842920e+00  -1.3235199e+01  -2.3565111e+01  -7.4246239e+00  -1.6786106e+01  -6.4561947e+00  -2.1951062e+01  -1.7108916e+01  -9.3614823e+00  -1.2589580e+01  -2.2273872e+01  -1.0007102e+01   0.0000000e+00   0.0000000e+00   0.0000000e+00   0.0000000e+00
  -2.6793208e+01  -2.1951062e+01  -2.6793208e+01   7.4246239e+00  -2.1951062e+01  -1.8722965e+01  -3.0666925e+01  -2.4210730e+01  -8.0702434e+00  -1.2589580e+01  -2.3242301e+01  -5.1649558e+00  -1.4526438e+01  -6.4561947e+00  -2.0982633e+01  -1.8077345e+01  -8.7158628e+00  -1.1298341e+01  -2.1628252e+01  -1.0652721e+01   0.0000000e+00   0.0000000e+00   0.0000000e+00   0.0000000e+00
  -2.6470398e+01  -2.3242301e+01  -2.5501969e+01   6.7790044e+00  -2.0982633e+01  -2.0659823e+01  -3.1958164e+01  -2.5824779e+01  -7.4246239e+00  -1.1943960e+01  -2.2919491e+01  -3.5509071e+00  -1.1621150e+01  -8.7158628e+00  -2.0659823e+01  -2.0337013e+01  -1.0007102e+01  -1.0007102e+01  -2.2596681e+01  -1.2266770e+01   0.0000000e+00   0.0000000e+00   0.0000000e+00   0.0000000e+00
  -2.5501969e+01  -2.3242301e+01  -2.2919491e+01   6.1333850e+00  -1.9368584e+01  -2.0982633e+01  -3.2280973e+01  -2.5824779e+01  -6.4561947e+00  -1.1298341e+01  -2.2596681e+01  -1.6140487e+00  -9.3614823e+00  -1.0975531e+01  -1.9691394e+01  -2.1951062e+01  -1.0975531e+01  -8.0702434e+00  -2.2596681e+01  -1.2912389e+01   0.0000000e+00   0.0000000e+00   0.0000000e+00   0.0000000e+00
  -2.3565111e+01  -2.1628252e+01  -2.0014204e+01   6.7790044e+00  -1.7431726e+01  -1.8722965e+01  -3.1635354e+01  -2.4533540e+01  -5.8105752e+00  -1.1621150e+01  -2.2596681e+01   6.4561947e-01  -8.0702434e+00  -1.0652721e+01  -1.8400155e+01  -2.1628252e+01  -9.6842920e+00  -5.8105752e+00  -2.1305442e+01  -1.1943960e+01   0.0000000e+00   0.0000000e+00   0.0000000e+00   0.0000000e+00
  -2.0014204e+01  -1.8400155e+01  -1.6786106e+01   9.3614823e+00  -1.4526438e+01  -1.3235199e+01  -2.9052876e+01  -2.0659823e+01  -4.5193363e+00  -1.1621150e+01  -2.2596681e+01   2.9052876e+00  -7.7474336e+00  -6.7790044e+00  -1.6140487e+01  -1.9045774e+01  -5.4877655e+00  -2.2596681e+00  -1.7431726e+01  -8.3930531e+00   0.0000000e+00   0.0000000e+00   0.0000000e+00   0.0000000e+00
  -1.7108916e+01  -1.6140487e+01  -1.4526438e+01   1.1298341e+01  -1.2589580e+01  -8.3930531e+00  -2.7116018e+01  -1.7108916e+01  -3.5509071e+00  -1.1943960e+01  -2.3242301e+01   4.1965265e+00  -8.3930531e+00  -2.2596681e+00  -1.4849248e+01  -1.6140487e+01  -1.2912389e+00   3.2280973e-01  -1.3558009e+01  -4.8421460e+00   0.0000000e+00   0.0000000e+00   0.0000000e+00   0.0000000e+00
  -1.5172058e+01  -1.5494867e+01  -1.2589580e+01   1.1298341e+01  -1.1621150e+01  -6.1333850e+00  -2.6147588e+01  -1.4849248e+01  -3.8737168e+00  -1.2589580e+01  -2.4533540e+01   3.8737168e+00  -9.0386726e+00   3.2280973e-01  -1.4203628e+01  -1.4849248e+01   6.4561947e-01   9.6842920e-01  -1.1298341e+01  -2.2596681e+00   0.0000000e+00   0.0000000e+00   0.0000000e+00   0.0000000e+00
  -1.5172058e+01  -1.6786106e+01  -1.0329912e+01   9.0386726e+00  -1.1298341e+01  -8.3930531e+00  -2.6147588e+01  -1.4849248e+01  -5.4877655e+00  -1.2912389e+01  -2.5824779e+01   2.2596681e+00  -9.0386726e+00  -1.2912389e+00  -1.5172058e+01  -1.5817677e+01  -1.2912389e+00   3.2280973e-01  -1.1943960e+01  -2.2596681e+00   0.0000000e+00   0.0000000e+00   0.0000000e+00   0.0000000e+00
  -1.7108916e+01  -1.9045774e+01  -7.7474336e+00   4.8421460e+00  -1.1943960e+01  -1.3235199e+01  -2.7438827e+01  -1.6463296e+01  -8.3930531e+00  -1.3880819e+01  -2.7438827e+01  -6.4561947e-01  -8.7158628e+00  -6.1333850e+00  -1.6786106e+01  -1.8400155e+01  -5.8105752e+00  -2.2596681e+00  -1.5172058e+01  -3.8737168e+00   0.0000000e+00   0.0000000e+00   0.0000000e+00   0.0000000e+00
  -1.9691394e+01  -2.0982633e+01  -5.8105752e+00   9.6842920e-01  -1.2912389e+01  -1.8400155e+01  -2.8407257e+01  -1.9045774e+01  -1.1943960e+01  -1.5817677e+01  -2.9698496e+01  -3.8737168e+00  -9.6842920e+00  -1.2266770e+01  -1.9045774e+01  -2.1305442e+01  -1.0975531e+01  -5.4877655e+00  -1.8722965e+01  -6.7790044e+00   0.0000000e+00   0.0000000e+00   0.0000000e+00   0.0000000e+00
  -2.1951062e+01  -2.0982633e+01  -4.8421460e+00  -6.4561947e-01  -1.4203628e+01  -2.0982633e+01  -2.8730066e+01  -2.1305442e+01  -1.5172058e+01  -1.8400155e+01  -3.2280973e+01  -6.1333850e+00  -1.1621150e+01  -1.6463296e+01  -2.0982633e+01  -2.3242301e+01  -1.3880819e+01  -8.7158628e+00  -2.0659823e+01  -8.7158628e+00   0.0000000e+00   0.0000000e+00   0.0000000e+00   0.0000000e+00
  -2.2273872e+01  -1.8722965e+01  -4.5193363e+00   6.4561947e-01  -1.4203628e+01  -1.9368584e+01  -2.7116018e+01  -2.1951062e+01  -1.6463296e+01  -2.0337013e+01  -3.3572212e+01  -6.4561947e+00  -1.4203628e+01  -1.6786106e+01  -2.1951062e+01  -2.3242301e+01  -1.3880819e+01  -1.0329912e+01  -2.0014204e+01  -9.0386726e+00   0.0000000e+00   0.0000000e+00   0.0000000e+00   0.0000000e+00
  -2.1628252e+01  -1.6463296e+01  -5.1649558e+00   2.9052876e+00  -1.4526438e+01  -1.6786106e+01  -2.5501969e+01  -2.1951062e+01  -1.7108916e+01  -2.1951062e+01  -3.4863451e+01  -6.4561947e+00  -1.6786106e+01  -1.5172058e+01  -2.2596681e+01  -2.2919491e+01  -1.2266770e+01  -1.1943960e+01  -1.8400155e+01  -9.0386726e+00   0.0000000e+00   0.0000000e+00   0.0000000e+00   0.0000000e+00
  -2.0659823e+01  -1.5172058e+01  -5.1649558e+00   4.5193363e+00  -1.4526438e+01  -1.5172058e+01  -2.3565111e+01  -2.0982633e+01  -1.7108916e+01  -2.2919491e+01  -3.4540642e+01  -5.8105752e+00  -1.7754535e+01  -1.3558009e+01  -2.2596681e+01  -2.2596681e+01  -1.1298341e+01  -1.2912389e+01  -1.7108916e+01  -8.7158628e+00   0.0000000e+00   0.0000000e+00   0.0000000e+00   0.0000000e+00
  -2.0659823e+01  -1.5494867e+01  -4.8421460e+00   3.5509071e+00  -1.5172058e+01  -1.6463296e+01  -2.2919491e+01  -2.0337013e+01  -1.7754535e+01  -2.3565111e+01  -3.4217832e+01  -5.4877655e+00  -1.7431726e+01  -1.4849248e+01  -2.3565111e+01  -2.4210730e+01  -1.2912389e+01  -1.4849248e+01  -1.7754535e+01  -1.0007102e+01   0.0000000e+00   0.0000000e+00   0.0000000e+00   0.0000000e+00
  -2.1628252e+01  -1.6786106e+01  -3.2280973e+00   9.6842920e-01  -1.6463296e+01  -1.9691394e+01  -2.2919491e+01  -2.0337013e+01  -1.9368584e+01  -2.4210730e+01  -3.3572212e+01  -5.1649558e+00  -1.6786106e+01  -1.8400155e+01  -2.4856350e+01  -2.6793208e+01  -1.6463296e+01  -1.7108916e+01  -2.0337013e+01  -1.2589580e+01   0.0000000e+00   0.0000000e+00   0.0000000e+00   0.0000000e+00
  -2.2919491e+01  -1.7431726e+01  -1.6140487e+00  -1.2912389e+00  -1.8400155e+01  -2.1951062e+01  -2.2273872e+01  -1.9691394e+01  -2.0982633e+01  -2.4856350e+01  -3.3249403e+01  -4.5193363e+00  -1.5817677e+01  -2.2273872e+01  -2.6147588e+01  -2.9052876e+01  -2.0014204e+01  -1.8722965e+01  -2.2919491e+01  -1.4849248e+01   0.0000000e+00   0.0000000e+00   0.0000000e+00   0.0000000e+00
  -2.3565111e+01  -1.6463296e+01   0.0000000e+00  -1.9368584e+00  -1.9691394e+01  -2.1305442e+01  -2.0659823e+01  -1.8722965e+01  -2.1628252e+01  -2.5501969e+01  -3.3249403e+01  -3.8737168e+00  -1.6463296e+01  -2.3565111e+01  -2.6793208e+01  -3.0021305e+01  -2.0982633e+01  -1.9045774e+01  -2.3887920e+01  -1.6140487e+01   0.0000000e+00   0.0000000e+00   0.0000000e+00   0.0000000e+00
  -2.2919491e+01  -1.4526438e+01   0.0000000e+00  -3.2280973e-01  -2.0982633e+01  -1.7754535e+01  -1.8077345e+01  -1.7108916e+01  -2.1951062e+01  -2.6470398e+01  -3.3249403e+01  -2.9052876e+00  -1.8077345e+01  -2.1628252e+01  -2.7116018e+01  -2.9698496e+01  -1.8722965e+01  -1.8400155e+01  -2.2919491e+01  -1.6463296e+01   0.0000000e+00   0.0000000e+00   0.0000000e+00   0.0000000e+00
  -2.0659823e+01  -1.2266770e+01   0.0000000e+00   2.5824779e+00  -2.0982633e+01  -1.2589580e+01  -1.5172058e+01  -1.4526438e+01  -2.0659823e+01  -2.6793208e+01  -3.2603783e+01  -1.9368584e+00  -1.9368584e+01  -1.7431726e+01  -2.6793208e+01  -2.8084447e+01  -1.4849248e+01  -1.6140487e+01  -2.0659823e+01  -1.6140487e+01   0.0000000e+00   0.0000000e+00   0.0000000e+00   0.0000000e+00
  -1.8400155e+01  -1.0975531e+01   0.0000000e+00   4.5193363e+00  -2.0337013e+01  -8.7158628e+00  -1.2912389e+01  -1.2266770e+01  -1.8722965e+01  -2.6147588e+01  -3.1635354e+01  -1.6140487e+00  -1.9691394e+01  -1.3558009e+01  -2.6147588e+01  -2.6793208e+01  -1.0975531e+01  -1.3880819e+01  -1.8400155e+01  -1.5817677e+01   0.0000000e+00   0.0000000e+00   0.0000000e+00   0.0000000e+00
  -1.7108916e+01  -1.1621150e+01   6.4561947e-01   4.5193363e+00  -2.0014204e+01  -8.3930531e+00  -1.1943960e+01  -1.0975531e+01  -1.7431726e+01  -2.5179159e+01  -3.0666925e+01  -1.9368584e+00  -1.8722965e+01  -1.2589580e+01  -2.5824779e+01  -2.6793208e+01  -1.0329912e+01  -1.2266770e+01  -1.8077345e+01  -1.6786106e+01   0.0000000e+00   0.0000000e+00   0.0000000e+00   0.0000000e+00
  -1.7431726e+01  -1.3558009e+01   1.6140487e+00   1.9368584e+00  -2.0014204e+01  -1.1298341e+01  -1.2589580e+01  -1.1621150e+01  -1.7108916e+01  -2.4533540e+01  -3.0989735e+01  -2.9052876e+00  -1.7108916e+01  -1.5494867e+01  -2.6793208e+01  -2.8084447e+01  -1.2266770e+01  -1.1621150e+01  -1.9691394e+01  -1.9045774e+01   0.0000000e+00   0.0000000e+00   0.0000000e+00   0.0000000e+00
  -1.9691394e+01  -1.6140487e+01   1.9368584e+00  -2.2596681e+00  -2.1305442e+01  -1.5494867e+01  -1.4526438e+01  -1.3880819e+01  -1.8400155e+01  -2.5179159e+01  -3.2603783e+01  -4.8421460e+00  -1.7108916e+01  -2.0337013e+01  -2.9052876e+01  -3.0344115e+01  -1.5817677e+01  -1.2589580e+01  -2.2273872e+01  -2.2919491e+01   0.0000000e+00   0.0000000e+00   0.0000000e+00   0.0000000e+00
  -2.2596681e+01  -1.8400155e+01   1.2912389e+00  -5.8105752e+00  -2.3565111e+01  -1.8077345e+01  -1.6463296e+01  -1.6786106e+01  -2.0982633e+01  -2.7438827e+01  -3.5831881e+01  -7.1018142e+00  -1.9368584e+01  -2.4533540e+01  -3.1958164e+01  -3.2603783e+01  -1.8722965e+01  -1.3880819e+01  -2.4533540e+01  -2.7116018e+01   0.0000000e+00   0.0000000e+00   0.0000000e+00   0.0000000e+00
  -2.4533540e+01  -1.8722965e+01  -3.2280973e-01  -6.7790044e+00  -2.4856350e+01  -1.7431726e+01  -1.7754535e+01  -1.8400155e+01  -2.2919491e+01  -3.0021305e+01  -3.8737168e+01  -8.0702434e+00  -2.2919491e+01  -2.5824779e+01  -3.4540642e+01  -3.2926593e+01  -1.8400155e+01  -1.4526438e+01  -2.5179159e+01  -3.0021305e+01   0.0000000e+00   0.0000000e+00   0.0000000e+00   0.0000000e+00
  -2.5501969e+01  -1.9045774e+01  -2.9052876e+00  -6.1333850e+00  -2.5824779e+01  -1.5817677e+01  -1.8400155e+01  -1.9691394e+01  -2.4533540e+01  -3.2926593e+01  -4.1319646e+01  -9.0386726e+00  -2.7116018e+01  -2.5501969e+01  -3.6800310e+01  -3.2926593e+01  -1.7108916e+01  -1.5172058e+01  -2.5501969e+01  -3.2280973e+01   0.0000000e+00   0.0000000e+00   0.0000000e+00   0.0000000e+00
  -2.5824779e+01  -2.0337013e+01  -5.1649558e+00  -5.1649558e+00  -2.6470398e+01  -1.5494867e+01  -1.8722965e+01  -2.0982633e+01  -2.5824779e+01  -3.5509071e+01  -4.3256504e+01  -9.6842920e+00  -3.0344115e+01  -2.5824779e+01  -3.9059978e+01  -3.3572212e+01  -1.6786106e+01  -1.6140487e+01  -2.8084447e+01  -3.3249403e+01   0.0000000e+00   0.0000000e+00   0.0000000e+00   0.0000000e+00
  -2.6793208e+01  -2.2596681e+01  -6.1333850e+00  -5.1649558e+00  -2.7438827e+01  -1.8400155e+01  -2.0014204e+01  -2.2919491e+01  -2.7438827e+01  -3.7123119e+01  -4.3902124e+01  -1.0652721e+01  -3.1312544e+01  -2.8730066e+01  -4.1642456e+01  -3.5186261e+01  -1.9045774e+01  -1.7754535e+01  -3.3895022e+01  -3.4540642e+01   0.0000000e+00   0.0000000e+00   0.0000000e+00   0.0000000e+00
  -2.9052876e+01  -2.6470398e+01  -6.7790044e+00  -7.1018142e+00  -2.9375686e+01  -2.4210730e+01  -2.2273872e+01  -2.5824779e+01  -3.0021305e+01  -3.9059978e+01  -4.5516173e+01  -1.2589580e+01  -3.1635354e+01  -3.4863451e+01  -4.4870553e+01  -3.9059978e+01  -2.4210730e+01  -2.1305442e+01  -4.2610885e+01  -3.6154690e+01   0.0000000e+00   0.0000000e+00   0.0000000e+00   0.0000000e+00
  -3.1635354e+01  -2.9698496e+01  -6.1333850e+00  -9.0386726e+00  -3.0989735e+01  -3.0021305e+01  -2.4210730e+01  -2.8407257e+01  -3.2280973e+01  -4.0351217e+01  -4.6484602e+01  -1.3880819e+01  -3.1635354e+01  -4.1319646e+01  -4.7453031e+01  -4.2933695e+01  -2.9375686e+01  -2.4856350e+01  -5.1003938e+01  -3.7768739e+01   0.0000000e+00   0.0000000e+00   0.0000000e+00   0.0000000e+00
  -3.4217832e+01  -3.1312544e+01  -6.1333850e+00  -1.0007102e+01  -3.2280973e+01  -3.3249403e+01  -2.5824779e+01  -3.0021305e+01  -3.4217832e+01  -4.1965265e+01  -4.8098650e+01  -1.4526438e+01  -3.2280973e+01  -4.5193363e+01  -4.9712699e+01  -4.5838982e+01  -3.2603783e+01  -2.7761637e+01  -5.6814513e+01  -3.9382788e+01   0.0000000e+00   0.0000000e+00   0.0000000e+00   0.0000000e+00
  -3.5186261e+01  -3.0989735e+01  -6.7790044e+00  -8.7158628e+00  -3.2280973e+01  -3.1958164e+01  -2.5179159e+01  -2.9052876e+01  -3.4540642e+01  -4.2610885e+01  -4.8421460e+01  -1.3558009e+01  -3.3572212e+01  -4.4547743e+01  -5.0035509e+01  -4.6161792e+01  -3.1958164e+01  -2.9052876e+01  -5.7137323e+01  -4.0028407e+01   0.0000000e+00   0.0000000e+00   0.0000000e+00   0.0000000e+00
  -3.3895022e+01  -2.9052876e+01  -7.7474336e+00  -5.8105752e+00  -3.0989735e+01  -2.8084447e+01  -2.3242301e+01  -2.7116018e+01  -3.3572212e+01  -4.1965265e+01  -4.7453031e+01  -1.1621150e+01  -3.3895022e+01  -4.0674027e+01  -4.8744270e+01  -4.4547743e+01  -2.8407257e+01  -2.8730066e+01  -5.3263606e+01  -4.0351217e+01   0.0000000e+00   0.0000000e+00   0.0000000e+00   0.0000000e+00
  -3.2603783e+01  -2.7761637e+01  -9.3614823e+00  -4.1965265e+00  -3.0344115e+01  -2.5501969e+01  -2.2273872e+01  -2.6147588e+01  -3.1958164e+01  -4.1319646e+01  -4.5838982e+01  -1.0652721e+01  -3.4217832e+01  -3.6477500e+01  -4.7453031e+01  -4.3256504e+01  -2.5824779e+01  -2.8407257e+01  -4.9067080e+01  -4.1319646e+01   0.0000000e+00   0.0000000e+00   0.0000000e+00   0.0000000e+00
  -3.2280973e+01  -2.8407257e+01  -1.0329912e+01  -5.1649558e+00  -3.0021305e+01  -2.6147588e+01  -2.2596681e+01  -2.6793208e+01  -3.1312544e+01  -4.0028407e+01  -4.3902124e+01  -1.0652721e+01  -3.3249403e+01  -3.5186261e+01  -4.6807411e+01  -4.3256504e+01  -2.5824779e+01  -2.8730066e+01  -4.6484602e+01  -4.3256504e+01   0.0000000e+00   0.0000000e+00   0.0000000e+00   0.0000000e+00
  -3.3895022e+01  -3.0344115e+01  -1.0652721e+01  -9.6842920e+00  -3.0989735e+01  -3.0989735e+01  -2.4533540e+01  -2.9375686e+01  -3.1635354e+01  -3.9059978e+01  -4.2288075e+01  -1.1943960e+01  -3.2603783e+01  -3.7445929e+01  -4.7453031e+01  -4.6161792e+01  -2.9052876e+01  -3.0344115e+01  -4.7453031e+01  -4.6161792e+01   0.0000000e+00   0.0000000e+00   0.0000000e+00   0.0000000e+00
  -3.5509071e+01  -3.1635354e+01  -9.6842920e+00  -1.4849248e+01  -3.1958164e+01  -3.5831881e+01  -2.6470398e+01  -3.1312544e+01  -3.1958164e+01  -3.7768739e+01  -4.0674027e+01  -1.2912389e+01  -3.1635354e+01  -3.9705597e+01  -4.8098650e+01  -4.8421460e+01  -3.2280973e+01  -3.0989735e+01  -4.9389889e+01  -4.7130221e+01   0.0000000e+00   0.0000000e+00   0.0000000e+00   0.0000000e+00
  -3.6800310e+01  -3.1312544e+01  -8.7158628e+00  -1.9045774e+01  -3.2603783e+01  -3.8414358e+01  -2.7116018e+01  -3.1635354e+01  -3.1958164e+01  -3.6800310e+01  -3.9059978e+01  -1.3558009e+01  -3.1635354e+01  -3.9705597e+01  -4.8098650e+01  -4.9712699e+01  -3.3895022e+01  -3.0989735e+01  -5.0358319e+01  -4.5516173e+01   0.0000000e+00   0.0000000e+00   0.0000000e+00   0.0000000e+00
  -3.6154690e+01  -2.8084447e+01  -8.3930531e+00  -2.0014204e+01  -3.1958164e+01  -3.6154690e+01  -2.5179159e+01  -2.8730066e+01  -3.0021305e+01  -3.5186261e+01  -3.7123119e+01  -1.2266770e+01  -3.1635354e+01  -3.5509071e+01  -4.6161792e+01  -4.7453031e+01  -3.0989735e+01  -2.8084447e+01  -4.8421460e+01  -4.0674027e+01   0.0000000e+00   0.0000000e+00   0.0000000e+00   0.0000000e+00
  -3.3249403e+01  -2.3565111e+01  -9.0386726e+00  -1.8400155e+01  -3.0021305e+01  -3.0666925e+01  -2.1951062e+01  -2.4210730e+01  -2.7116018e+01  -3.2926593e+01  -3.4217832e+01  -1.0007102e+01  -3.1312544e+01  -2.7761637e+01  -4.3256504e+01  -4.2288075e+01  -2.5824779e+01  -2.3242301e+01  -4.4224934e+01  -3.3895022e+01   0.0000000e+00   0.0000000e+00   0.0000000e+00   0.0000000e+00
  -3.0666925e+01  -1.9691394e+01  -1.0007102e+01  -1.6786106e+01  -2.8730066e+01  -2.6470398e+01  -1.9691394e+01  -2.0659823e+01  -2.4210730e+01  -3.0666925e+01  -3.1635354e+01  -8.3930531e+00  -3.0666925e+01  -2.0659823e+01  -4.0351217e+01  -3.7445929e+01  -2.0982633e+01  -1.8722965e+01  -4.0028407e+01  -2.8084447e+01   0.0000000e+00   0.0000000e+00   0.0000000e+00   0.0000000e+00
  -2.8407257e+01  -1.7431726e+01  -1.0329912e+01  -1.5494867e+01  -2.7438827e+01  -2.5179159e+01  -1.8400155e+01  -1.8400155e+01  -2.1951062e+01  -2.8084447e+01  -2.9052876e+01  -6.7790044e+00  -2.8730066e+01  -1.6140487e+01  -3.8091549e+01  -3.3572212e+01  -1.8722965e+01  -1.4526438e+01  -3.6800310e+01  -2.4210730e+01   0.0000000e+00   0.0000000e+00   0.0000000e+00   0.0000000e+00
  -2.7761637e+01  -1.7431726e+01  -1.0329912e+01  -1.5817677e+01  -2.7116018e+01  -2.7438827e+01  -1.9045774e+01  -1.8400155e+01  -2.1305442e+01  -2.6147588e+01  -2.7761637e+01  -6.4561947e+00  -2.6793208e+01  -1.6463296e+01  -3.6800310e+01  -3.2280973e+01  -2.0014204e+01  -1.2266770e+01  -3.5831881e+01  -2.3242301e+01   0.0000000e+00   0.0000000e+00   0.0000000e+00   0.0000000e+00
  -2.8407257e+01  -1.8400155e+01  -9.3614823e+00  -1.6463296e+01  -2.7116018e+01  -3.0666925e+01  -2.0659823e+01  -1.9045774e+01  -2.0982633e+01  -2.4856350e+01  -2.6793208e+01  -6.1333850e+00  -2.4856350e+01  -1.8400155e+01  -3.5831881e+01  -3.2280973e+01  -2.2596681e+01  -1.0975531e+01  -3.5509071e+01  -2.3565111e+01   0.0000000e+00   0.0000000e+00   0.0000000e+00   0.0000000e+00
  -2.8730066e+01  -1.8077345e+01  -8.3930531e+00  -1.5494867e+01  -2.6793208e+01  -3.1312544e+01  -2.0982633e+01  -1.8722965e+01  -2.0337013e+01  -2.3887920e+01  -2.6147588e+01  -5.4877655e+00  -2.3242301e+01  -1.9368584e+01  -3.4540642e+01  -3.0989735e+01  -2.3565111e+01  -9.3614823e+00  -3.3895022e+01  -2.3565111e+01   0.0000000e+00   0.0000000e+00   0.0000000e+00   0.0000000e+00
  -2.8730066e+01  -1.7108916e+01  -9.0386726e+00  -1.3235199e+01  -2.6470398e+01  -2.8407257e+01  -2.0659823e+01  -1.7431726e+01  -1.9368584e+01  -2.4210730e+01  -2.6147588e+01  -4.1965265e+00  -2.3565111e+01  -1.7754535e+01  -3.3249403e+01  -2.8407257e+01  -2.1628252e+01  -7.7474336e+00  -3.1312544e+01  -2.2919491e+01   0.0000000e+00   0.0000000e+00   0.0000000e+00   0.0000000e+00
  -2.7761637e+01  -1.5172058e+01  -1.0652721e+01  -9.3614823e+00  -2.6147588e+01  -2.3242301e+01  -1.9368584e+01  -1.5172058e+01  -1.8077345e+01  -2.4533540e+01  -2.5824779e+01  -2.5824779e+00  -2.4533540e+01  -1.3558009e+01  -3.1635354e+01  -2.4856350e+01  -1.7431726e+01  -5.8105752e+00  -2.8084447e+01  -2.1628252e+01   0.0000000e+00   0.0000000e+00   0.0000000e+00   0.0000000e+00
  -2.7438827e+01  -1.4849248e+01  -1.2912389e+01  -7.1018142e+00  -2.6470398e+01  -1.9368584e+01  -1.9045774e+01  -1.4526438e+01  -1.7754535e+01  -2.5824779e+01  -2.6147588e+01  -1.2912389e+00  -2.5179159e+01  -1.0329912e+01  -3.0666925e+01  -2.1951062e+01  -1.4203628e+01  -5.1649558e+00  -2.6793208e+01  -2.1305442e+01   0.0000000e+00   0.0000000e+00   0.0000000e+00   0.0000000e+00
  -2.8407257e+01  -1.7108916e+01  -1.5494867e+01  -7.7474336e+00  -2.7761637e+01  -1.9368584e+01  -2.0337013e+01  -1.6140487e+01  -1.8722965e+01  -2.7438827e+01  -2.7116018e+01  -1.2912389e+00  -2.5501969e+01  -1.0975531e+01  -3.0989735e+01  -2.2273872e+01  -1.4526438e+01  -6.4561947e+00  -2.9052876e+01  -2.3242301e+01   0.0000000e+00   0.0000000e+00   0.0000000e+00   0.0000000e+00
  -3.0989735e+01  -2.1305442e+01  -1.7108916e+01  -1.0652721e+01  -2.9698496e+01  -2.3565111e+01  -2.3242301e+01  -2.0014204e+01  -2.1305442e+01  -3.0021305e+01  -2.9052876e+01  -1.6140487e+00  -2.5179159e+01  -1.5817677e+01  -3.2926593e+01  -2.5179159e+01  -1.8077345e+01  -1.0329912e+01  -3.4540642e+01  -2.7761637e+01   0.0000000e+00   0.0000000e+00   0.0000000e+00   0.0000000e+00
  -3.3249403e+01  -2.5179159e+01  -1.7108916e+01  -1.3558009e+01  -3.1635354e+01  -2.8407257e+01  -2.6147588e+01  -2.3887920e+01  -2.3565111e+01  -3.1635354e+01  -3.0989735e+01  -1.6140487e+00  -2.4210730e+01  -2.1628252e+01  -3.4863451e+01  -2.8730066e+01  -2.2273872e+01  -1.4526438e+01  -4.0028407e+01  -3.2280973e+01   0.0000000e+00   0.0000000e+00   0.0000000e+00   0.0000000e+00
  -3.4863451e+01  -2.8084447e+01  -1.6786106e+01  -1.4526438e+01  -3.2603783e+01  -3.0989735e+01  -2.7761637e+01  -2.7116018e+01  -2.5501969e+01  -3.2280973e+01  -3.2603783e+01  -9.6842920e-01  -2.4210730e+01  -2.6147588e+01  -3.6154690e+01  -3.1312544e+01  -2.4533540e+01  -1.7754535e+01  -4.3579314e+01  -3.6154690e+01   0.0000000e+00   0.0000000e+00   0.0000000e+00   0.0000000e+00
  -3.4217832e+01  -2.8407257e+01  -1.6786106e+01  -1.2589580e+01  -3.2603783e+01  -2.9698496e+01  -2.7761637e+01  -2.7761637e+01  -2.5501969e+01  -3.2280973e+01  -3.3895022e+01   6.4561947e-01  -2.4533540e+01  -2.6793208e+01  -3.6477500e+01  -3.1635354e+01  -2.2919491e+01  -1.9368584e+01  -4.3579314e+01  -3.7123119e+01   0.0000000e+00   0.0000000e+00   0.0000000e+00   0.0000000e+00
  -3.1958164e+01  -2.7116018e+01  -1.7431726e+01  -8.3930531e+00  -3.1958164e+01  -2.5824779e+01  -2.6147588e+01  -2.6793208e+01  -2.4533540e+01  -3.0989735e+01  -3.4863451e+01   2.2596681e+00  -2.5179159e+01  -2.3887920e+01  -3.5831881e+01  -2.9698496e+01  -1.8722965e+01  -1.9045774e+01  -4.0351217e+01  -3.6154690e+01   0.0000000e+00   0.0000000e+00   0.0000000e+00   0.0000000e+00
  -2.9375686e+01  -2.6147588e+01  -1.8077345e+01  -4.1965265e+00  -3.1312544e+01  -2.1951062e+01  -2.4533540e+01  -2.5501969e+01  -2.3242301e+01  -2.9375686e+01  -3.4863451e+01   3.5509071e+00  -2.5501969e+01  -2.0659823e+01  -3.4540642e+01  -2.7438827e+01  -1.4203628e+01  -1.8400155e+01  -3.6800310e+01  -3.4217832e+01   0.0000000e+00   0.0000000e+00   0.0000000e+00   0.0000000e+00
  -2.8084447e+01  -2.6793208e+01  -1.8077345e+01  -1.6140487e+00  -3.0989735e+01  -2.1628252e+01  -2.3887920e+01  -2.5179159e+01  -2.1951062e+01  -2.7761637e+01  -3.4863451e+01   3.5509071e+00  -2.4210730e+01  -1.9368584e+01  -3.3572212e+01  -2.6470398e+01  -1.2589580e+01  -1.8400155e+01  -3.5509071e+01  -3.2926593e+01   0.0000000e+00   0.0000000e+00   0.0000000e+00   0.0000000e+00
  -2.7761637e+01  -2.8407257e+01  -1.7431726e+01  -1.6140487e+00  -3.1312544e+01  -2.3887920e+01  -2.4210730e+01  -2.5824779e+01  -2.1305442e+01  -2.6147588e+01  -3.4540642e+01   3.5509071e+00  -2.1628252e+01  -2.1305442e+01  -3.2926593e+01  -2.7116018e+01  -1.3880819e+01  -1.9045774e+01  -3.6477500e+01  -3.2280973e+01   0.0000000e+00   0.0000000e+00   0.0000000e+00   0.0000000e+00
  -2.8407257e+01  -3.0989735e+01  -1.6463296e+01  -3.5509071e+00  -3.1635354e+01  -2.7761637e+01  -2.5824779e+01  -2.7761637e+01  -2.1628252e+01  -2.5501969e+01  -3.4540642e+01   2.9052876e+00  -1.9368584e+01  -2.5179159e+01  -3.2603783e+01  -2.8730066e+01  -1.7108916e+01  -2.0337013e+01  -3.8737168e+01  -3.2603783e+01   0.0000000e+00   0.0000000e+00   0.0000000e+00   0.0000000e+00
  -2.8730066e+01  -3.1635354e+01  -1.5494867e+01  -4.5193363e+00  -3.1312544e+01  -2.9375686e+01  -2.6470398e+01  -2.8407257e+01  -2.0982633e+01  -2.4533540e+01  -3.4217832e+01   3.8737168e+00  -1.7431726e+01  -2.7116018e+01  -3.2280973e+01  -2.9698496e+01  -1.8722965e+01  -2.0659823e+01  -4.0028407e+01  -3.1635354e+01   0.0000000e+00   0.0000000e+00   0.0000000e+00   0.0000000e+00
  -2.8084447e+01  -3.0344115e+01  -1.5494867e+01  -3.8737168e+00  -3.0344115e+01  -2.6793208e+01  -2.5824779e+01  -2.7761637e+01  -1.9691394e+01  -2.3887920e+01  -3.3572212e+01   5.4877655e+00  -1.7108916e+01  -2.5501969e+01  -3.0989735e+01  -2.9052876e+01  -1.7108916e+01  -1.9045774e+01  -3.8414358e+01  -2.9052876e+01   0.0000000e+00   0.0000000e+00   0.0000000e+00   0.0000000e+00
  -2.6147588e+01  -2.7438827e+01  -1.6463296e+01  -9.6842920e-01  -2.8730066e+01  -2.1305442e+01  -2.4210730e+01  -2.5824779e+01  -1.7754535e+01  -2.3565111e+01  -3.2926593e+01   8.0702434e+00  -1.7431726e+01  -2.0337013e+01  -2.9375686e+01  -2.6793208e+01  -1.2912389e+01  -1.6463296e+01  -3.4540642e+01  -2.5824779e+01   0.0000000e+00   0.0000000e+00   0.0000000e+00   0.0000000e+00
  -2.4210730e+01  -2.4533540e+01  -1.8077345e+01   1.6140487e+00  -2.7116018e+01  -1.6140487e+01  -2.2273872e+01  -2.3565111e+01  -1.5817677e+01  -2.2919491e+01  -3.1958164e+01   1.0329912e+01  -1.7754535e+01  -1.4526438e+01  -2.7438827e+01  -2.4533540e+01  -8.7158628e+00  -1.3235199e+01  -3.0666925e+01  -2.2919491e+01   0.0000000e+00   0.0000000e+00   0.0000000e+00   0.0000000e+00
  -2.3242301e+01  -2.3242301e+01  -1.9368584e+01   2.5824779e+00  -2.6470398e+01  -1.4526438e+01  -2.1951062e+01  -2.2919491e+01  -1.4849248e+01  -2.2596681e+01  -3.1312544e+01   1.1621150e+01  -1.7431726e+01  -1.1621150e+01  -2.6793208e+01  -2.3887920e+01  -7.4246239e+00  -1.1298341e+01  -2.9052876e+01  -2.2273872e+01   0.0000000e+00   0.0000000e+00   0.0000000e+00   0.0000000e+00
  -2.3565111e+01  -2.3887920e+01  -1.9691394e+01   6.4561947e-01  -2.6470398e+01  -1.6786106e+01  -2.2596681e+01  -2.4210730e+01  -1.4849248e+01  -2.2596681e+01  -3.0989735e+01   1.1943960e+01  -1.5817677e+01  -1.2266770e+01  -2.6793208e+01  -2.5179159e+01  -9.0386726e+00  -1.0975531e+01  -3.0344115e+01  -2.3565111e+01   0.0000000e+00   0.0000000e+00   0.0000000e+00   0.0000000e+00
  -2.5179159e+01  -2.5179159e+01  -1.9691394e+01  -2.9052876e+00  -2.6793208e+01  -2.1305442e+01  -2.4210730e+01  -2.6147588e+01  -1.6140487e+01  -2.3242301e+01  -3.1312544e+01   1.1298341e+01  -1.4849248e+01  -1.5817677e+01  -2.7761637e+01  -2.7438827e+01  -1.2589580e+01  -1.1943960e+01  -3.3895022e+01  -2.6470398e+01   0.0000000e+00   0.0000000e+00   0.0000000e+00   0.0000000e+00
  -2.6793208e+01  -2.6147588e+01  -1.9691394e+01  -5.4877655e+00  -2.6793208e+01  -2.4210730e+01  -2.5179159e+01  -2.7761637e+01  -1.7108916e+01  -2.3887920e+01  -3.2280973e+01   1.0975531e+01  -1.4203628e+01  -1.8722965e+01  -2.8730066e+01  -2.9698496e+01  -1.5172058e+01  -1.2912389e+01  -3.6477500e+01  -2.8730066e+01   0.0000000e+00   0.0000000e+00   0.0000000e+00   0.0000000e+00
  -2.7116018e+01  -2.5501969e+01  -2.0014204e+01  -5.4877655e+00  -2.6147588e+01  -2.3887920e+01  -2.5179159e+01  -2.7761637e+01  -1.8077345e+01  -2.4533540e+01  -3.3895022e+01   1.0975531e+01  -1.4849248e+01  -1.8722965e+01  -2.9375686e+01  -3.0344115e+01  -1.4849248e+01  -1.3558009e+01  -3.7445929e+01  -2.9052876e+01   0.0000000e+00   0.0000000e+00   0.0000000e+00   0.0000000e+00
  -2.6147588e+01  -2.3242301e+01  -2.0982633e+01  -2.9052876e+00  -2.4533540e+01  -2.0337013e+01  -2.3887920e+01  -2.6147588e+01  -1.7754535e+01  -2.4533540e+01  -3.5186261e+01   1.1298341e+01  -1.5817677e+01  -1.5172058e+01  -2.9052876e+01  -2.9052876e+01  -1.1298341e+01  -1.2589580e+01  -3.5831881e+01  -2.7438827e+01   0.0000000e+00   0.0000000e+00   0.0000000e+00   0.0000000e+00
  -2.4533540e+01  -2.1628252e+01  -2.0982633e+01   6.4561947e-01  -2.2596681e+01  -1.6463296e+01  -2.2273872e+01  -2.3887920e+01  -1.7431726e+01  -2.4210730e+01  -3.5831881e+01   1.1943960e+01  -1.6140487e+01  -1.0975531e+01  -2.8407257e+01  -2.7438827e+01  -7.1018142e+00  -1.1943960e+01  -3.3572212e+01  -2.5501969e+01   0.0000000e+00   0.0000000e+00   0.0000000e+00   0.0000000e+00
  -2.4533540e+01  -2.2273872e+01  -2.1305442e+01   1.9368584e+00  -2.1951062e+01  -1.6140487e+01  -2.2596681e+01  -2.3887920e+01  -1.8722965e+01  -2.4533540e+01  -3.7445929e+01   1.0329912e+01  -1.5817677e+01  -9.6842920e+00  -2.9052876e+01  -2.8084447e+01  -6.1333850e+00  -1.3558009e+01  -3.3895022e+01  -2.5501969e+01   0.0000000e+00   0.0000000e+00   0.0000000e+00   0.0000000e+00
  -2.5501969e+01  -2.4856350e+01  -2.0337013e+01   3.2280973e-01  -2.1951062e+01  -1.9368584e+01  -2.4533540e+01  -2.5824779e+01  -2.0337013e+01  -2.4856350e+01  -3.8414358e+01   7.7474336e+00  -1.4849248e+01  -1.2266770e+01  -3.0666925e+01  -3.0666925e+01  -8.7158628e+00  -1.6463296e+01  -3.6477500e+01  -2.7761637e+01   0.0000000e+00   0.0000000e+00   0.0000000e+00   0.0000000e+00
  -2.8407257e+01  -2.8407257e+01  -1.9368584e+01  -2.9052876e+00  -2.3242301e+01  -2.4533540e+01  -2.8084447e+01  -2.8730066e+01  -2.2919491e+01  -2.6147588e+01  -4.0028407e+01   4.5193363e+00  -1.4203628e+01  -1.7108916e+01  -3.3249403e+01  -3.5186261e+01  -1.3880819e+01  -2.0982633e+01  -4.0674027e+01  -3.1635354e+01   0.0000000e+00   0.0000000e+00   0.0000000e+00   0.0000000e+00
  -3.0666925e+01  -3.0666925e+01  -1.8077345e+01  -5.4877655e+00  -2.4533540e+01  -2.8084447e+01  -3.0989735e+01  -3.0666925e+01  -2.4856350e+01  -2.6793208e+01  -4.1319646e+01   2.5824779e+00  -1.4203628e+01  -2.0982633e+01  -3.5186261e+01  -3.8414358e+01  -1.7754535e+01  -2.4533540e+01  -4.3256504e+01  -3.4863451e+01   0.0000000e+00   0.0000000e+00   0.0000000e+00   0.0000000e+00
  -3.1958164e+01  -3.1312544e+01  -1.8400155e+01  -5.8105752e+00  -2.6147588e+01  -2.8084447e+01  -3.2280973e+01  -3.0989735e+01  -2.6147588e+01  -2.8407257e+01  -4.2288075e+01   1.2912389e+00  -1.5817677e+01  -2.1628252e+01  -3.6800310e+01  -3.9705597e+01  -1.9368584e+01  -2.7116018e+01  -4.3902124e+01  -3.6154690e+01   0.0000000e+00   0.0000000e+00   0.0000000e+00   0.0000000e+00
  -3.1312544e+01  -2.9375686e+01  -1.9045774e+01  -3.8737168e+00  -2.6147588e+01  -2.4533540e+01  -3.1635354e+01  -2.9375686e+01  -2.6147588e+01  -2.9698496e+01  -4.2933695e+01   1.6140487e+00  -1.7754535e+01  -1.8400155e+01  -3.7123119e+01  -3.8737168e+01  -1.7754535e+01  -2.7116018e+01  -4.1319646e+01  -3.5186261e+01   0.0000000e+00   0.0000000e+00   0.0000000e+00   0.0000000e+00
  -2.9698496e+01  -2.6793208e+01  -1.9691394e+01  -1.2912389e+00  -2.5824779e+01  -2.0659823e+01  -3.0344115e+01  -2.7438827e+01  -2.5179159e+01  -3.0344115e+01  -4.2610885e+01   2.5824779e+00  -1.9368584e+01  -1.3880819e+01  -3.6800310e+01  -3.6477500e+01  -1.4849248e+01  -2.5824779e+01  -3.8091549e+01  -3.3249403e+01   0.0000000e+00   0.0000000e+00   0.0000000e+00   0.0000000e+00
  -2.8407257e+01  -2.5179159e+01  -1.9691394e+01  -3.2280973e-01  -2.5179159e+01  -1.9045774e+01  -2.9698496e+01  -2.6147588e+01  -2.4856350e+01  -3.0666925e+01  -4.2610885e+01   2.9052876e+00  -2.0014204e+01  -1.1621150e+01  -3.6800310e+01  -3.5186261e+01  -1.3880819e+01  -2.5179159e+01  -3.6154690e+01  -3.2280973e+01   0.0000000e+00   0.0000000e+00   0.0000000e+00   0.0000000e+00
  -2.8407257e+01  -2.4856350e+01  -1.8722965e+01  -2.5824779e+00  -2.5179159e+01  -2.0982633e+01  -3.0021305e+01  -2.6470398e+01  -2.5179159e+01  -3.0666925e+01  -4.2610885e+01   2.5824779e+00  -2.0014204e+01  -1.2912389e+01  -3.7445929e+01  -3.5831881e+01  -1.6140487e+01  -2.5501969e+01  -3.7123119e+01  -3.2603783e+01   0.0000000e+00   0.0000000e+00   0.0000000e+00   0.0000000e+00
  -2.9698496e+01  -2.4856350e+01  -1.7108916e+01  -5.8105752e+00  -2.5824779e+01  -2.4533540e+01  -3.1312544e+01  -2.7761637e+01  -2.6147588e+01  -3.0666925e+01  -4.2610885e+01   1.2912389e+00  -1.9368584e+01  -1.6463296e+01  -3.8737168e+01  -3.7445929e+01  -1.9691394e+01  -2.6147588e+01  -3.9705597e+01  -3.3572212e+01   0.0000000e+00   0.0000000e+00   0.0000000e+00   0.0000000e+00
  -3.1312544e+01  -2.4856350e+01  -1.5494867e+01  -9.0386726e+00  -2.6793208e+01  -2.7116018e+01  -3.2280973e+01  -2.8407257e+01  -2.7116018e+01  -3.0989735e+01  -4.2610885e+01   3.2280973e-01  -1.9368584e+01  -1.9691394e+01  -3.9705597e+01  -3.9059978e+01  -2.2596681e+01  -2.6147588e+01  -4.1319646e+01  -3.3895022e+01   0.0000000e+00   0.0000000e+00   0.0000000e+00   0.0000000e+00
  -3.1635354e+01  -2.3565111e+01  -1.4849248e+01  -9.6842920e+00  -2.7116018e+01  -2.5824779e+01  -3.1312544e+01  -2.7438827e+01  -2.7116018e+01  -3.0989735e+01  -4.2288075e+01  -3.2280973e-01  -2.0659823e+01  -1.9691394e+01  -4.0028407e+01  -3.8414358e+01  -2.2596681e+01  -2.4856350e+01  -4.0674027e+01  -3.2603783e+01   0.0000000e+00   0.0000000e+00   0.0000000e+00   0.0000000e+00
  -3.0344115e+01  -2.1305442e+01  -1.4526438e+01  -8.0702434e+00  -2.6793208e+01  -2.1305442e+01  -2.8407257e+01  -2.4856350e+01  -2.5824779e+01  -3.0989735e+01  -4.0996836e+01   3.2280973e-01  -2.1951062e+01  -1.6140487e+01  -3.9059978e+01  -3.5509071e+01  -1.9368584e+01  -2.1628252e+01  -3.7445929e+01  -2.9052876e+01   0.0000000e+00   0.0000000e+00   0.0000000e+00   0.0000000e+00
  -2.7761637e+01  -1.9045774e+01  -1.4526438e+01  -5.4877655e+00  -2.5824779e+01  -1.6140487e+01  -2.4856350e+01  -2.1305442e+01  -2.3242301e+01  -3.0021305e+01  -3.8737168e+01   2.2596681e+00  -2.2596681e+01  -1.0975531e+01  -3.7445929e+01  -3.1312544e+01  -1.4849248e+01  -1.7754535e+01  -3.2926593e+01  -2.4856350e+01   0.0000000e+00   0.0000000e+00   0.0000000e+00   0.0000000e+00
  -2.5824779e+01  -1.9045774e+01  -1.4203628e+01  -4.1965265e+00  -2.4856350e+01  -1.3880819e+01  -2.2919491e+01  -1.9368584e+01  -2.1305442e+01  -2.8730066e+01  -3.6154690e+01   4.1965265e+00  -2.1951062e+01  -8.0702434e+00  -3.6154690e+01  -2.8084447e+01  -1.2266770e+01  -1.5172058e+01  -3.0021305e+01  -2.2273872e+01   0.0000000e+00   0.0000000e+00   0.0000000e+00   0.0000000e+00
  -2.5501969e+01  -2.0337013e+01  -1.3558009e+01  -4.8421460e+00  -2.4533540e+01  -1.5494867e+01  -2.2273872e+01  -1.9368584e+01  -2.0014204e+01  -2.6793208e+01  -3.3572212e+01   6.1333850e+00  -2.0337013e+01  -8.7158628e+00  -3.5186261e+01  -2.7116018e+01  -1.2912389e+01  -1.4203628e+01  -3.0021305e+01  -2.1628252e+01   0.0000000e+00   0.0000000e+00   0.0000000e+00   0.0000000e+00
  -2.6793208e+01  -2.3242301e+01  -1.2912389e+01  -7.4246239e+00  -2.5179159e+01  -1.9691394e+01  -2.3565111e+01  -2.0982633e+01  -1.9691394e+01  -2.5501969e+01  -3.1312544e+01   7.1018142e+00  -1.8400155e+01  -1.2266770e+01  -3.5186261e+01  -2.8084447e+01  -1.5817677e+01  -1.5172058e+01  -3.2280973e+01  -2.3565111e+01   0.0000000e+00   0.0000000e+00   0.0000000e+00   0.0000000e+00
  -2.8084447e+01  -2.5179159e+01  -1.1621150e+01  -9.0386726e+00  -2.5179159e+01  -2.2273872e+01  -2.4210730e+01  -2.2273872e+01  -1.9368584e+01  -2.3887920e+01  -2.9052876e+01   8.0702434e+00  -1.7108916e+01  -1.5494867e+01  -3.4217832e+01  -2.8730066e+01  -1.8077345e+01  -1.5494867e+01  -3.3895022e+01  -2.4856350e+01   0.0000000e+00   0.0000000e+00   0.0000000e+00   0.0000000e+00
  -2.8407257e+01  -2.5179159e+01  -1.0975531e+01  -9.0386726e+00  -2.5501969e+01  -2.2273872e+01  -2.3887920e+01  -2.2596681e+01  -1.9045774e+01  -2.3565111e+01  -2.7438827e+01   8.3930531e+00  -1.7108916e+01  -1.6786106e+01  -3.3249403e+01  -2.8084447e+01  -1.7754535e+01  -1.5494867e+01  -3.3895022e+01  -2.5501969e+01   0.0000000e+00   0.0000000e+00   0.0000000e+00   0.0000000e+00
  -2.7116018e+01  -2.3242301e+01  -1.0007102e+01  -6.4561947e+00  -2.4210730e+01  -1.8722965e+01  -2.1628252e+01  -2.0659823e+01  -1.7754535e+01  -2.2919491e+01  -2.5179159e+01   9.0386726e+00  -1.7754535e+01  -1.3880819e+01  -3.0666925e+01  -2.5501969e+01  -1.4526438e+01  -1.4203628e+01  -3.1635354e+01  -2.3887920e+01   0.0000000e+00   0.0000000e+00   0.0000000e+00   0.0000000e+00
  -2.4856350e+01  -2.0659823e+01  -9.6842920e+00  -3.2280973e+00  -2.2596681e+01  -1.4526438e+01  -1.8722965e+01  -1.8400155e+01  -1.6140487e+01  -2.1951062e+01  -2.2919491e+01   9.0386726e+00  -1.8077345e+01  -1.0329912e+01  -2.8084447e+01  -2.1951062e+01  -1.0007102e+01  -1.2912389e+01  -2.8407257e+01  -2.1305442e+01   0.0000000e+00   0.0000000e+00   0.0000000e+00   0.0000000e+00
  -2.2919491e+01  -1.9045774e+01  -9.3614823e+00  -1.6140487e+00  -2.1305442e+01  -1.2912389e+01  -1.7431726e+01  -1.7108916e+01  -1.4849248e+01  -2.1305442e+01  -2.1305442e+01   8.3930531e+00  -1.7431726e+01  -8.3930531e+00  -2.6147588e+01  -1.9691394e+01  -7.4246239e+00  -1.2589580e+01  -2.7116018e+01  -1.9368584e+01   0.0000000e+00   0.0000000e+00   0.0000000e+00   0.0000000e+00
  -2.3242301e+01  -1.9691394e+01  -9.0386726e+00  -2.9052876e+00  -2.0982633e+01  -1.5494867e+01  -1.8077345e+01  -1.7754535e+01  -1.4849248e+01  -2.0982633e+01  -2.0337013e+01   6.1333850e+00  -1.6463296e+01  -1.0329912e+01  -2.6147588e+01  -2.0014204e+01  -8.7158628e+00  -1.4526438e+01  -2.8084447e+01  -1.9368584e+01   0.0000000e+00   0.0000000e+00   0.0000000e+00   0.0000000e+00
  -2.4856350e+01  -2.0982633e+01  -8.0702434e+00  -6.4561947e+00  -2.1951062e+01  -2.0337013e+01  -2.0014204e+01  -2.0337013e+01  -1.5494867e+01  -2.0337013e+01  -2.0659823e+01   3.2280973e+00  -1.5494867e+01  -1.5172058e+01  -2.7116018e+01  -2.2273872e+01  -1.2266770e+01  -1.7108916e+01  -3.0989735e+01  -2.0982633e+01   0.0000000e+00   0.0000000e+00   0.0000000e+00   0.0000000e+00
  -2.7761637e+01  -2.2596681e+01  -7.7474336e+00  -1.0652721e+01  -2.4210730e+01  -2.4856350e+01  -2.3242301e+01  -2.3565111e+01  -1.7431726e+01  -2.0659823e+01  -2.2273872e+01  -6.4561947e-01  -1.6463296e+01  -2.0659823e+01  -2.9375686e+01  -2.5824779e+01  -1.7108916e+01  -2.0659823e+01  -3.4540642e+01  -2.3887920e+01   0.0000000e+00   0.0000000e+00   0.0000000e+00   0.0000000e+00
  -2.9052876e+01  -2.1951062e+01  -7.4246239e+00  -1.2266770e+01  -2.5501969e+01  -2.5179159e+01  -2.4856350e+01  -2.5501969e+01  -1.8077345e+01  -2.0659823e+01  -2.3242301e+01  -2.9052876e+00  -1.8077345e+01  -2.2596681e+01  -3.0666925e+01  -2.7761637e+01  -1.9045774e+01  -2.2273872e+01  -3.5186261e+01  -2.4856350e+01   0.0000000e+00   0.0000000e+00   0.0000000e+00   0.0000000e+00
  -2.8407257e+01  -1.9691394e+01  -8.0702434e+00  -1.0975531e+01  -2.5824779e+01  -2.1628252e+01  -2.5179159e+01  -2.5824779e+01  -1.7754535e+01  -2.0337013e+01  -2.3887920e+01  -3.8737168e+00  -2.0014204e+01  -2.0337013e+01  -3.0989735e+01  -2.7438827e+01  -1.7108916e+01  -2.1951062e+01  -3.2926593e+01  -2.3887920e+01   0.0000000e+00   0.0000000e+00   0.0000000e+00   0.0000000e+00
  -2.6147588e+01  -1.7108916e+01  -9.3614823e+00  -7.7474336e+00  -2.5179159e+01  -1.6463296e+01  -2.4533540e+01  -2.4856350e+01  -1.6140487e+01  -1.9691394e+01  -2.3565111e+01  -2.9052876e+00  -2.1305442e+01  -1.5494867e+01  -3.0344115e+01  -2.5501969e+01  -1.3558009e+01  -2.0337013e+01  -2.9375686e+01  -2.1628252e+01   0.0000000e+00   0.0000000e+00   0.0000000e+00   0.0000000e+00
  -2.3565111e+01  -1.5494867e+01  -1.0652721e+01  -4.8421460e+00  -2.4210730e+01  -1.3235199e+01  -2.4533540e+01  -2.4210730e+01  -1.4526438e+01  -1.9045774e+01  -2.2919491e+01  -9.6842920e-01  -2.1305442e+01  -1.1298341e+01  -2.9698496e+01  -2.3887920e+01  -1.0975531e+01  -1.8400155e+01  -2.6147588e+01  -1.9368584e+01   0.0000000e+00   0.0000000e+00   0.0000000e+00   0.0000000e+00
  -2.2273872e+01  -1.5172058e+01  -1.0652721e+01  -4.1965265e+00  -2.3887920e+01  -1.3235199e+01  -2.4856350e+01  -2.3565111e+01  -1.3558009e+01  -1.8077345e+01  -2.1951062e+01   9.6842920e-01  -2.0337013e+01  -1.0007102e+01  -2.9375686e+01  -2.3242301e+01  -1.0652721e+01  -1.7108916e+01  -2.5501969e+01  -1.7754535e+01   0.0000000e+00   0.0000000e+00   0.0000000e+00   0.0000000e+00
  -2.2596681e+01  -1.6463296e+01  -1.0007102e+01  -5.8105752e+00  -2.4533540e+01  -1.6463296e+01  -2.6147588e+01  -2.3887920e+01  -1.3880819e+01  -1.7431726e+01  -2.1628252e+01   1.6140487e+00  -1.9691394e+01  -1.1943960e+01  -3.0021305e+01  -2.4533540e+01  -1.3235199e+01  -1.6140487e+01  -2.6793208e+01  -1.7431726e+01   0.0000000e+00   0.0000000e+00   0.0000000e+00   0.0000000e+00
  -2.3242301e+01  -1.6786106e+01  -8.7158628e+00  -7.1018142e+00  -2.5501969e+01  -1.9368584e+01  -2.7116018e+01  -2.2919491e+01  -1.4526438e+01  -1.6786106e+01  -2.1305442e+01   2.2596681e+00  -1.9691394e+01  -1.4526438e+01  -3.0344115e+01  -2.5501969e+01  -1.5494867e+01  -1.4849248e+01  -2.7761637e+01  -1.7108916e+01   0.0000000e+00   0.0000000e+00   0.0000000e+00   0.0000000e+00
  -2.2919491e+01  -1.5172058e+01  -6.7790044e+00  -6.7790044e+00  -2.5501969e+01  -1.9045774e+01  -2.5501969e+01  -2.0337013e+01  -1.4526438e+01  -1.5817677e+01  -2.0659823e+01   3.2280973e+00  -2.0337013e+01  -1.3880819e+01  -2.9375686e+01  -2.4533540e+01  -1.5172058e+01  -1.1621150e+01  -2.6470398e+01  -1.5172058e+01   0.0000000e+00   0.0000000e+00   0.0000000e+00   0.0000000e+00
  -2.1305442e+01  -1.2589580e+01  -5.8105752e+00  -4.1965265e+00  -2.4856350e+01  -1.6140487e+01  -2.2596681e+01  -1.6786106e+01  -1.4203628e+01  -1.5172058e+01  -2.0014204e+01   4.5193363e+00  -2.1305442e+01  -1.0329912e+01  -2.7761637e+01  -2.1628252e+01  -1.1298341e+01  -7.4246239e+00  -2.2596681e+01  -1.2266770e+01   0.0000000e+00   0.0000000e+00   0.0000000e+00   0.0000000e+00
  -1.8400155e+01  -9.3614823e+00  -5.4877655e+00  -6.4561947e-01  -2.3565111e+01  -1.1621150e+01  -1.8722965e+01  -1.2589580e+01  -1.2912389e+01  -1.4203628e+01  -1.9368584e+01   5.8105752e+00  -2.1951062e+01  -4.8421460e+00  -2.5179159e+01  -1.7108916e+01  -6.4561947e+00  -3.2280973e+00  -1.7754535e+01  -8.3930531e+00   0.0000000e+00   0.0000000e+00   0.0000000e+00   0.0000000e+00
  -1.6463296e+01  -8.0702434e+00  -6.1333850e+00   9.6842920e-01  -2.2596681e+01  -9.3614823e+00  -1.5817677e+01  -1.0007102e+01  -1.2266770e+01  -1.3880819e+01  -1.8722965e+01   6.1333850e+00  -2.1628252e+01  -1.2912389e+00  -2.3242301e+01  -1.4526438e+01  -3.2280973e+00  -3.2280973e-01  -1.4849248e+01  -6.1333850e+00   0.0000000e+00   0.0000000e+00   0.0000000e+00   0.0000000e+00
  -1.5817677e+01  -8.7158628e+00  -6.7790044e+00   0.0000000e+00  -2.2273872e+01  -1.0652721e+01  -1.4526438e+01  -9.6842920e+00  -1.2266770e+01  -1.3558009e+01  -1.8722965e+01   5.8105752e+00  -2.0337013e+01  -1.6140487e+00  -2.2273872e+01  -1.3880819e+01  -3.5509071e+00   6.4561947e-01  -1.4526438e+01  -5.4877655e+00   0.0000000e+00   0.0000000e+00   0.0000000e+00   0.0000000e+00
  -1.6463296e+01  -1.0329912e+01  -6.7790044e+00  -2.2596681e+00  -2.2273872e+01  -1.4526438e+01  -1.4203628e+01  -1.0652721e+01  -1.2589580e+01  -1.2912389e+01  -1.8400155e+01   5.1649558e+00  -1.8077345e+01  -4.5193363e+00  -2.1951062e+01  -1.5172058e+01  -6.7790044e+00   6.4561947e-01  -1.6140487e+01  -6.4561947e+00   0.0000000e+00   0.0000000e+00   0.0000000e+00   0.0000000e+00
  -1.7431726e+01  -1.1943960e+01  -6.4561947e+00  -3.8737168e+00  -2.1951062e+01  -1.7431726e+01  -1.4203628e+01  -1.1943960e+01  -1.2589580e+01  -1.1943960e+01  -1.8077345e+01   5.1649558e+00  -1.5817677e+01  -8.0702434e+00  -2.1628252e+01  -1.6786106e+01  -1.0007102e+01   0.0000000e+00  -1.8077345e+01  -7.4246239e+00   0.0000000e+00   0.0000000e+00   0.0000000e+00   0.0000000e+00
  -1.7754535e+01  -1.1621150e+01  -6.1333850e+00  -2.5824779e+00  -2.0659823e+01  -1.7108916e+01  -1.2912389e+01  -1.1621150e+01  -1.1943960e+01  -1.0975531e+01  -1.7108916e+01   6.7790044e+00  -1.4203628e+01  -9.0386726e+00  -2.0014204e+01  -1.6463296e+01  -1.0652721e+01   3.2280973e-01  -1.8077345e+01  -6.4561947e+00   0.0000000e+00   0.0000000e+00   0.0000000e+00   0.0000000e+00
  -1.5817677e+01  -9.3614823e+00  -6.1333850e+00   2.5824779e+00  -1.8722965e+01  -1.2912389e+01  -1.0007102e+01  -9.6842920e+00  -9.3614823e+00  -9.3614823e+00  -1.5817677e+01   9.6842920e+00  -1.2912389e+01  -6.1333850e+00  -1.7108916e+01  -1.3880819e+01  -7.4246239e+00   2.2596681e+00  -1.5172058e+01  -3.5509071e+00   0.0000000e+00   0.0000000e+00   0.0000000e+00   0.0000000e+00
  -1.3558009e+01  -7.1018142e+00  -7.1018142e+00   9.0386726e+00  -1.6463296e+01  -7.4246239e+00  -7.1018142e+00  -7.4246239e+00  -7.1018142e+00  -8.3930531e+00  -1.4849248e+01   1.2912389e+01  -1.2266770e+01  -1.2912389e+00  -1.4526438e+01  -1.0975531e+01  -3.2280973e+00   3.5509071e+00  -1.1621150e+01   0.0000000e+00   0.0000000e+00   0.0000000e+00   0.0000000e+00   0.0000000e+00
  -1.1943960e+01  -6.1333850e+00  -8.0702434e+00   1.3880819e+01  -1.4526438e+01  -4.1965265e+00  -5.1649558e+00  -6.4561947e+00  -4.8421460e+00  -7.4246239e+00  -1.4203628e+01   1.5817677e+01  -1.1298341e+01   1.9368584e+00  -1.2589580e+01  -9.3614823e+00  -3.2280973e-01   3.8737168e+00  -9.0386726e+00   2.2596681e+00   0.0000000e+00   0.0000000e+00   0.0000000e+00   0.0000000e+00
  -1.1298341e+01  -6.7790044e+00  -8.0702434e+00   1.5494867e+01  -1.3235199e+01  -4.1965265e+00  -5.1649558e+00  -7.1018142e+00  -3.5509071e+00  -7.1018142e+00  -1.3558009e+01   1.7754535e+01  -9.0386726e+00   2.5824779e+00  -1.1298341e+01  -9.6842920e+00   0.0000000e+00   3.2280973e+00  -8.7158628e+00   2.9052876e+00   0.0000000e+00   0.0000000e+00   0.0000000e+00   0.0000000e+00
  -1.1943960e+01  -8.3930531e+00  -7.7474336e+00   1.3558009e+01  -1.2266770e+01  -6.7790044e+00  -6.4561947e+00  -9.3614823e+00  -3.5509071e+00  -6.7790044e+00  -1.3558009e+01   1.9045774e+01  -6.7790044e+00   0.0000000e+00  -1.1298341e+01  -1.2266770e+01  -2.2596681e+00   1.2912389e+00  -1.0007102e+01   2.2596681e+00   0.0000000e+00   0.0000000e+00   0.0000000e+00   0.0000000e+00
  -1.2589580e+01  -9.0386726e+00  -5.8105752e+00   1.0975531e+01  -1.0652721e+01  -8.7158628e+00  -7.1018142e+00  -1.0329912e+01  -3.5509071e+00  -6.1333850e+00  -1.2912389e+01   2.0659823e+01  -3.8737168e+00  -2.2596681e+00  -1.0329912e+01  -1.4203628e+01  -3.8737168e+00   6.4561947e-01  -1.0975531e+01   1.6140487e+00   0.0000000e+00   0.0000000e+00   0.0000000e+00   0.0000000e+00
  -1.2912389e+01  -8.7158628e+00  -4.8421460e+00   9.0386726e+00  -9.6842920e+00  -8.3930531e+00  -7.1018142e+00  -1.0975531e+01  -3.5509071e+00  -6.1333850e+00  -1.2589580e+01   2.1951062e+01  -2.9052876e+00  -2.9052876e+00  -9.3614823e+00  -1.4849248e+01  -3.5509071e+00   3.2280973e-01  -1.0329912e+01   1.6140487e+00   0.0000000e+00   0.0000000e+00   0.0000000e+00   0.0000000e+00
  -1.1943960e+01  -6.7790044e+00  -4.8421460e+00   9.3614823e+00  -8.7158628e+00  -4.8421460e+00  -6.1333850e+00  -1.0007102e+01  -2.9052876e+00  -6.1333850e+00  -1.2266770e+01   2.2919491e+01  -3.2280973e+00  -3.2280973e-01  -8.0702434e+00  -1.3558009e+01  -6.4561947e-01   1.2912389e+00  -7.7474336e+00   2.9052876e+00   0.0000000e+00   0.0000000e+00   0.0000000e+00   0.0000000e+00
  -9.6842920e+00  -4.5193363e+00  -5.4877655e+00   1.0652721e+01  -8.0702434e+00   0.0000000e+00  -4.8421460e+00  -9.0386726e+00  -1.6140487e+00  -6.4561947e+00  -1.1621150e+01   2.3242301e+01  -4.8421460e+00   4.1965265e+00  -6.4561947e+00  -1.0652721e+01   3.8737168e+00   2.9052876e+00  -3.8737168e+00   3.8737168e+00   0.0000000e+00   0.0000000e+00   0.0000000e+00   0.0000000e+00
  -7.7474336e+00  -2.9052876e+00  -6.4561947e+00   1.1298341e+01  -8.0702434e+00   2.9052876e+00  -4.1965265e+00  -8.7158628e+00  -6.4561947e-01  -6.4561947e+00  -1.1298341e+01   2.2273872e+01  -5.8105752e+00   7.7474336e+00  -5.4877655e+00  -8.7158628e+00   7.1018142e+00   3.8737168e+00  -1.2912389e+00   3.5509071e+00   0.0000000e+00   0.0000000e+00   0.0000000e+00   0.0000000e+00
  -6.7790044e+00  -2.5824779e+00  -7.1018142e+00   1.0007102e+01  -8.7158628e+00   2.2596681e+00  -4.8421460e+00  -1.0329912e+01   0.0000000e+00  -6.1333850e+00  -1.1298341e+01   2.0337013e+01  -5.8105752e+00   8.7158628e+00  -5.1649558e+00  -8.7158628e+00   7.4246239e+00   4.5193363e+00  -6.4561947e-01   1.2912389e+00   0.0000000e+00   0.0000000e+00   0.0000000e+00   0.0000000e+00
  -7.1018142e+00  -3.2280973e+00  -7.4246239e+00   6.4561947e+00  -9.3614823e+00  -6.4561947e-01  -6.4561947e+00  -1.3235199e+01   0.0000000e+00  -5.8105752e+00  -1.1298341e+01   1.8400155e+01  -4.8421460e+00   7.1018142e+00  -5.4877655e+00  -1.0652721e+01   5.1649558e+00   4.1965265e+00  -2.2596681e+00  -2.9052876e+00   0.0000000e+00   0.0000000e+00   0.0000000e+00   0.0000000e+00
  -7.4246239e+00  -3.5509071e+00  -7.4246239e+00   3.2280973e+00  -9.3614823e+00  -3.2280973e+00  -7.7474336e+00  -1.5817677e+01   3.2280973e-01  -4.8421460e+00  -1.0975531e+01   1.7754535e+01  -3.2280973e+00   5.4877655e+00  -5.8105752e+00  -1.2912389e+01   2.9052876e+00   4.8421460e+00  -3.8737168e+00  -7.1018142e+00   0.0000000e+00   0.0000000e+00   0.0000000e+00   0.0000000e+00
  -7.1018142e+00  -3.2280973e+00  -8.3930531e+00   9.6842920e-01  -9.3614823e+00  -3.2280973e+00  -8.0702434e+00  -1.7431726e+01   3.2280973e-01  -4.5193363e+00  -1.1298341e+01   1.7108916e+01  -3.2280973e+00   5.4877655e+00  -6.4561947e+00  -1.4526438e+01   2.5824779e+00   5.4877655e+00  -4.5193363e+00  -1.0652721e+01   0.0000000e+00   0.0000000e+00   0.0000000e+00   0.0000000e+00
  -5.4877655e+00  -9.6842920e-01  -9.6842920e+00   2.5824779e+00  -8.0702434e+00   9.6842920e-01  -7.1018142e+00  -1.7431726e+01   1.6140487e+00  -4.5193363e+00  -1.1298341e+01   1.8077345e+01  -3.8737168e+00   9.0386726e+00  -6.4561947e+00  -1.3880819e+01   5.8105752e+00   7.7474336e+00  -2.9052876e+00  -1.1943960e+01   0.0000000e+00   0.0000000e+00   0.0000000e+00   0.0000000e+00
  -2.5824779e+00   1.6140487e+00  -1.1298341e+01   6.1333850e+00  -5.8105752e+00   6.4561947e+00  -5.1649558e+00  -1.6140487e+01   3.2280973e+00  -4.1965265e+00  -1.0975531e+01   1.9368584e+01  -4.8421460e+00   1.4526438e+01  -6.1333850e+00  -1.1943960e+01   1.0652721e+01   1.0007102e+01   0.0000000e+00  -1.1943960e+01   0.0000000e+00   0.0000000e+00   0.0000000e+00   0.0000000e+00
   6.4561947e-01   3.2280973e+00  -1.2589580e+01   1.0329912e+01  -3.5509071e+00   1.0329912e+01  -3.2280973e+00  -1.5172058e+01   5.1649558e+00  -3.8737168e+00  -1.0652721e+01   2.0982633e+01  -4.5193363e+00   1.9045774e+01  -5.8105752e+00  -1.0007102e+01   1.4849248e+01   1.1943960e+01   2.5824779e+00  -1.1943960e+01   0.0000000e+00   0.0000000e+00   0.0000000e+00   0.0000000e+00
   1.9368584e+00   3.5509071e+00  -1.2912389e+01   1.2589580e+01  -1.6140487e+00   1.0329912e+01  -2.5824779e+00  -1.5817677e+01   6.1333850e+00  -3.8737168e+00  -1.0329912e+01   2.2273872e+01  -2.9052876e+00   2.0014204e+01  -6.1333850e+00  -1.0007102e+01   1.5817677e+01   1.2266770e+01   2.9052876e+00  -1.3235199e+01   0.0000000e+00   0.0000000e+00   0.0000000e+00   0.0000000e+00
   1.2912389e+00   1.6140487e+00  -1.2266770e+01   1.2266770e+01  -1.2912389e+00   6.1333850e+00  -3.5509071e+00  -1.8077345e+01   5.4877655e+00  -4.8421460e+00  -1.0975531e+01   2.2919491e+01  -9.6842920e-01   1.6786106e+01  -8.0702434e+00  -1.2589580e+01   1.2912389e+01   1.0652721e+01   3.2280973e-01  -1.6463296e+01   0.0000000e+00   0.0000000e+00   0.0000000e+00   0.0000000e+00
  -6.4561947e-01  -1.2912389e+00  -1.1298341e+01   1.0007102e+01  -2.2596681e+00   9.6842920e-01  -5.1649558e+00  -2.0659823e+01   3.5509071e+00  -6.7790044e+00  -1.2266770e+01   2.3242301e+01   0.0000000e+00   1.1621150e+01  -1.0329912e+01  -1.6140487e+01   8.7158628e+00   7.4246239e+00  -3.2280973e+00  -2.0337013e+01   0.0000000e+00   0.0000000e+00   0.0000000e+00   0.0000000e+00
  -2.5824779e+00  -3.8737168e+00  -1.0329912e+01   8.0702434e+00  -3.8737168e+00  -2.2596681e+00  -6.4561947e+00  -2.2919491e+01   1.2912389e+00  -1.0007102e+01  -1.4526438e+01   2.3242301e+01  -3.2280973e-01   7.4246239e+00  -1.2912389e+01  -1.9691394e+01   5.4877655e+00   4.1965265e+00  -5.8105752e+00  -2.3887920e+01   0.0000000e+00   0.0000000e+00   0.0000000e+00   0.0000000e+00
  -2.9052876e+00  -4.8421460e+00  -9.3614823e+00   7.7474336e+00  -5.1649558e+00  -2.2596681e+00  -6.4561947e+00  -2.3565111e+01  -6.4561947e-01  -1.2912389e+01  -1.6786106e+01   2.3242301e+01  -1.9368584e+00   5.8105752e+00  -1.4526438e+01  -2.1305442e+01   5.4877655e+00   1.2912389e+00  -6.1333850e+00  -2.5824779e+01   0.0000000e+00   0.0000000e+00   0.0000000e+00   0.0000000e+00
  -1.6140487e+00  -4.1965265e+00  -9.0386726e+00   9.0386726e+00  -5.8105752e+00   6.4561947e-01  -5.4877655e+00  -2.2919491e+01  -1.2912389e+00  -1.5172058e+01  -1.8722965e+01   2.3887920e+01  -3.8737168e+00   6.7790044e+00  -1.5172058e+01  -2.0982633e+01   7.7474336e+00  -6.4561947e-01  -4.5193363e+00  -2.6147588e+01   0.0000000e+00   0.0000000e+00   0.0000000e+00   0.0000000e+00
  -3.2280973e-01  -3.8737168e+00  -9.0386726e+00   1.0652721e+01  -6.4561947e+00   2.5824779e+00  -4.5193363e+00  -2.2596681e+01  -1.9368584e+00  -1.5817677e+01  -2.0337013e+01   2.3887920e+01  -5.1649558e+00   7.7474336e+00  -1.5494867e+01  -2.0659823e+01   9.6842920e+00  -2.2596681e+00  -2.9052876e+00  -2.5824779e+01   0.0000000e+00   0.0000000e+00   0.0000000e+00   0.0000000e+00
   0.0000000e+00  -3.8737168e+00  -9.3614823e+00   1.0975531e+01  -7.4246239e+00   1.6140487e+00  -4.5193363e+00  -2.3565111e+01  -2.9052876e+00  -1.5817677e+01  -2.1951062e+01   2.3242301e+01  -5.4877655e+00   6.4561947e+00  -1.6140487e+01  -2.1951062e+01   9.3614823e+00  -4.8421460e+00  -3.5509071e+00  -2.6147588e+01   0.0000000e+00   0.0000000e+00   0.0000000e+00   0.0000000e+00
  -6.4561947e-01  -3.8737168e+00  -8.7158628e+00   1.0652721e+01  -7.7474336e+00  -1.6140487e+00  -4.8421460e+00  -2.4533540e+01  -3.2280973e+00  -1.4526438e+01  -2.2596681e+01   2.2273872e+01  -4.1965265e+00   3.2280973e+00  -1.6786106e+01  -2.3887920e+01   6.7790044e+00  -6.7790044e+00  -5.1649558e+00  -2.7116018e+01   0.0000000e+00   0.0000000e+00   0.0000000e+00   0.0000000e+00
  -1.9368584e+00  -3.2280973e+00  -7.4246239e+00   1.0007102e+01  -7.7474336e+00  -5.1649558e+00  -4.8421460e+00  -2.5501969e+01  -3.2280973e+00  -1.2912389e+01  -2.2919491e+01   2.1628252e+01  -2.5824779e+00  -3.2280973e-01  -1.6786106e+01  -2.5824779e+01   3.8737168e+00  -8.3930531e+00  -7.1018142e+00  -2.8084447e+01   0.0000000e+00   0.0000000e+00   0.0000000e+00   0.0000000e+00
  -2.5824779e+00  -6.4561947e-01  -6.4561947e+00   1.0329912e+01  -6.4561947e+00  -5.4877655e+00  -4.1965265e+00  -2.4856350e+01  -2.5824779e+00  -1.1298341e+01  -2.3565111e+01   2.1951062e+01  -1.6140487e+00  -1.2912389e+00  -1.6140487e+01  -2.6147588e+01   2.9052876e+00  -8.3930531e+00  -7.4246239e+00  -2.7438827e+01   0.0000000e+00   0.0000000e+00   0.0000000e+00   0.0000000e+00
  -1.2912389e+00   3.2280973e+00  -6.4561947e+00   1.2589580e+01  -4.5193363e+00  -1.9368584e+00  -2.2596681e+00  -2.2919491e+01  -9.6842920e-01  -9.6842920e+00  -2.3887920e+01   2.3242301e+01  -1.2912389e+00   1.6140487e+00  -1.4849248e+01  -2.4533540e+01   5.8105752e+00  -6.4561947e+00  -5.4877655e+00  -2.4856350e+01   0.0000000e+00   0.0000000e+00   0.0000000e+00   0.0000000e+00
   1.2912389e+00   8.0702434e+00  -7.4246239e+00   1.5817677e+01  -1.6140487e+00   4.1965265e+00   6.4561947e-01  -2.0014204e+01   1.2912389e+00  -7.7474336e+00  -2.3887920e+01   2.5179159e+01  -1.6140487e+00   7.7474336e+00  -1.3235199e+01  -2.1305442e+01   1.0975531e+01  -3.2280973e+00  -1.9368584e+00  -2.0982633e+01   0.0000000e+00   0.0000000e+00   0.0000000e+00   0.0000000e+00
   4.1965265e+00   1.1621150e+01  -9.3614823e+00   1.8077345e+01   6.4561947e-01   9.6842920e+00   2.9052876e+00  -1.8077345e+01   3.2280973e+00  -6.4561947e+00  -2.3887920e+01   2.6470398e+01  -1.9368584e+00   1.3235199e+01  -1.1943960e+01  -1.8077345e+01   1.5494867e+01   0.0000000e+00   9.6842920e-01  -1.7431726e+01   0.0000000e+00   0.0000000e+00   0.0000000e+00   0.0000000e+00
   5.4877655e+00   1.2589580e+01  -1.1298341e+01   1.7754535e+01   1.9368584e+00   1.1621150e+01   3.5509071e+00  -1.7754535e+01   4.1965265e+00  -5.4877655e+00  -2.4210730e+01   2.7116018e+01  -1.2912389e+00   1.5494867e+01  -1.1621150e+01  -1.6786106e+01   1.7431726e+01   2.2596681e+00   1.6140487e+00  -1.5494867e+01   0.0000000e+00   0.0000000e+00   0.0000000e+00   0.0000000e+00
   5.1649558e+00   1.1943960e+01  -1.2589580e+01   1.5817677e+01   1.9368584e+00   9.6842920e+00   2.5824779e+00  -1.9368584e+01   3.8737168e+00  -5.1649558e+00  -2.4210730e+01   2.7116018e+01  -3.2280973e-01   1.3880819e+01  -1.2589580e+01  -1.7431726e+01   1.5494867e+01   3.2280973e+00  -3.2280973e-01  -1.5817677e+01   0.0000000e+00   0.0000000e+00   0.0000000e+00   0.0000000e+00
   3.2280973e+00   1.0329912e+01  -1.2266770e+01   1.3235199e+01   9.6842920e-01   6.7790044e+00   1.2912389e+00  -2.1628252e+01   3.2280973e+00  -5.4877655e+00  -2.4533540e+01   2.7438827e+01   3.2280973e-01   1.0329912e+01  -1.3558009e+01  -1.8722965e+01   1.2589580e+01   3.8737168e+00  -3.5509071e+00  -1.7754535e+01   0.0000000e+00   0.0000000e+00   0.0000000e+00   0.0000000e+00
   9.6842920e-01   9.3614823e+00  -1.1298341e+01   1.1621150e+01  -6.4561947e-01   4.8421460e+00   3.2280973e-01  -2.2919491e+01   1.2912389e+00  -6.7790044e+00  -2.5501969e+01   2.7116018e+01  -3.2280973e-01   7.1018142e+00  -1.5172058e+01  -1.9691394e+01   1.0007102e+01   4.1965265e+00  -5.8105752e+00  -1.9691394e+01   0.0000000e+00   0.0000000e+00   0.0000000e+00   0.0000000e+00
  -9.6842920e-01   9.3614823e+00  -1.0975531e+01   1.1298341e+01  -3.5509071e+00   5.4877655e+00   0.0000000e+00  -2.2919491e+01  -9.6842920e-01  -9.3614823e+00  -2.7116018e+01   2.6470398e+01  -3.2280973e+00   5.8105752e+00  -1.6786106e+01  -1.9691394e+01   9.3614823e+00   4.5193363e+00  -6.4561947e+00  -2.0982633e+01   0.0000000e+00   0.0000000e+00   0.0000000e+00   0.0000000e+00
  -1.6140487e+00   9.6842920e+00  -1.1298341e+01   1.2589580e+01  -6.4561947e+00   7.4246239e+00   3.2280973e-01  -2.2273872e+01  -3.2280973e+00  -1.2266770e+01  -2.9052876e+01   2.4856350e+01  -7.4246239e+00   6.4561947e+00  -1.8400155e+01  -1.9045774e+01   1.0329912e+01   4.8421460e+00  -5.4877655e+00  -2.2273872e+01   0.0000000e+00   0.0000000e+00   0.0000000e+00   0.0000000e+00
  -1.9368584e+00   9.3614823e+00  -1.2266770e+01   1.2912389e+01  -9.6842920e+00   8.0702434e+00   0.0000000e+00  -2.2273872e+01  -5.8105752e+00  -1.5172058e+01  -3.0989735e+01   2.1951062e+01  -1.1298341e+01   6.4561947e+00  -2.0982633e+01  -1.9045774e+01   1.0652721e+01   4.1965265e+00  -4.5193363e+00  -2.4210730e+01   0.0000000e+00   0.0000000e+00   0.0000000e+00   0.0000000e+00
  -2.9052876e+00   7.7474336e+00  -1.3235199e+01   1.1943960e+01  -1.2912389e+01   5.4877655e+00  -1.6140487e+00  -2.3565111e+01  -8.7158628e+00  -1.7431726e+01  -3.2926593e+01   1.8722965e+01  -1.4203628e+01   3.5509071e+00  -2.4210730e+01  -2.0659823e+01   8.3930531e+00   2.5824779e+00  -5.1649558e+00  -2.8407257e+01   0.0000000e+00   0.0000000e+00   0.0000000e+00   0.0000000e+00
  -5.4877655e+00   4.1965265e+00  -1.3880819e+01   8.3930531e+00  -1.6463296e+01  -9.6842920e-01  -4.8421460e+00  -2.6470398e+01  -1.1943960e+01  -1.9368584e+01  -3.4540642e+01   1.5172058e+01  -1.5494867e+01  -2.5824779e+00  -2.7761637e+01  -2.4533540e+01   2.9052876e+00  -9.6842920e-01  -7.4246239e+00  -3.4540642e+01   0.0000000e+00   0.0000000e+00   0.0000000e+00   0.0000000e+00
  -8.3930531e+00   3.2280973e-01  -1.4203628e+01   4.5193363e+00  -1.9368584e+01  -8.0702434e+00  -8.0702434e+00  -2.9698496e+01  -1.4526438e+01  -2.0337013e+01  -3.5509071e+01   1.2589580e+01  -1.5817677e+01  -9.3614823e+00  -3.0666925e+01  -2.8407257e+01  -2.9052876e+00  -4.5193363e+00  -1.0329912e+01  -4.0674027e+01   0.0000000e+00   0.0000000e+00   0.0000000e+00   0.0000000e+00
  -1.0652721e+01  -1.6140487e+00  -1.4526438e+01   1.6140487e+00  -2.1305442e+01  -1.2266770e+01  -9.6842920e+00  -3.1635354e+01  -1.6140487e+01  -2.0659823e+01  -3.6154690e+01   1.1621150e+01  -1.5817677e+01  -1.3880819e+01  -3.2280973e+01  -3.0666925e+01  -6.7790044e+00  -7.4246239e+00  -1.2266770e+01  -4.4870553e+01   0.0000000e+00   0.0000000e+00   0.0000000e+00   0.0000000e+00
  -1.1943960e+01  -1.6140487e+00  -1.6140487e+01   6.4561947e-01  -2.2596681e+01  -1.2589580e+01  -1.0007102e+01  -3.1312544e+01  -1.6463296e+01  -2.0982633e+01  -3.6477500e+01   1.1621150e+01  -1.6463296e+01  -1.4203628e+01  -3.2603783e+01  -3.0666925e+01  -7.4246239e+00  -8.7158628e+00  -1.2912389e+01  -4.5838982e+01   0.0000000e+00   0.0000000e+00   0.0000000e+00   0.0000000e+00
  -1.1943960e+01  -6.4561947e-01  -1.8400155e+01   1.2912389e+00  -2.2919491e+01  -9.6842920e+00  -8.7158628e+00  -3.0021305e+01  -1.5817677e+01  -2.0982633e+01  -3.6477500e+01   1.1943960e+01  -1.7754535e+01  -1.0975531e+01  -3.2280973e+01  -2.9052876e+01  -5.1649558e+00  -9.0386726e+00  -1.2912389e+01  -4.3579314e+01   0.0000000e+00   0.0000000e+00   0.0000000e+00   0.0000000e+00
  -1.1298341e+01   0.0000000e+00  -2.0659823e+01   1.6140487e+00  -2.2919491e+01  -6.7790044e+00  -7.4246239e+00  -2.8407257e+01  -1.5172058e+01  -2.1305442e+01  -3.6154690e+01   1.1943960e+01  -1.9045774e+01  -7.4246239e+00  -3.1635354e+01  -2.7438827e+01  -2.9052876e+00  -9.0386726e+00  -1.3880819e+01  -3.9059978e+01   0.0000000e+00   0.0000000e+00   0.0000000e+00   0.0000000e+00
  -1.1298341e+01  -9.6842920e-01  -2.2273872e+01  -3.2280973e-01  -2.3565111e+01  -6.7790044e+00  -7.4246239e+00  -2.8084447e+01  -1.5494867e+01  -2.1628252e+01  -3.5509071e+01   1.0652721e+01  -2.0014204e+01  -6.7790044e+00  -3.1635354e+01  -2.7116018e+01  -3.5509071e+00  -9.6842920e+00  -1.6786106e+01  -3.5186261e+01   0.0000000e+00   0.0000000e+00   0.0000000e+00   0.0000000e+00
  -1.3235199e+01  -4.1965265e+00  -2.3242301e+01  -5.1649558e+00  -2.4856350e+01  -1.0652721e+01  -9.3614823e+00  -2.9375686e+01  -1.7431726e+01  -2.2596681e+01  -3.5831881e+01   8.0702434e+00  -2.0337013e+01  -1.0007102e+01  -3.2926593e+01  -2.9052876e+01  -7.7474336e+00  -1.1621150e+01  -2.1951062e+01  -3.2926593e+01   0.0000000e+00   0.0000000e+00   0.0000000e+00   0.0000000e+00
  -1.5494867e+01  -7.4246239e+00  -2.2596681e+01  -1.0329912e+01  -2.6470398e+01  -1.4849248e+01  -1.0975531e+01  -3.0989735e+01  -1.9691394e+01  -2.3242301e+01  -3.5509071e+01   5.8105752e+00  -2.0337013e+01  -1.4526438e+01  -3.3895022e+01  -3.1312544e+01  -1.2912389e+01  -1.3558009e+01  -2.6147588e+01  -3.1958164e+01   0.0000000e+00   0.0000000e+00   0.0000000e+00   0.0000000e+00
  -1.7754535e+01  -9.3614823e+00  -2.1628252e+01  -1.4849248e+01  -2.8407257e+01  -1.7431726e+01  -1.1621150e+01  -3.1635354e+01  -2.1951062e+01  -2.4210730e+01  -3.5509071e+01   3.8737168e+00  -2.0659823e+01  -1.8077345e+01  -3.4217832e+01  -3.2926593e+01  -1.6786106e+01  -1.4203628e+01  -2.8084447e+01  -3.1958164e+01   0.0000000e+00   0.0000000e+00   0.0000000e+00   0.0000000e+00
  -1.8722965e+01  -8.7158628e+00  -2.0982633e+01  -1.5817677e+01  -2.9375686e+01  -1.5494867e+01  -1.0652721e+01  -3.0666925e+01  -2.2596681e+01  -2.4533540e+01  -3.5831881e+01   2.9052876e+00  -2.1951062e+01  -1.7754535e+01  -3.3572212e+01  -3.2280973e+01  -1.7108916e+01  -1.2912389e+01  -2.6147588e+01  -3.1312544e+01   0.0000000e+00   0.0000000e+00   0.0000000e+00   0.0000000e+00
  -1.7754535e+01  -5.4877655e+00  -2.0659823e+01  -1.3880819e+01  -2.9375686e+01  -1.0329912e+01  -8.0702434e+00  -2.7761637e+01  -2.2273872e+01  -2.4533540e+01  -3.5186261e+01   2.9052876e+00  -2.3565111e+01  -1.3558009e+01  -3.1958164e+01  -2.9698496e+01  -1.4203628e+01  -1.0007102e+01  -2.1305442e+01  -2.9375686e+01   0.0000000e+00   0.0000000e+00   0.0000000e+00   0.0000000e+00
  -1.6140487e+01  -2.5824779e+00  -2.1305442e+01  -1.0975531e+01  -2.9375686e+01  -5.4877655e+00  -5.1649558e+00  -2.5179159e+01  -2.1305442e+01  -2.4210730e+01  -3.4863451e+01   2.2596681e+00  -2.5179159e+01  -9.0386726e+00  -3.0021305e+01  -2.6470398e+01  -1.0329912e+01  -6.4561947e+00  -1.6463296e+01  -2.7438827e+01   0.0000000e+00   0.0000000e+00   0.0000000e+00   0.0000000e+00
  -1.4526438e+01  -6.4561947e-01  -2.1628252e+01  -9.0386726e+00  -2.8730066e+01  -3.2280973e+00  -2.9052876e+00  -2.2919491e+01  -2.0337013e+01  -2.3565111e+01  -3.3572212e+01   1.6140487e+00  -2.5824779e+01  -6.4561947e+00  -2.8730066e+01  -2.4210730e+01  -8.7158628e+00  -3.2280973e+00  -1.3235199e+01  -2.5179159e+01   0.0000000e+00   0.0000000e+00   0.0000000e+00   0.0000000e+00
  -1.5172058e+01  -1.2912389e+00  -2.1951062e+01  -9.6842920e+00  -2.9375686e+01  -5.4877655e+00  -2.9052876e+00  -2.3242301e+01  -2.0659823e+01  -2.3242301e+01  -3.2603783e+01  -3.2280973e-01  -2.5501969e+01  -8.3930531e+00  -2.8730066e+01  -2.4210730e+01  -1.0652721e+01  -1.9368584e+00  -1.4203628e+01  -2.4856350e+01   0.0000000e+00   0.0000000e+00   0.0000000e+00   0.0000000e+00
  -1.6786106e+01  -2.9052876e+00  -2.1628252e+01  -1.1943960e+01  -2.9698496e+01  -1.0007102e+01  -3.8737168e+00  -2.4533540e+01  -2.1305442e+01  -2.2919491e+01  -3.1958164e+01  -2.5824779e+00  -2.4856350e+01  -1.2912389e+01  -2.9375686e+01  -2.5179159e+01  -1.4849248e+01  -1.6140487e+00  -1.7108916e+01  -2.4856350e+01   0.0000000e+00   0.0000000e+00   0.0000000e+00   0.0000000e+00
  -1.8400155e+01  -3.8737168e+00  -2.0659823e+01  -1.3235199e+01  -3.0021305e+01  -1.2912389e+01  -4.5193363e+00  -2.5179159e+01  -2.1951062e+01  -2.2919491e+01  -3.0989735e+01  -4.5193363e+00  -2.4210730e+01  -1.7108916e+01  -2.9698496e+01  -2.5824779e+01  -1.8400155e+01  -1.2912389e+00  -1.9368584e+01  -2.4210730e+01   0.0000000e+00   0.0000000e+00   0.0000000e+00   0.0000000e+00
  -1.9045774e+01  -3.2280973e+00  -2.0337013e+01  -1.2912389e+01  -2.9698496e+01  -1.2589580e+01  -4.1965265e+00  -2.4856350e+01  -2.2273872e+01  -2.3565111e+01  -3.0666925e+01  -5.4877655e+00  -2.4533540e+01  -1.8722965e+01  -2.9052876e+01  -2.5179159e+01  -1.8722965e+01  -3.2280973e-01  -1.9691394e+01  -2.2596681e+01   0.0000000e+00   0.0000000e+00   0.0000000e+00   0.0000000e+00
  -1.7431726e+01  -6.4561947e-01  -1.9691394e+01  -1.0007102e+01  -2.8407257e+01  -8.3930531e+00  -2.2596681e+00  -2.2596681e+01  -2.0982633e+01  -2.3242301e+01  -2.9375686e+01  -4.5193363e+00  -2.4533540e+01  -1.6140487e+01  -2.7116018e+01  -2.2596681e+01  -1.5817677e+01   2.2596681e+00  -1.6463296e+01  -1.9368584e+01   0.0000000e+00   0.0000000e+00   0.0000000e+00   0.0000000e+00
  -1.5172058e+01   1.6140487e+00  -1.9045774e+01  -6.7790044e+00  -2.7438827e+01  -4.5193363e+00  -3.2280973e-01  -2.0337013e+01  -2.0014204e+01  -2.2919491e+01  -2.8407257e+01  -3.2280973e+00  -2.4210730e+01  -1.2912389e+01  -2.4856350e+01  -1.9691394e+01  -1.1943960e+01   4.1965265e+00  -1.2912389e+01  -1.6140487e+01   0.0000000e+00   0.0000000e+00   0.0000000e+00   0.0000000e+00
  -1.3880819e+01   1.9368584e+00  -1.8400155e+01  -5.4877655e+00  -2.7116018e+01  -3.8737168e+00   3.2280973e-01  -1.9691394e+01  -1.9691394e+01  -2.1628252e+01  -2.7761637e+01  -2.5824779e+00  -2.3565111e+01  -1.1943960e+01  -2.3565111e+01  -1.8722965e+01  -1.0329912e+01   4.5193363e+00  -1.0652721e+01  -1.5172058e+01   0.0000000e+00   0.0000000e+00   0.0000000e+00   0.0000000e+00
  -1.4849248e+01   0.0000000e+00  -1.7108916e+01  -6.7790044e+00  -2.7761637e+01  -7.4246239e+00  -9.6842920e-01  -2.1305442e+01  -2.0659823e+01  -2.0659823e+01  -2.7761637e+01  -2.9052876e+00  -2.2273872e+01  -1.5494867e+01  -2.3565111e+01  -2.0337013e+01  -1.2266770e+01   2.5824779e+00  -1.1621150e+01  -1.6140487e+01   0.0000000e+00   0.0000000e+00   0.0000000e+00   0.0000000e+00
  -1.6786106e+01  -2.9052876e+00  -1.4526438e+01  -9.3614823e+00  -2.8730066e+01  -1.2912389e+01  -2.9052876e+00  -2.3242301e+01  -2.2273872e+01  -1.9368584e+01  -2.7761637e+01  -3.5509071e+00  -2.0982633e+01  -2.0982633e+01  -2.3887920e+01  -2.2596681e+01  -1.6463296e+01   0.0000000e+00  -1.4203628e+01  -1.8400155e+01   0.0000000e+00   0.0000000e+00   0.0000000e+00   0.0000000e+00
  -1.9368584e+01  -4.8421460e+00  -1.2266770e+01  -1.1298341e+01  -2.9052876e+01  -1.7108916e+01  -4.1965265e+00  -2.4856350e+01  -2.3565111e+01  -1.8722965e+01  -2.7761637e+01  -4.5193363e+00  -2.0337013e+01  -2.6147588e+01  -2.4210730e+01  -2.4856350e+01  -2.0014204e+01  -2.9052876e+00  -1.6463296e+01  -2.0014204e+01   0.0000000e+00   0.0000000e+00   0.0000000e+00   0.0000000e+00
  -2.0014204e+01  -4.8421460e+00  -1.0329912e+01  -1.0975531e+01  -2.8407257e+01  -1.7431726e+01  -3.8737168e+00  -2.4210730e+01  -2.3887920e+01  -1.8400155e+01  -2.7761637e+01  -4.5193363e+00  -2.0659823e+01  -2.7438827e+01  -2.3565111e+01  -2.4533540e+01  -2.0337013e+01  -3.8737168e+00  -1.6463296e+01  -1.9691394e+01   0.0000000e+00   0.0000000e+00   0.0000000e+00   0.0000000e+00
  -1.9045774e+01  -2.5824779e+00  -9.3614823e+00  -8.0702434e+00  -2.6793208e+01  -1.3558009e+01  -1.9368584e+00  -2.1628252e+01  -2.2596681e+01  -1.7754535e+01  -2.6793208e+01  -2.9052876e+00  -2.0982633e+01  -2.4210730e+01  -2.1628252e+01  -2.1951062e+01  -1.6786106e+01  -3.2280973e+00  -1.3880819e+01  -1.7108916e+01   0.0000000e+00   0.0000000e+00   0.0000000e+00   0.0000000e+00
  -1.6786106e+01  -3.2280973e-01  -9.6842920e+00  -4.5193363e+00  -2.4856350e+01  -9.3614823e+00   3.2280973e-01  -1.8722965e+01  -2.0337013e+01  -1.6786106e+01  -2.6147588e+01  -9.6842920e-01  -2.0982633e+01  -1.9368584e+01  -1.9368584e+01  -1.9045774e+01  -1.2266770e+01  -1.9368584e+00  -1.0652721e+01  -1.4203628e+01   0.0000000e+00   0.0000000e+00   0.0000000e+00   0.0000000e+00
  -1.5172058e+01   6.4561947e-01  -1.0329912e+01  -1.9368584e+00  -2.3887920e+01  -8.0702434e+00   1.2912389e+00  -1.7108916e+01  -1.8722965e+01  -1.5817677e+01  -2.5179159e+01   3.2280973e-01  -2.0014204e+01  -1.6463296e+01  -1.8077345e+01  -1.7108916e+01  -9.6842920e+00  -1.2912389e+00  -8.3930531e+00  -1.2589580e+01   0.0000000e+00   0.0000000e+00   0.0000000e+00   0.0000000e+00
  -1.5172058e+01  -9.6842920e-01  -1.0652721e+01  -2.5824779e+00  -2.4210730e+01  -1.1298341e+01   3.2280973e-01  -1.8077345e+01  -1.8400155e+01  -1.5494867e+01  -2.5179159e+01   3.2280973e-01  -1.9045774e+01  -1.7431726e+01  -1.8077345e+01  -1.8077345e+01  -1.0652721e+01  -2.2596681e+00  -9.3614823e+00  -1.3558009e+01   0.0000000e+00   0.0000000e+00   0.0000000e+00   0.0000000e+00
  -1.6463296e+01  -3.5509071e+00  -1.0652721e+01  -4.8421460e+00  -2.4856350e+01  -1.6463296e+01  -1.9368584e+00  -2.0337013e+01  -1.9045774e+01  -1.5172058e+01  -2.5501969e+01  -6.4561947e-01  -1.8077345e+01  -2.1305442e+01  -1.8722965e+01  -2.0659823e+01  -1.4203628e+01  -3.8737168e+00  -1.0975531e+01  -1.6786106e+01   0.0000000e+00   0.0000000e+00   0.0000000e+00   0.0000000e+00
  -1.7108916e+01  -4.8421460e+00  -1.0329912e+01  -6.4561947e+00  -2.4856350e+01  -2.0014204e+01  -3.5509071e+00  -2.1951062e+01  -1.9691394e+01  -1.5172058e+01  -2.5501969e+01  -9.6842920e-01  -1.7108916e+01  -2.4210730e+01  -1.9045774e+01  -2.2273872e+01  -1.7108916e+01  -4.8421460e+00  -1.1621150e+01  -1.9691394e+01   0.0000000e+00   0.0000000e+00   0.0000000e+00   0.0000000e+00
  -1.6786106e+01  -3.8737168e+00  -1.0007102e+01  -5.8105752e+00  -2.3565111e+01  -1.9045774e+01  -3.5509071e+00  -2.1951062e+01  -1.9045774e+01  -1.5172058e+01  -2.5179159e+01  -3.2280973e-01  -1.7108916e+01  -2.3887920e+01  -1.8077345e+01  -2.2273872e+01  -1.6786106e+01  -3.8737168e+00  -9.3614823e+00  -2.0982633e+01   0.0000000e+00   0.0000000e+00   0.0000000e+00   0.0000000e+00
  -1.4203628e+01  -9.6842920e-01  -1.0652721e+01  -2.5824779e+00  -2.0982633e+01  -1.3558009e+01  -1.6140487e+00  -1.9691394e+01  -1.7108916e+01  -1.4526438e+01  -2.3887920e+01   2.2596681e+00  -1.7108916e+01  -1.9045774e+01  -1.5817677e+01  -1.9368584e+01  -1.2912389e+01  -6.4561947e-01  -4.5193363e+00  -1.9691394e+01   0.0000000e+00   0.0000000e+00   0.0000000e+00   0.0000000e+00
  -1.1298341e+01   1.9368584e+00  -1.1943960e+01   1.2912389e+00  -1.8722965e+01  -7.4246239e+00   6.4561947e-01  -1.6786106e+01  -1.4849248e+01  -1.3880819e+01  -2.2919491e+01   4.5193363e+00  -1.7431726e+01  -1.3235199e+01  -1.3235199e+01  -1.5817677e+01  -8.0702434e+00   3.2280973e+00   3.2280973e-01  -1.7431726e+01   0.0000000e+00   0.0000000e+00   0.0000000e+00   0.0000000e+00
  -8.7158628e+00   2.9052876e+00  -1.3235199e+01   3.5509071e+00  -1.6786106e+01  -4.1965265e+00   1.6140487e+00  -1.5172058e+01  -1.3235199e+01  -1.3558009e+01  -2.1951062e+01   6.7790044e+00  -1.7108916e+01  -9.6842920e+00  -1.1621150e+01  -1.3558009e+01  -5.1649558e+00   5.8105752e+00   2.5824779e+00  -1.5494867e+01   0.0000000e+00   0.0000000e+00   0.0000000e+00   0.0000000e+00
  -8.0702434e+00   1.2912389e+00  -1.4203628e+01   3.5509071e+00  -1.6140487e+01  -5.4877655e+00   1.2912389e+00  -1.5494867e+01  -1.2912389e+01  -1.3558009e+01  -2.1951062e+01   8.0702434e+00  -1.6140487e+01  -1.0329912e+01  -1.0975531e+01  -1.3558009e+01  -6.1333850e+00   6.7790044e+00   1.2912389e+00  -1.5172058e+01   0.0000000e+00   0.0000000e+00   0.0000000e+00   0.0000000e+00
  -9.0386726e+00  -1.6140487e+00  -1.4526438e+01   1.6140487e+00  -1.6463296e+01  -9.6842920e+00  -6.4561947e-01  -1.7108916e+01  -1.3235199e+01  -1.3558009e+01  -2.2596681e+01   8.3930531e+00  -1.4526438e+01  -1.4203628e+01  -1.1621150e+01  -1.5494867e+01  -9.6842920e+00   6.1333850e+00  -2.5824779e+00  -1.6140487e+01   0.0000000e+00   0.0000000e+00   0.0000000e+00   0.0000000e+00
  -1.0329912e+01  -4.1965265e+00  -1.4203628e+01  -3.2280973e-01  -1.6786106e+01  -1.3235199e+01  -1.9368584e+00  -1.8400155e+01  -1.4203628e+01  -1.4203628e+01  -2.3565111e+01   8.7158628e+00  -1.3558009e+01  -1.8077345e+01  -1.2266770e+01  -1.6786106e+01  -1.2912389e+01   5.1649558e+00  -6.1333850e+00  -1.6786106e+01   0.0000000e+00   0.0000000e+00   0.0000000e+00   0.0000000e+00
  -1.0975531e+01  -3.8737168e+00  -1.3880819e+01  -3.2280973e-01  -1.6463296e+01  -1.3235199e+01  -1.2912389e+00  -1.8400155e+01  -1.4203628e+01  -1.4203628e+01  -2.4533540e+01   9.3614823e+00  -1.3235199e+01  -1.9045774e+01  -1.1943960e+01  -1.6463296e+01  -1.3235199e+01   5.1649558e+00  -7.4246239e+00  -1.6463296e+01   0.0000000e+00   0.0000000e+00   0.0000000e+00   0.0000000e+00
  -1.0652721e+01  -2.5824779e+00  -1.4526438e+01   9.6842920e-01  -1.5817677e+01  -1.0007102e+01   0.0000000e+00  -1.7431726e+01  -1.3880819e+01  -1.4849248e+01  -2.5824779e+01   1.0007102e+01  -1.3880819e+01  -1.6463296e+01  -1.1298341e+01  -1.4849248e+01  -1.0975531e+01   5.4877655e+00  -6.7790044e+00  -1.5172058e+01   0.0000000e+00   0.0000000e+00   0.0000000e+00   0.0000000e+00
  -9.3614823e+00  -9.6842920e-01  -1.5172058e+01   2.5824779e+00  -1.5172058e+01  -6.1333850e+00   1.6140487e+00  -1.6140487e+01  -1.3235199e+01  -1.5494867e+01  -2.6793208e+01   1.0652721e+01  -1.4526438e+01  -1.2589580e+01  -1.0652721e+01  -1.2589580e+01  -7.4246239e+00   5.8105752e+00  -5.1649558e+00  -1.3880819e+01   0.0000000e+00   0.0000000e+00   0.0000000e+00   0.0000000e+00
  -8.7158628e+00  -1.2912389e+00  -1.5494867e+01   2.5824779e+00  -1.5494867e+01  -4.8421460e+00   1.6140487e+00  -1.6786106e+01  -1.3235199e+01  -1.6463296e+01  -2.8084447e+01   1.0007102e+01  -1.4526438e+01  -1.0007102e+01  -1.0975531e+01  -1.2266770e+01  -6.1333850e+00   4.8421460e+00  -5.1649558e+00  -1.4203628e+01   0.0000000e+00   0.0000000e+00   0.0000000e+00   0.0000000e+00
  -9.3614823e+00  -3.2280973e+00  -1.5172058e+01   3.2280973e-01  -1.6140487e+01  -7.4246239e+00   0.0000000e+00  -1.8722965e+01  -1.4203628e+01  -1.7108916e+01  -2.9375686e+01   8.7158628e+00  -1.3880819e+01  -1.1298341e+01  -1.1943960e+01  -1.4203628e+01  -7.7474336e+00   1.9368584e+00  -7.7474336e+00  -1.6140487e+01   0.0000000e+00   0.0000000e+00   0.0000000e+00   0.0000000e+00
  -1.1298341e+01  -5.8105752e+00  -1.3235199e+01  -2.9052876e+00  -1.7431726e+01  -1.2266770e+01  -2.5824779e+00  -2.0982633e+01  -1.5494867e+01  -1.7754535e+01  -3.0989735e+01   7.1018142e+00  -1.2589580e+01  -1.4849248e+01  -1.3558009e+01  -1.7431726e+01  -1.1298341e+01  -1.2912389e+00  -1.1621150e+01  -1.8722965e+01   0.0000000e+00   0.0000000e+00   0.0000000e+00   0.0000000e+00
  -1.3235199e+01  -7.4246239e+00  -1.1298341e+01  -5.1649558e+00  -1.8722965e+01  -1.6140487e+01  -4.8421460e+00  -2.1951062e+01  -1.6786106e+01  -1.8400155e+01  -3.2280973e+01   6.1333850e+00  -1.1621150e+01  -1.8400155e+01  -1.4849248e+01  -2.0014204e+01  -1.4526438e+01  -3.8737168e+00  -1.4849248e+01  -2.0337013e+01   0.0000000e+00   0.0000000e+00   0.0000000e+00   0.0000000e+00
  -1.4203628e+01  -6.7790044e+00  -9.6842920e+00  -4.5193363e+00  -1.9691394e+01  -1.6140487e+01  -5.1649558e+00  -2.0014204e+01  -1.7431726e+01  -1.8722965e+01  -3.3572212e+01   5.4877655e+00  -1.1943960e+01  -1.9045774e+01  -1.5494867e+01  -2.0337013e+01  -1.4849248e+01  -4.5193363e+00  -1.5817677e+01  -1.9368584e+01   0.0000000e+00   0.0000000e+00   0.0000000e+00   0.0000000e+00
  -1.3558009e+01  -3.8737168e+00  -9.0386726e+00  -9.6842920e-01  -1.9368584e+01  -1.2266770e+01  -3.5509071e+00  -1.5817677e+01  -1.6786106e+01  -1.8722965e+01  -3.3572212e+01   5.8105752e+00  -1.2912389e+01  -1.5494867e+01  -1.4526438e+01  -1.7431726e+01  -1.1298341e+01  -3.2280973e+00  -1.3558009e+01  -1.6140487e+01   0.0000000e+00   0.0000000e+00   0.0000000e+00   0.0000000e+00
  -1.2266770e+01  -6.4561947e-01  -9.0386726e+00   4.1965265e+00  -1.9045774e+01  -7.1018142e+00  -1.6140487e+00  -1.0975531e+01  -1.5172058e+01  -1.8077345e+01  -3.2926593e+01   5.4877655e+00  -1.3880819e+01  -1.0329912e+01  -1.3235199e+01  -1.3880819e+01  -6.4561947e+00  -9.6842920e-01  -1.0329912e+01  -1.1943960e+01   0.0000000e+00   0.0000000e+00   0.0000000e+00   0.0000000e+00
  -1.0975531e+01   1.2912389e+00  -9.0386726e+00   7.7474336e+00  -1.8722965e+01  -4.1965265e+00  -3.2280973e-01  -8.0702434e+00  -1.3880819e+01  -1.7754535e+01  -3.1635354e+01   5.1649558e+00  -1.4203628e+01  -6.4561947e+00  -1.2266770e+01  -1.0975531e+01  -3.2280973e+00   9.6842920e-01  -8.0702434e+00  -8.7158628e+00   0.0000000e+00   0.0000000e+00   0.0000000e+00   0.0000000e+00
  -1.0975531e+01   1.2912389e+00  -9.3614823e+00   8.3930531e+00  -1.8722965e+01  -5.1649558e+00  -6.4561947e-01  -8.0702434e+00  -1.3558009e+01  -1.7108916e+01  -3.0666925e+01   3.5509071e+00  -1.3558009e+01  -6.4561947e+00  -1.2912389e+01  -1.0975531e+01  -3.2280973e+00   1.2912389e+00  -9.3614823e+00  -7.7474336e+00   0.0000000e+00   0.0000000e+00   0.0000000e+00   0.0000000e+00
  -1.2589580e+01   3.2280973e-01  -9.0386726e+00   5.8105752e+00  -1.9045774e+01  -9.0386726e+00  -1.9368584e+00  -9.6842920e+00  -1.4203628e+01  -1.7108916e+01  -3.0666925e+01   1.9368584e+00  -1.2589580e+01  -1.0329912e+01  -1.4203628e+01  -1.3235199e+01  -6.4561947e+00   9.6842920e-01  -1.3235199e+01  -8.3930531e+00   0.0000000e+00   0.0000000e+00   0.0000000e+00   0.0000000e+00
  -1.5172058e+01   0.0000000e+00  -9.0386726e+00   2.5824779e+00  -1.9045774e+01  -1.2912389e+01  -3.5509071e+00  -1.2266770e+01  -1.5817677e+01  -1.7754535e+01  -3.1312544e+01   3.2280973e-01  -1.2912389e+01  -1.4849248e+01  -1.6463296e+01  -1.6140487e+01  -1.0007102e+01   3.2280973e-01  -1.7754535e+01  -9.3614823e+00   0.0000000e+00   0.0000000e+00   0.0000000e+00   0.0000000e+00
  -1.6463296e+01   9.6842920e-01  -9.6842920e+00   6.4561947e-01  -1.9045774e+01  -1.3558009e+01  -3.5509071e+00  -1.3558009e+01  -1.7108916e+01  -1.8722965e+01  -3.2603783e+01  -6.4561947e-01  -1.4203628e+01  -1.7108916e+01  -1.8077345e+01  -1.7431726e+01  -1.1298341e+01   9.6842920e-01  -2.0337013e+01  -8.7158628e+00   0.0000000e+00   0.0000000e+00   0.0000000e+00   0.0000000e+00
  -1.6786106e+01   3.2280973e+00  -1.1621150e+01   0.0000000e+00  -1.8722965e+01  -1.1298341e+01  -2.5824779e+00  -1.3880819e+01  -1.8077345e+01  -2.0337013e+01  -3.4217832e+01  -1.2912389e+00  -1.7108916e+01  -1.6140487e+01  -1.9368584e+01  -1.7108916e+01  -1.0007102e+01   2.5824779e+00  -2.0337013e+01  -7.7474336e+00   0.0000000e+00   0.0000000e+00   0.0000000e+00   0.0000000e+00
  -1.6140487e+01   5.8105752e+00  -1.3235199e+01   6.4561947e-01  -1.8400155e+01  -7.4246239e+00  -3.2280973e-01  -1.3235199e+01  -1.8722965e+01  -2.1305442e+01  -3.5186261e+01  -1.6140487e+00  -1.9691394e+01  -1.2589580e+01  -2.0014204e+01  -1.5817677e+01  -6.7790044e+00   5.1649558e+00  -1.7431726e+01  -6.7790044e+00   0.0000000e+00   0.0000000e+00   0.0000000e+00   0.0000000e+00
  -1.5817677e+01   6.7790044e+00  -1.4203628e+01  -3.2280973e-01  -1.8722965e+01  -5.8105752e+00   9.6842920e-01  -1.3558009e+01  -1.9368584e+01  -2.1951062e+01  -3.5831881e+01  -2.5824779e+00  -2.1628252e+01  -1.0007102e+01  -2.0659823e+01  -1.5494867e+01  -5.1649558e+00   6.4561947e+00  -1.4526438e+01  -8.3930531e+00   0.0000000e+00   0.0000000e+00   0.0000000e+00   0.0000000e+00
  -1.6140487e+01   5.8105752e+00  -1.3880819e+01  -3.2280973e+00  -2.0014204e+01  -7.7474336e+00   1.2912389e+00  -1.4526438e+01  -2.0014204e+01  -2.1628252e+01  -3.6154690e+01  -3.5509071e+00  -2.1951062e+01  -1.0007102e+01  -2.1951062e+01  -1.6463296e+01  -6.1333850e+00   6.7790044e+00  -1.2912389e+01  -1.1943960e+01   0.0000000e+00   0.0000000e+00   0.0000000e+00   0.0000000e+00
  -1.7108916e+01   3.8737168e+00  -1.2266770e+01  -7.1018142e+00  -2.1305442e+01  -1.2266770e+01   6.4561947e-01  -1.6140487e+01  -2.0337013e+01  -2.0337013e+01  -3.6154690e+01  -4.1965265e+00  -2.0982633e+01  -1.2912389e+01  -2.3242301e+01  -1.8722965e+01  -9.6842920e+00   6.1333850e+00  -1.3235199e+01  -1.6786106e+01   0.0000000e+00   0.0000000e+00   0.0000000e+00   0.0000000e+00
  -1.7431726e+01   2.2596681e+00  -1.0007102e+01  -1.0329912e+01  -2.2273872e+01  -1.6140487e+01   3.2280973e-01  -1.7431726e+01  -2.0337013e+01  -1.8722965e+01  -3.5186261e+01  -3.8737168e+00  -1.9691394e+01  -1.5817677e+01  -2.3887920e+01  -2.0982633e+01  -1.3235199e+01   5.4877655e+00  -1.4849248e+01  -2.0659823e+01   0.0000000e+00   0.0000000e+00   0.0000000e+00   0.0000000e+00
  -1.7108916e+01   1.9368584e+00  -8.3930531e+00  -1.0975531e+01  -2.2596681e+01  -1.7108916e+01   3.2280973e-01  -1.7108916e+01  -1.9691394e+01  -1.7431726e+01  -3.4217832e+01  -3.2280973e+00  -1.9045774e+01  -1.6786106e+01  -2.3887920e+01  -2.1951062e+01  -1.4203628e+01   5.8105752e+00  -1.6463296e+01  -2.2273872e+01   0.0000000e+00   0.0000000e+00   0.0000000e+00   0.0000000e+00
  -1.5172058e+01   2.9052876e+00  -7.1018142e+00  -8.0702434e+00  -2.1951062e+01  -1.4526438e+01   1.6140487e+00  -1.4849248e+01  -1.8077345e+01  -1.6140487e+01  -3.2603783e+01  -1.6140487e+00  -1.9045774e+01  -1.3880819e+01  -2.2919491e+01  -2.1305442e+01  -1.1943960e+01   7.1018142e+00  -1.6786106e+01  -2.0659823e+01   0.0000000e+00   0.0000000e+00   0.0000000e+00   0.0000000e+00
  -1.2266770e+01   4.8421460e+00  -6.4561947e+00  -3.5509071e+00  -2.0337013e+01  -1.0007102e+01   3.5509071e+00  -1.1621150e+01  -1.5494867e+01  -1.5172058e+01  -3.0344115e+01   6.4561947e-01  -1.9045774e+01  -9.3614823e+00  -2.0982633e+01  -1.9368584e+01  -7.7474336e+00   8.7158628e+00  -1.6463296e+01  -1.7431726e+01   0.0000000e+00   0.0000000e+00   0.0000000e+00   0.0000000e+00
  -9.6842920e+00   6.1333850e+00  -5.4877655e+00   9.6842920e-01  -1.8722965e+01  -7.1018142e+00   5.1649558e+00  -8.7158628e+00  -1.2589580e+01  -1.3558009e+01  -2.7438827e+01   2.5824779e+00  -1.7754535e+01  -5.4877655e+00  -1.9368584e+01  -1.7431726e+01  -4.1965265e+00   9.6842920e+00  -1.6140487e+01  -1.4203628e+01   0.0000000e+00   0.0000000e+00   0.0000000e+00   0.0000000e+00
  -8.7158628e+00   5.4877655e+00  -4.5193363e+00   3.2280973e+00  -1.7754535e+01  -7.4246239e+00   4.8421460e+00  -8.0702434e+00  -1.1298341e+01  -1.2266770e+01  -2.4856350e+01   3.5509071e+00  -1.5172058e+01  -5.1649558e+00  -1.8077345e+01  -1.7431726e+01  -3.8737168e+00   8.7158628e+00  -1.7431726e+01  -1.3558009e+01   0.0000000e+00   0.0000000e+00   0.0000000e+00   0.0000000e+00
  -9.3614823e+00   3.8737168e+00  -2.9052876e+00   2.5824779e+00  -1.7754535e+01  -1.0652721e+01   3.5509071e+00  -9.3614823e+00  -1.0975531e+01  -1.1621150e+01  -2.2273872e+01   3.8737168e+00  -1.2589580e+01  -7.7474336e+00  -1.7754535e+01  -1.8722965e+01  -6.4561947e+00   6.4561947e+00  -1.9368584e+01  -1.5172058e+01   0.0000000e+00   0.0000000e+00   0.0000000e+00   0.0000000e+00
  -1.0329912e+01   2.2596681e+00  -1.2912389e+00   6.4561947e-01  -1.7754535e+01  -1.4203628e+01   1.6140487e+00  -1.1621150e+01  -1.0975531e+01  -1.0975531e+01  -2.0014204e+01   3.8737168e+00  -1.0329912e+01  -1.0975531e+01  -1.7754535e+01  -2.0337013e+01  -9.6842920e+00   4.1965265e+00  -2.0659823e+01  -1.8077345e+01   0.0000000e+00   0.0000000e+00   0.0000000e+00   0.0000000e+00
  -1.1298341e+01   1.2912389e+00  -3.2280973e-01  -6.4561947e-01  -1.7754535e+01  -1.4849248e+01   6.4561947e-01  -1.3235199e+01  -1.1621150e+01  -1.0975531e+01  -1.8722965e+01   3.5509071e+00  -1.0007102e+01  -1.2266770e+01  -1.7754535e+01  -2.1305442e+01  -1.1298341e+01   2.5824779e+00  -2.0337013e+01  -2.0659823e+01   0.0000000e+00   0.0000000e+00   0.0000000e+00   0.0000000e+00
  -1.1298341e+01   1.6140487e+00  -3.2280973e-01  -6.4561947e-01  -1.7431726e+01  -1.2266770e+01   9.6842920e-01  -1.3558009e+01  -1.1621150e+01  -1.1621150e+01  -1.7754535e+01   3.2280973e+00  -1.1298341e+01  -1.0007102e+01  -1.7108916e+01  -2.0659823e+01  -9.6842920e+00   2.2596681e+00  -1.7754535e+01  -2.1305442e+01   0.0000000e+00   0.0000000e+00   0.0000000e+00   0.0000000e+00
  -1.0007102e+01   2.9052876e+00  -6.4561947e-01   3.2280973e-01  -1.6140487e+01  -7.1018142e+00   2.2596681e+00  -1.2266770e+01  -1.1298341e+01  -1.2266770e+01  -1.7431726e+01   3.2280973e+00  -1.2589580e+01  -5.1649558e+00  -1.6140487e+01  -1.8722965e+01  -5.4877655e+00   3.2280973e+00  -1.3880819e+01  -2.0337013e+01   0.0000000e+00   0.0000000e+00   0.0000000e+00   0.0000000e+00
  -9.0386726e+00   4.1965265e+00  -3.2280973e-01   6.4561947e-01  -1.4203628e+01  -2.9052876e+00   3.8737168e+00  -1.0975531e+01  -1.0652721e+01  -1.2266770e+01  -1.6786106e+01   3.2280973e+00  -1.3235199e+01  -6.4561947e-01  -1.4849248e+01  -1.6786106e+01  -1.9368584e+00   4.5193363e+00  -1.1621150e+01  -1.8400155e+01   0.0000000e+00   0.0000000e+00   0.0000000e+00   0.0000000e+00
  -8.7158628e+00   4.5193363e+00   9.6842920e-01  -9.6842920e-01  -1.2912389e+01  -1.6140487e+00   4.5193363e+00  -1.0007102e+01  -1.0007102e+01  -1.2266770e+01  -1.5817677e+01   2.5824779e+00  -1.2589580e+01   9.6842920e-01  -1.3880819e+01  -1.6140487e+01  -6.4561947e-01   5.4877655e+00  -1.1621150e+01  -1.6786106e+01   0.0000000e+00   0.0000000e+00   0.0000000e+00   0.0000000e+00
  -1.0329912e+01   3.5509071e+00   2.5824779e+00  -4.5193363e+00  -1.2912389e+01  -4.1965265e+00   3.8737168e+00  -1.0975531e+01  -1.0652721e+01  -1.2589580e+01  -1.5494867e+01   1.6140487e+00  -1.1621150e+01  -1.6140487e+00  -1.4203628e+01  -1.7108916e+01  -2.5824779e+00   5.1649558e+00  -1.4526438e+01  -1.7108916e+01   0.0000000e+00   0.0000000e+00   0.0000000e+00   0.0000000e+00
  -1.2266770e+01   2.2596681e+00   4.5193363e+00  -7.7474336e+00  -1.3558009e+01  -7.4246239e+00   2.9052876e+00  -1.1943960e+01  -1.1621150e+01  -1.3235199e+01  -1.5172058e+01   3.2280973e-01  -1.1298341e+01  -5.1649558e+00  -1.4849248e+01  -1.9368584e+01  -5.4877655e+00   4.8421460e+00  -1.7754535e+01  -1.8077345e+01   0.0000000e+00   0.0000000e+00   0.0000000e+00   0.0000000e+00
  -1.4203628e+01   1.6140487e+00   4.8421460e+00  -9.6842920e+00  -1.5172058e+01  -9.3614823e+00   1.9368584e+00  -1.2266770e+01  -1.3558009e+01  -1.5172058e+01  -1.6140487e+01  -9.6842920e-01  -1.2589580e+01  -8.3930531e+00  -1.6140487e+01  -2.1305442e+01  -7.7474336e+00   4.5193363e+00  -1.9691394e+01  -1.9045774e+01   0.0000000e+00   0.0000000e+00   0.0000000e+00   0.0000000e+00
  -1.4849248e+01   1.9368584e+00   4.5193363e+00  -9.0386726e+00  -1.6140487e+01  -7.7474336e+00   2.2596681e+00  -1.0975531e+01  -1.4849248e+01  -1.7108916e+01  -1.6786106e+01  -2.2596681e+00  -1.4849248e+01  -8.3930531e+00  -1.6463296e+01  -2.1951062e+01  -6.7790044e+00   5.4877655e+00  -1.8400155e+01  -1.9368584e+01   0.0000000e+00   0.0000000e+00   0.0000000e+00   0.0000000e+00
  -1.3880819e+01   3.2280973e+00   3.2280973e+00  -6.4561947e+00  -1.7108916e+01  -4.5193363e+00   2.9052876e+00  -8.7158628e+00  -1.5172058e+01  -1.8722965e+01  -1.7431726e+01  -2.9052876e+00  -1.6786106e+01  -6.1333850e+00  -1.6140487e+01  -2.0982633e+01  -3.8737168e+00   6.4561947e+00  -1.5172058e+01  -1.8722965e+01   0.0000000e+00   0.0000000e+00   0.0000000e+00   0.0000000e+00
  -1.3235199e+01   3.5509071e+00   2.2596681e+00  -4.1965265e+00  -1.7431726e+01  -2.2596681e+00   3.5509071e+00  -7.1018142e+00  -1.4849248e+01  -1.9691394e+01  -1.8077345e+01  -3.5509071e+00  -1.7754535e+01  -4.1965265e+00  -1.5494867e+01  -1.9691394e+01  -1.6140487e+00   7.1018142e+00  -1.1943960e+01  -1.8077345e+01   0.0000000e+00   0.0000000e+00   0.0000000e+00   0.0000000e+00
  -1.3235199e+01   2.9052876e+00   2.5824779e+00  -4.1965265e+00  -1.7754535e+01  -3.2280973e+00   3.2280973e+00  -6.7790044e+00  -1.4849248e+01  -1.9691394e+01  -1.8722965e+01  -4.5193363e+00  -1.7108916e+01  -4.8421460e+00  -1.4849248e+01  -1.9691394e+01  -1.6140487e+00   6.4561947e+00  -1.1298341e+01  -1.8077345e+01   0.0000000e+00   0.0000000e+00   0.0000000e+00   0.0000000e+00
  -1.5172058e+01   9.6842920e-01   3.8737168e+00  -6.7790044e+00  -1.9368584e+01  -7.4246239e+00   1.9368584e+00  -8.0702434e+00  -1.5172058e+01  -1.9368584e+01  -1.9368584e+01  -5.8105752e+00  -1.5817677e+01  -8.3930531e+00  -1.5172058e+01  -2.0982633e+01  -5.1649558e+00   4.5193363e+00  -1.3235199e+01  -1.9045774e+01   0.0000000e+00   0.0000000e+00   0.0000000e+00   0.0000000e+00
  -1.7754535e+01  -9.6842920e-01   5.8105752e+00  -9.6842920e+00  -2.1305442e+01  -1.2266770e+01   6.4561947e-01  -9.6842920e+00  -1.6463296e+01  -1.9045774e+01  -2.0014204e+01  -7.1018142e+00  -1.4849248e+01  -1.3558009e+01  -1.5172058e+01  -2.2919491e+01  -1.0007102e+01   1.6140487e+00  -1.6140487e+01  -2.0014204e+01   0.0000000e+00   0.0000000e+00   0.0000000e+00   0.0000000e+00
  -2.0659823e+01  -2.2596681e+00   7.4246239e+00  -1.2266770e+01  -2.3887920e+01  -1.5494867e+01   0.0000000e+00  -1.0652721e+01  -1.8400155e+01  -1.9691394e+01  -2.1305442e+01  -8.3930531e+00  -1.5817677e+01  -1.7431726e+01  -1.5817677e+01  -2.4533540e+01  -1.4203628e+01  -1.2912389e+00  -1.8722965e+01  -2.0337013e+01   0.0000000e+00   0.0000000e+00   0.0000000e+00   0.0000000e+00
  -2.1951062e+01  -1.9368584e+00   8.3930531e+00  -1.2912389e+01  -2.6147588e+01  -1.5494867e+01   6.4561947e-01  -1.0007102e+01  -2.0014204e+01  -2.0659823e+01  -2.2919491e+01  -9.3614823e+00  -1.8077345e+01  -1.8077345e+01  -1.5817677e+01  -2.4856350e+01  -1.5494867e+01  -3.8737168e+00  -1.9045774e+01  -1.9368584e+01   0.0000000e+00   0.0000000e+00   0.0000000e+00   0.0000000e+00
  -2.1628252e+01   0.0000000e+00   9.3614823e+00  -1.1621150e+01  -2.7116018e+01  -1.2912389e+01   2.2596681e+00  -7.7474336e+00  -2.0659823e+01  -2.1628252e+01  -2.3565111e+01  -9.3614823e+00  -2.0014204e+01  -1.5494867e+01  -1.4849248e+01  -2.2919491e+01  -1.3880819e+01  -5.1649558e+00  -1.6463296e+01  -1.7431726e+01   0.0000000e+00   0.0000000e+00   0.0000000e+00   0.0000000e+00
  -2.0014204e+01   1.9368584e+00   1.0007102e+01  -1.0652721e+01  -2.7116018e+01  -1.0652721e+01   3.8737168e+00  -5.8105752e+00  -2.0659823e+01  -2.1628252e+01  -2.3565111e+01  -9.0386726e+00  -2.0659823e+01  -1.2266770e+01  -1.3558009e+01  -2.0982633e+01  -1.1943960e+01  -6.4561947e+00  -1.3235199e+01  -1.5817677e+01   0.0000000e+00   0.0000000e+00   0.0000000e+00   0.0000000e+00
  -1.8722965e+01   2.5824779e+00   1.0975531e+01  -1.0652721e+01  -2.6147588e+01  -1.0975531e+01   4.1965265e+00  -5.1649558e+00  -2.0014204e+01  -2.0982633e+01  -2.2596681e+01  -9.0386726e+00  -1.9045774e+01  -1.0975531e+01  -1.1943960e+01  -1.9368584e+01  -1.1621150e+01  -8.3930531e+00  -1.0975531e+01  -1.5172058e+01   0.0000000e+00   0.0000000e+00   0.0000000e+00   0.0000000e+00
  -1.8722965e+01   1.6140487e+00   1.2589580e+01  -1.2266770e+01  -2.5179159e+01  -1.3880819e+01   2.9052876e+00  -5.8105752e+00  -1.9368584e+01  -2.0014204e+01  -2.1305442e+01  -9.6842920e+00  -1.6463296e+01  -1.2589580e+01  -1.0329912e+01  -1.8722965e+01  -1.3880819e+01  -1.0975531e+01  -1.0652721e+01  -1.5817677e+01   0.0000000e+00   0.0000000e+00   0.0000000e+00   0.0000000e+00
  -1.9045774e+01   0.0000000e+00   1.3880819e+01  -1.4203628e+01  -2.3887920e+01  -1.7431726e+01   1.6140487e+00  -6.7790044e+00  -1.9045774e+01  -1.9045774e+01  -1.9691394e+01  -1.0007102e+01  -1.4203628e+01  -1.5817677e+01  -9.3614823e+00  -1.8722965e+01  -1.7108916e+01  -1.3558009e+01  -1.1298341e+01  -1.6140487e+01   0.0000000e+00   0.0000000e+00   0.0000000e+00   0.0000000e+00
  -1.9691394e+01  -6.4561947e-01   1.4526438e+01  -1.5172058e+01  -2.2919491e+01  -1.8722965e+01   3.2280973e-01  -7.1018142e+00  -1.8400155e+01  -1.8722965e+01  -1.8722965e+01  -1.0007102e+01  -1.3558009e+01  -1.8077345e+01  -8.3930531e+00  -1.8400155e+01  -1.8722965e+01  -1.5172058e+01  -1.0975531e+01  -1.5172058e+01   0.0000000e+00   0.0000000e+00   0.0000000e+00   0.0000000e+00
  -1.9045774e+01   6.4561947e-01   1.3880819e+01  -1.2912389e+01  -2.0659823e+01  -1.5817677e+01   1.2912389e+00  -5.1649558e+00  -1.7108916e+01  -1.8400155e+01  -1.7108916e+01  -8.3930531e+00  -1.3880819e+01  -1.6786106e+01  -6.4561947e+00  -1.6140487e+01  -1.6463296e+01  -1.5172058e+01  -8.7158628e+00  -1.1943960e+01   0.0000000e+00   0.0000000e+00   0.0000000e+00   0.0000000e+00
  -1.7108916e+01   2.5824779e+00   1.1621150e+01  -9.0386726e+00  -1.8722965e+01  -1.0652721e+01   2.5824779e+00  -2.5824779e+00  -1.5172058e+01  -1.8400155e+01  -1.6140487e+01  -6.1333850e+00  -1.4849248e+01  -1.2589580e+01  -4.5193363e+00  -1.3235199e+01  -1.2266770e+01  -1.4203628e+01  -5.1649558e+00  -7.7474336e+00   0.0000000e+00   0.0000000e+00   0.0000000e+00   0.0000000e+00
