nt = 4200
nc = 24
channels = F7 T3 T5 Fp1 F3 C3 P3 O1 F8 T4 T6 Fp2 F4 C4 P4 O2 Fz Cz Pz Oz TR SOn Occ RAp
ne = 20
type = B
fsmp = 600.0000000000
orig.file = s4_bl1
orig.nt = 290840
orig.sample_range = 205274 209473
orig.fsmp = 600
orig.subject = 4
orig.run = 36
   1.0586472e+01   5.4536372e+00  -1.1228077e+01   2.2456153e+00  -1.0265670e+01  -6.4160438e+00  -1.6040109e+01  -7.6992526e+00  -4.0741878e+01  -9.3032635e+00  -1.7964923e+01   7.0576482e+00  -2.5984977e+01  -2.5984977e+01  -2.4060164e+01   3.2080219e+00   2.5664175e+00  -9.3032635e+00  -1.4115296e+01  -1.3473692e+01   0.0000000e+00   0.0000000e+00   0.0000000e+00   0.0000000e+00
   2.1814549e+01   5.4536372e+00  -1.0907274e+01  -2.5664175e+00  -2.8551395e+01  -9.6240657e+00  -1.6360912e+01  -6.4160438e+00  -5.4215570e+01  -1.1869681e+01  -2.0852142e+01   1.9248131e+00  -2.9192999e+01  -2.8230593e+01  -2.6305780e+01   3.5288241e+00  -3.2080219e+00  -1.3152890e+01  -1.5398505e+01  -1.3152890e+01   0.0000000e+00   0.0000000e+00   0.0000000e+00   0.0000000e+00
   2.9834604e+01   5.7744394e+00  -9.6240657e+00  -6.4160438e+00  -4.2987493e+01  -1.5077703e+01  -1.6681714e+01  -5.1328350e+00  -6.7368460e+01  -1.5398505e+01  -2.4380966e+01  -4.4912307e+00  -3.6250647e+01  -3.4005032e+01  -3.0155406e+01   3.5288241e+00  -9.6240657e+00  -1.7323318e+01  -1.8285725e+01  -1.3794494e+01   0.0000000e+00   0.0000000e+00   0.0000000e+00   0.0000000e+00
   3.2721823e+01   6.0952416e+00  -8.0200547e+00  -7.6992526e+00  -4.7799526e+01  -2.0531340e+01  -1.7644120e+01  -4.8120328e+00  -7.6030119e+01  -1.7002516e+01  -2.7909791e+01  -9.6240657e+00  -4.2025087e+01  -4.0421076e+01  -3.4325834e+01   2.8872197e+00  -1.3473692e+01  -2.0531340e+01  -2.1493747e+01  -1.5077703e+01   0.0000000e+00   0.0000000e+00   0.0000000e+00   0.0000000e+00
   2.9192999e+01   7.0576482e+00  -5.1328350e+00  -4.8120328e+00  -3.8496263e+01  -2.1493747e+01  -1.7002516e+01  -3.2080219e+00  -7.5067712e+01  -1.2832088e+01  -2.8872197e+01  -1.0586472e+01  -4.2025087e+01  -4.2666691e+01  -3.5929845e+01   3.2080219e+00  -1.2190483e+01  -2.0210538e+01  -2.2456153e+01  -1.5719307e+01   0.0000000e+00   0.0000000e+00   0.0000000e+00   0.0000000e+00
   1.9568934e+01   7.6992526e+00  -2.2456153e+00  -6.4160438e-01  -1.9889736e+01  -1.7964923e+01  -1.6040109e+01  -1.9248131e+00  -6.5443647e+01  -2.5664175e+00  -2.8230593e+01  -8.3408569e+00  -3.6892252e+01  -4.0741878e+01  -3.5609043e+01   3.8496263e+00  -6.7368460e+00  -1.7323318e+01  -2.1493747e+01  -1.5398505e+01   0.0000000e+00   0.0000000e+00   0.0000000e+00   0.0000000e+00
   7.6992526e+00   7.6992526e+00   3.2080219e-01   2.5664175e+00   0.0000000e+00  -1.1548879e+01  -1.3794494e+01   0.0000000e+00  -5.1007548e+01   9.3032635e+00  -2.6626582e+01  -4.4912307e+00  -2.9834604e+01  -3.5929845e+01  -3.3684230e+01   5.1328350e+00  -6.4160438e-01  -1.3152890e+01  -1.9568934e+01  -1.3794494e+01   0.0000000e+00   0.0000000e+00   0.0000000e+00   0.0000000e+00
  -1.9248131e+00   7.3784504e+00   2.8872197e+00   3.5288241e+00   1.2190483e+01  -5.4536372e+00  -1.1228077e+01   2.2456153e+00  -3.7213054e+01   1.6360912e+01  -2.4380966e+01  -1.2832088e+00  -2.4380966e+01  -3.1117812e+01  -3.1117812e+01   7.3784504e+00   3.5288241e+00  -9.6240657e+00  -1.7323318e+01  -1.1869681e+01   0.0000000e+00   0.0000000e+00   0.0000000e+00   0.0000000e+00
  -8.0200547e+00   6.0952416e+00   4.1704285e+00   2.2456153e+00   1.3794494e+01  -1.9248131e+00  -8.3408569e+00   4.8120328e+00  -2.6947384e+01   1.3473692e+01  -2.2776955e+01   6.4160438e-01  -2.1493747e+01  -2.6947384e+01  -2.9192999e+01   9.9448679e+00   4.8120328e+00  -7.0576482e+00  -1.6040109e+01  -9.9448679e+00   0.0000000e+00   0.0000000e+00   0.0000000e+00   0.0000000e+00
  -1.0907274e+01   4.8120328e+00   4.8120328e+00   9.6240657e-01   9.6240657e+00  -1.6040109e+00  -6.0952416e+00   7.0576482e+00  -1.8606527e+01   1.2832088e+00  -2.0852142e+01   2.5664175e+00  -1.8927329e+01  -2.1814549e+01  -2.6305780e+01   1.2511285e+01   4.4912307e+00  -5.4536372e+00  -1.5398505e+01  -8.3408569e+00   0.0000000e+00   0.0000000e+00   0.0000000e+00   0.0000000e+00
  -1.3473692e+01   4.1704285e+00   4.1704285e+00   3.2080219e-01   5.4536372e+00  -2.5664175e+00  -5.1328350e+00   8.9824613e+00  -1.0586472e+01  -1.3473692e+01  -1.8606527e+01   4.8120328e+00  -1.5077703e+01  -1.5398505e+01  -2.3097758e+01   1.4436099e+01   4.8120328e+00  -3.5288241e+00  -1.4756901e+01  -7.0576482e+00   0.0000000e+00   0.0000000e+00   0.0000000e+00   0.0000000e+00
  -1.6681714e+01   4.1704285e+00   2.5664175e+00   6.4160438e-01   5.1328350e+00  -3.2080219e+00  -6.0952416e+00   9.9448679e+00  -2.8872197e+00  -2.4701769e+01  -1.6681714e+01   7.6992526e+00  -1.0586472e+01  -9.6240657e+00  -1.9889736e+01   1.5077703e+01   6.0952416e+00  -1.9248131e+00  -1.3794494e+01  -6.7368460e+00   0.0000000e+00   0.0000000e+00   0.0000000e+00   0.0000000e+00
  -1.9889736e+01   5.1328350e+00   0.0000000e+00   1.9248131e+00   8.0200547e+00  -2.5664175e+00  -8.3408569e+00   9.6240657e+00   2.2456153e+00  -3.0155406e+01  -1.5398505e+01   9.6240657e+00  -7.6992526e+00  -6.7368460e+00  -1.7964923e+01   1.4115296e+01   7.3784504e+00  -6.4160438e-01  -1.3152890e+01  -7.0576482e+00   0.0000000e+00   0.0000000e+00   0.0000000e+00   0.0000000e+00
  -2.1172945e+01   6.4160438e+00  -1.9248131e+00   3.8496263e+00   1.1869681e+01  -9.6240657e-01  -1.0586472e+01   8.6616591e+00   3.5288241e+00  -3.1759417e+01  -1.5398505e+01   1.0586472e+01  -7.3784504e+00  -7.3784504e+00  -1.7964923e+01   1.1548879e+01   8.0200547e+00  -3.2080219e-01  -1.3152890e+01  -8.6616591e+00   0.0000000e+00   0.0000000e+00   0.0000000e+00   0.0000000e+00
  -1.8927329e+01   8.6616591e+00  -2.5664175e+00   6.4160438e+00   1.4115296e+01   1.9248131e+00  -1.0907274e+01   7.6992526e+00   6.4160438e-01  -3.2721823e+01  -1.5398505e+01   1.0586472e+01  -8.9824613e+00  -9.9448679e+00  -1.8285725e+01   9.3032635e+00   8.6616591e+00  -3.2080219e-01  -1.3152890e+01  -9.9448679e+00   0.0000000e+00   0.0000000e+00   0.0000000e+00   0.0000000e+00
  -1.4436099e+01   1.0586472e+01  -2.5664175e+00   8.6616591e+00   1.3794494e+01   4.1704285e+00  -9.3032635e+00   6.0952416e+00  -5.1328350e+00  -3.5929845e+01  -1.6040109e+01   9.9448679e+00  -1.1869681e+01  -1.2832088e+01  -1.8927329e+01   7.3784504e+00   8.0200547e+00  -1.2832088e+00  -1.3794494e+01  -1.1228077e+01   0.0000000e+00   0.0000000e+00   0.0000000e+00   0.0000000e+00
  -9.9448679e+00   1.1548879e+01  -2.5664175e+00   9.3032635e+00   1.0586472e+01   4.8120328e+00  -6.7368460e+00   4.4912307e+00  -1.0265670e+01  -4.0741878e+01  -1.6681714e+01   8.6616591e+00  -1.5077703e+01  -1.4756901e+01  -1.9248131e+01   5.7744394e+00   6.7368460e+00  -2.8872197e+00  -1.4436099e+01  -1.2190483e+01   0.0000000e+00   0.0000000e+00   0.0000000e+00   0.0000000e+00
  -7.0576482e+00   1.1228077e+01  -3.5288241e+00   7.3784504e+00   5.4536372e+00   3.2080219e+00  -5.7744394e+00   1.6040109e+00  -1.3794494e+01  -4.4270702e+01  -1.7323318e+01   6.7368460e+00  -1.7964923e+01  -1.5719307e+01  -1.9889736e+01   4.1704285e+00   4.8120328e+00  -5.4536372e+00  -1.5398505e+01  -1.3152890e+01   0.0000000e+00   0.0000000e+00   0.0000000e+00   0.0000000e+00
  -4.8120328e+00   1.0907274e+01  -4.8120328e+00   4.8120328e+00   3.2080219e-01   3.2080219e-01  -6.4160438e+00  -9.6240657e-01  -1.5719307e+01  -4.2987493e+01  -1.7002516e+01   5.4536372e+00  -1.9568934e+01  -1.4756901e+01  -1.9889736e+01   2.8872197e+00   2.8872197e+00  -8.0200547e+00  -1.6040109e+01  -1.4115296e+01   0.0000000e+00   0.0000000e+00   0.0000000e+00   0.0000000e+00
  -2.8872197e+00   1.0907274e+01  -7.0576482e+00   1.6040109e+00  -3.8496263e+00  -2.5664175e+00  -8.9824613e+00  -3.8496263e+00  -1.7644120e+01  -3.7854658e+01  -1.6681714e+01   3.5288241e+00  -2.0852142e+01  -1.3794494e+01  -1.9889736e+01   1.6040109e+00   1.6040109e+00  -1.0586472e+01  -1.6360912e+01  -1.5077703e+01   0.0000000e+00   0.0000000e+00   0.0000000e+00   0.0000000e+00
  -1.9248131e+00   1.1869681e+01  -9.3032635e+00  -3.2080219e-01  -5.4536372e+00  -5.1328350e+00  -1.2190483e+01  -6.0952416e+00  -1.9568934e+01  -3.1438615e+01  -1.6040109e+01   1.9248131e+00  -2.3097758e+01  -1.4115296e+01  -2.0531340e+01   3.2080219e-01   6.4160438e-01  -1.3473692e+01  -1.6681714e+01  -1.5719307e+01   0.0000000e+00   0.0000000e+00   0.0000000e+00   0.0000000e+00
  -1.9248131e+00   1.3473692e+01  -1.1228077e+01  -9.6240657e-01  -4.4912307e+00  -7.0576482e+00  -1.5077703e+01  -6.7368460e+00  -2.1493747e+01  -2.6947384e+01  -1.5719307e+01   0.0000000e+00  -2.6626582e+01  -1.6360912e+01  -2.1814549e+01   3.2080219e-01   0.0000000e+00  -1.6040109e+01  -1.7323318e+01  -1.6360912e+01   0.0000000e+00   0.0000000e+00   0.0000000e+00   0.0000000e+00
  -2.2456153e+00   1.5077703e+01  -1.1869681e+01  -3.2080219e-01  -1.6040109e+00  -7.6992526e+00  -1.6681714e+01  -6.4160438e+00  -2.1493747e+01  -2.5022571e+01  -1.5077703e+01  -1.6040109e+00  -3.1438615e+01  -2.0210538e+01  -2.3097758e+01   1.2832088e+00  -3.2080219e-01  -1.7644120e+01  -1.8606527e+01  -1.6681714e+01   0.0000000e+00   0.0000000e+00   0.0000000e+00   0.0000000e+00
  -2.5664175e+00   1.6040109e+01  -1.1548879e+01   1.6040109e+00   1.2832088e+00  -6.7368460e+00  -1.6040109e+01  -4.8120328e+00  -1.8606527e+01  -2.3739362e+01  -1.4115296e+01  -2.2456153e+00  -3.4646636e+01  -2.4380966e+01  -2.3739362e+01   3.8496263e+00  -3.2080219e-01  -1.8285725e+01  -1.9248131e+01  -1.6040109e+01   0.0000000e+00   0.0000000e+00   0.0000000e+00   0.0000000e+00
  -2.5664175e+00   1.5077703e+01  -1.0907274e+01   2.8872197e+00   1.9248131e+00  -6.0952416e+00  -1.5398505e+01  -3.8496263e+00  -1.3473692e+01  -2.2135351e+01  -1.3152890e+01  -1.9248131e+00  -3.6250647e+01  -2.8872197e+01  -2.4701769e+01   5.7744394e+00  -6.4160438e-01  -1.8606527e+01  -2.0210538e+01  -1.5719307e+01   0.0000000e+00   0.0000000e+00   0.0000000e+00   0.0000000e+00
  -2.5664175e+00   1.3794494e+01  -9.9448679e+00   4.1704285e+00   9.6240657e-01  -5.7744394e+00  -1.4436099e+01  -2.8872197e+00  -5.4536372e+00  -1.9248131e+01  -1.1869681e+01   0.0000000e+00  -3.5288241e+01  -3.2401021e+01  -2.5343373e+01   7.3784504e+00  -6.4160438e-01  -1.7964923e+01  -2.0531340e+01  -1.4115296e+01   0.0000000e+00   0.0000000e+00   0.0000000e+00   0.0000000e+00
  -3.8496263e+00   1.0586472e+01  -9.6240657e+00   4.1704285e+00  -1.6040109e+00  -6.7368460e+00  -1.5077703e+01  -2.8872197e+00   2.5664175e+00  -1.8606527e+01  -1.1548879e+01   1.2832088e+00  -3.4646636e+01  -3.6250647e+01  -2.6947384e+01   7.6992526e+00  -1.9248131e+00  -1.7964923e+01  -2.1814549e+01  -1.3794494e+01   0.0000000e+00   0.0000000e+00   0.0000000e+00   0.0000000e+00
  -4.8120328e+00   8.3408569e+00  -8.9824613e+00   4.4912307e+00  -2.8872197e+00  -8.0200547e+00  -1.5077703e+01  -2.5664175e+00   9.6240657e+00  -1.9889736e+01  -1.1228077e+01   3.2080219e+00  -3.4005032e+01  -3.9458669e+01  -2.8230593e+01   8.0200547e+00  -2.5664175e+00  -1.7644120e+01  -2.3097758e+01  -1.3152890e+01   0.0000000e+00   0.0000000e+00   0.0000000e+00   0.0000000e+00
  -5.4536372e+00   6.0952416e+00  -7.6992526e+00   4.8120328e+00  -2.8872197e+00  -8.9824613e+00  -1.5077703e+01  -2.2456153e+00   1.0586472e+01  -2.3739362e+01  -1.2511285e+01   3.8496263e+00  -3.3684230e+01  -4.1062680e+01  -2.9834604e+01   7.3784504e+00  -3.5288241e+00  -1.7002516e+01  -2.4380966e+01  -1.3473692e+01   0.0000000e+00   0.0000000e+00   0.0000000e+00   0.0000000e+00
  -4.4912307e+00   5.1328350e+00  -5.4536372e+00   6.4160438e+00  -1.9248131e+00  -8.9824613e+00  -1.4115296e+01  -1.2832088e+00   4.4912307e+00  -2.8230593e+01  -1.3794494e+01   3.8496263e+00  -3.1438615e+01  -3.9779472e+01  -2.9834604e+01   7.6992526e+00  -3.2080219e+00  -1.5719307e+01  -2.5022571e+01  -1.3794494e+01   0.0000000e+00   0.0000000e+00   0.0000000e+00   0.0000000e+00
  -2.5664175e+00   4.8120328e+00  -2.8872197e+00   7.6992526e+00  -9.6240657e-01  -8.3408569e+00  -1.3152890e+01  -3.2080219e-01  -7.3784504e+00  -3.1117812e+01  -1.4756901e+01   3.2080219e+00  -2.7588988e+01  -3.6250647e+01  -2.9192999e+01   8.3408569e+00  -2.2456153e+00  -1.3794494e+01  -2.5343373e+01  -1.4115296e+01   0.0000000e+00   0.0000000e+00   0.0000000e+00   0.0000000e+00
  -1.9248131e+00   4.4912307e+00  -1.6040109e+00   8.3408569e+00  -6.4160438e-01  -8.6616591e+00  -1.3794494e+01  -6.4160438e-01  -1.9568934e+01  -3.1759417e+01  -1.6040109e+01   2.2456153e+00  -2.3097758e+01  -3.2401021e+01  -2.7909791e+01   8.3408569e+00  -1.6040109e+00  -1.2190483e+01  -2.5343373e+01  -1.4756901e+01   0.0000000e+00   0.0000000e+00   0.0000000e+00   0.0000000e+00
  -1.9248131e+00   5.1328350e+00  -1.9248131e+00   8.0200547e+00   0.0000000e+00  -8.6616591e+00  -1.5398505e+01  -1.6040109e+00  -2.6626582e+01  -3.0155406e+01  -1.6040109e+01   2.2456153e+00  -1.9248131e+01  -2.9513801e+01  -2.6626582e+01   8.6616591e+00  -3.2080219e-01  -1.0907274e+01  -2.5022571e+01  -1.5077703e+01   0.0000000e+00   0.0000000e+00   0.0000000e+00   0.0000000e+00
  -2.2456153e+00   6.7368460e+00  -3.2080219e+00   8.0200547e+00   1.6040109e+00  -8.0200547e+00  -1.7002516e+01  -2.5664175e+00  -2.6626582e+01  -2.6305780e+01  -1.5398505e+01   3.5288241e+00  -1.6360912e+01  -2.7268186e+01  -2.5022571e+01   9.3032635e+00   1.6040109e+00  -8.9824613e+00  -2.3418560e+01  -1.4115296e+01   0.0000000e+00   0.0000000e+00   0.0000000e+00   0.0000000e+00
  -2.5664175e+00   8.3408569e+00  -5.1328350e+00   7.6992526e+00   3.5288241e+00  -6.7368460e+00  -1.7964923e+01  -3.5288241e+00  -2.2135351e+01  -2.3097758e+01  -1.4436099e+01   5.4536372e+00  -1.5398505e+01  -2.6305780e+01  -2.3418560e+01   9.6240657e+00   3.2080219e+00  -7.3784504e+00  -2.1493747e+01  -1.3152890e+01   0.0000000e+00   0.0000000e+00   0.0000000e+00   0.0000000e+00
  -2.8872197e+00   9.9448679e+00  -6.4160438e+00   7.3784504e+00   4.4912307e+00  -5.1328350e+00  -1.7323318e+01  -3.5288241e+00  -1.7002516e+01  -2.1172945e+01  -1.3473692e+01   7.0576482e+00  -1.6040109e+01  -2.4701769e+01  -2.1814549e+01   1.0586472e+01   4.8120328e+00  -6.0952416e+00  -1.9248131e+01  -1.1548879e+01   0.0000000e+00   0.0000000e+00   0.0000000e+00   0.0000000e+00
  -4.1704285e+00   9.9448679e+00  -7.3784504e+00   6.0952416e+00   3.2080219e+00  -4.1704285e+00  -1.5398505e+01  -3.2080219e+00  -1.3473692e+01  -2.1172945e+01  -1.2832088e+01   7.6992526e+00  -1.7002516e+01  -2.3418560e+01  -2.0852142e+01   1.1548879e+01   5.4536372e+00  -5.7744394e+00  -1.7644120e+01  -1.0586472e+01   0.0000000e+00   0.0000000e+00   0.0000000e+00   0.0000000e+00
  -5.7744394e+00   8.9824613e+00  -7.3784504e+00   4.1704285e+00  -3.2080219e-01  -4.4912307e+00  -1.3473692e+01  -2.2456153e+00  -1.2190483e+01  -2.1814549e+01  -1.3152890e+01   7.0576482e+00  -1.8285725e+01  -2.2135351e+01  -1.9889736e+01   1.2190483e+01   5.1328350e+00  -6.0952416e+00  -1.7002516e+01  -9.9448679e+00   0.0000000e+00   0.0000000e+00   0.0000000e+00   0.0000000e+00
  -7.3784504e+00   6.7368460e+00  -8.0200547e+00   1.6040109e+00  -5.7744394e+00  -6.0952416e+00  -1.2832088e+01  -2.2456153e+00  -1.1869681e+01  -2.1172945e+01  -1.3794494e+01   5.4536372e+00  -1.9889736e+01  -2.3097758e+01  -2.0210538e+01   1.1548879e+01   3.8496263e+00  -7.6992526e+00  -1.7002516e+01  -1.0265670e+01   0.0000000e+00   0.0000000e+00   0.0000000e+00   0.0000000e+00
  -7.6992526e+00   5.1328350e+00  -8.6616591e+00   0.0000000e+00  -1.1228077e+01  -7.6992526e+00  -1.3794494e+01  -2.5664175e+00  -9.9448679e+00  -1.8927329e+01  -1.4756901e+01   4.8120328e+00  -2.1493747e+01  -2.5984977e+01  -2.1493747e+01   1.0265670e+01   2.5664175e+00  -9.9448679e+00  -1.7644120e+01  -1.0907274e+01   0.0000000e+00   0.0000000e+00   0.0000000e+00   0.0000000e+00
  -4.4912307e+00   4.8120328e+00  -9.6240657e+00   3.2080219e-01  -1.5398505e+01  -8.6616591e+00  -1.5398505e+01  -2.8872197e+00  -6.7368460e+00  -1.6681714e+01  -1.5719307e+01   5.1328350e+00  -2.2135351e+01  -2.9192999e+01  -2.2776955e+01   8.0200547e+00   2.2456153e+00  -1.1548879e+01  -1.7644120e+01  -1.1228077e+01   0.0000000e+00   0.0000000e+00   0.0000000e+00   0.0000000e+00
   1.6040109e+00   6.4160438e+00  -9.9448679e+00   2.2456153e+00  -1.7644120e+01  -8.6616591e+00  -1.6360912e+01  -3.2080219e+00  -2.5664175e+00  -1.5719307e+01  -1.7002516e+01   6.4160438e+00  -2.0852142e+01  -3.0476208e+01  -2.3418560e+01   6.0952416e+00   3.2080219e+00  -1.2511285e+01  -1.7323318e+01  -1.1548879e+01   0.0000000e+00   0.0000000e+00   0.0000000e+00   0.0000000e+00
   9.9448679e+00   9.6240657e+00  -8.6616591e+00   5.4536372e+00  -1.8285725e+01  -7.3784504e+00  -1.5398505e+01  -2.2456153e+00   6.4160438e-01  -1.6681714e+01  -1.7964923e+01   8.3408569e+00  -1.7323318e+01  -2.8551395e+01  -2.3097758e+01   5.1328350e+00   5.1328350e+00  -1.1869681e+01  -1.6360912e+01  -1.1228077e+01   0.0000000e+00   0.0000000e+00   0.0000000e+00   0.0000000e+00
   1.5398505e+01   1.1548879e+01  -7.3784504e+00   8.0200547e+00  -1.7323318e+01  -6.4160438e+00  -1.4115296e+01  -1.2832088e+00   1.2832088e+00  -1.8927329e+01  -1.9889736e+01   8.9824613e+00  -1.4115296e+01  -2.5022571e+01  -2.2776955e+01   4.1704285e+00   6.4160438e+00  -1.1548879e+01  -1.6360912e+01  -1.1228077e+01   0.0000000e+00   0.0000000e+00   0.0000000e+00   0.0000000e+00
   1.5398505e+01   1.1869681e+01  -6.0952416e+00   9.9448679e+00  -1.4436099e+01  -5.4536372e+00  -1.2832088e+01  -9.6240657e-01   6.4160438e-01  -2.0852142e+01  -2.2135351e+01   9.3032635e+00  -1.2190483e+01  -2.1814549e+01  -2.2456153e+01   3.5288241e+00   7.6992526e+00  -1.1228077e+01  -1.6681714e+01  -1.1869681e+01   0.0000000e+00   0.0000000e+00   0.0000000e+00   0.0000000e+00
   1.0586472e+01   1.0586472e+01  -5.7744394e+00   1.0265670e+01  -1.0265670e+01  -5.4536372e+00  -1.2511285e+01  -1.2832088e+00  -6.4160438e-01  -2.2135351e+01  -2.4380966e+01   8.6616591e+00  -1.1548879e+01  -1.9889736e+01  -2.2456153e+01   2.8872197e+00   8.0200547e+00  -1.1228077e+01  -1.7964923e+01  -1.2832088e+01   0.0000000e+00   0.0000000e+00   0.0000000e+00   0.0000000e+00
   5.1328350e+00   9.6240657e+00  -5.7744394e+00   1.0907274e+01  -6.7368460e+00  -5.1328350e+00  -1.2832088e+01  -1.9248131e+00  -1.2832088e+00  -2.2135351e+01  -2.5022571e+01   8.6616591e+00  -1.1228077e+01  -1.8285725e+01  -2.2456153e+01   2.2456153e+00   8.6616591e+00  -1.0907274e+01  -1.8285725e+01  -1.2832088e+01   0.0000000e+00   0.0000000e+00   0.0000000e+00   0.0000000e+00
   1.6040109e+00   9.3032635e+00  -7.0576482e+00   1.0586472e+01  -6.0952416e+00  -5.4536372e+00  -1.4115296e+01  -2.5664175e+00  -1.9248131e+00  -2.2135351e+01  -2.5022571e+01   8.6616591e+00  -1.0907274e+01  -1.7644120e+01  -2.2456153e+01   1.6040109e+00   8.6616591e+00  -9.9448679e+00  -1.8606527e+01  -1.2511285e+01   0.0000000e+00   0.0000000e+00   0.0000000e+00   0.0000000e+00
   1.2832088e+00   1.0265670e+01  -7.3784504e+00   9.9448679e+00  -8.0200547e+00  -6.4160438e+00  -1.4756901e+01  -2.2456153e+00  -1.6040109e+00  -2.1814549e+01  -2.4060164e+01   8.6616591e+00  -1.0586472e+01  -1.6360912e+01  -2.2135351e+01   2.2456153e+00   8.3408569e+00  -8.3408569e+00  -1.8606527e+01  -1.0907274e+01   0.0000000e+00   0.0000000e+00   0.0000000e+00   0.0000000e+00
   1.6040109e+00   1.1548879e+01  -7.0576482e+00   8.6616591e+00  -9.9448679e+00  -7.0576482e+00  -1.4115296e+01  -3.2080219e-01  -6.4160438e-01  -2.2135351e+01  -2.2135351e+01   7.6992526e+00  -1.0265670e+01  -1.5398505e+01  -2.1493747e+01   4.1704285e+00   7.6992526e+00  -5.7744394e+00  -1.8285725e+01  -8.9824613e+00   0.0000000e+00   0.0000000e+00   0.0000000e+00   0.0000000e+00
  -9.6240657e-01   1.2190483e+01  -5.7744394e+00   6.7368460e+00  -9.9448679e+00  -8.0200547e+00  -1.2832088e+01   2.2456153e+00   3.2080219e-01  -2.2135351e+01  -2.0852142e+01   5.7744394e+00  -1.1548879e+01  -1.5719307e+01  -2.0852142e+01   6.4160438e+00   6.4160438e+00  -3.5288241e+00  -1.8606527e+01  -7.0576482e+00   0.0000000e+00   0.0000000e+00   0.0000000e+00   0.0000000e+00
  -6.4160438e+00   1.1228077e+01  -3.8496263e+00   5.4536372e+00  -6.4160438e+00  -7.6992526e+00  -1.0586472e+01   5.4536372e+00   1.9248131e+00  -2.1172945e+01  -1.9568934e+01   4.4912307e+00  -1.3473692e+01  -1.7644120e+01  -2.0531340e+01   8.6616591e+00   5.7744394e+00  -9.6240657e-01  -1.8606527e+01  -5.1328350e+00   0.0000000e+00   0.0000000e+00   0.0000000e+00   0.0000000e+00
  -1.4115296e+01   8.3408569e+00  -3.2080219e+00   4.8120328e+00  -1.9248131e+00  -8.0200547e+00  -9.9448679e+00   6.7368460e+00   2.8872197e+00  -1.9889736e+01  -1.9248131e+01   3.2080219e+00  -1.6360912e+01  -2.1493747e+01  -2.0852142e+01   9.6240657e+00   4.8120328e+00   3.2080219e-01  -1.9568934e+01  -4.8120328e+00   0.0000000e+00   0.0000000e+00   0.0000000e+00   0.0000000e+00
  -1.9889736e+01   5.4536372e+00  -2.8872197e+00   5.4536372e+00   1.6040109e+00  -8.0200547e+00  -1.0265670e+01   7.3784504e+00   3.2080219e+00  -1.7964923e+01  -1.8927329e+01   3.8496263e+00  -1.8606527e+01  -2.5022571e+01  -2.1493747e+01   9.6240657e+00   4.1704285e+00   9.6240657e-01  -1.9889736e+01  -4.8120328e+00   0.0000000e+00   0.0000000e+00   0.0000000e+00   0.0000000e+00
  -2.0852142e+01   3.5288241e+00  -3.2080219e+00   7.6992526e+00   2.5664175e+00  -8.0200547e+00  -1.1548879e+01   7.3784504e+00   3.2080219e+00  -1.5719307e+01  -1.7964923e+01   5.1328350e+00  -2.0210538e+01  -2.7588988e+01  -2.1814549e+01   8.6616591e+00   4.4912307e+00   1.6040109e+00  -1.9889736e+01  -4.1704285e+00   0.0000000e+00   0.0000000e+00   0.0000000e+00   0.0000000e+00
  -1.7644120e+01   3.2080219e+00  -3.8496263e+00   9.9448679e+00   6.4160438e-01  -8.6616591e+00  -1.3152890e+01   6.7368460e+00   2.2456153e+00  -1.3794494e+01  -1.7644120e+01   6.0952416e+00  -2.2135351e+01  -2.9834604e+01  -2.2776955e+01   7.3784504e+00   4.1704285e+00   9.6240657e-01  -1.9568934e+01  -4.1704285e+00   0.0000000e+00   0.0000000e+00   0.0000000e+00   0.0000000e+00
  -1.2832088e+01   4.1704285e+00  -4.1704285e+00   1.2511285e+01  -1.9248131e+00  -8.9824613e+00  -1.3473692e+01   6.4160438e+00   9.6240657e-01  -1.3152890e+01  -1.7323318e+01   6.4160438e+00  -2.4701769e+01  -3.1117812e+01  -2.3418560e+01   6.4160438e+00   4.1704285e+00   0.0000000e+00  -1.9568934e+01  -4.1704285e+00   0.0000000e+00   0.0000000e+00   0.0000000e+00   0.0000000e+00
  -9.3032635e+00   5.1328350e+00  -4.1704285e+00   1.3794494e+01  -4.1704285e+00  -9.3032635e+00  -1.3152890e+01   6.0952416e+00  -3.2080219e-01  -1.4756901e+01  -1.7644120e+01   5.1328350e+00  -2.7588988e+01  -3.2721823e+01  -2.4701769e+01   5.7744394e+00   3.8496263e+00  -1.6040109e+00  -1.9568934e+01  -4.8120328e+00   0.0000000e+00   0.0000000e+00   0.0000000e+00   0.0000000e+00
  -7.0576482e+00   6.0952416e+00  -4.1704285e+00   1.5077703e+01  -4.1704285e+00  -8.6616591e+00  -1.2190483e+01   5.7744394e+00  -6.4160438e-01  -1.8285725e+01  -1.7964923e+01   3.8496263e+00  -2.9834604e+01  -3.3363428e+01  -2.5343373e+01   5.4536372e+00   4.1704285e+00  -3.5288241e+00  -1.9568934e+01  -5.4536372e+00   0.0000000e+00   0.0000000e+00   0.0000000e+00   0.0000000e+00
  -6.4160438e+00   7.0576482e+00  -4.8120328e+00   1.5719307e+01  -2.8872197e+00  -7.3784504e+00  -1.1548879e+01   5.1328350e+00   6.4160438e-01  -2.2135351e+01  -1.8285725e+01   3.2080219e+00  -2.9513801e+01  -3.2080219e+01  -2.5343373e+01   5.1328350e+00   5.1328350e+00  -5.4536372e+00  -1.8927329e+01  -6.4160438e+00   0.0000000e+00   0.0000000e+00   0.0000000e+00   0.0000000e+00
  -5.4536372e+00   8.0200547e+00  -5.1328350e+00   1.6040109e+01  -3.2080219e-01  -4.8120328e+00  -1.1228077e+01   4.8120328e+00   2.8872197e+00  -2.4380966e+01  -1.7644120e+01   3.8496263e+00  -2.5664175e+01  -2.7909791e+01  -2.3739362e+01   5.1328350e+00   7.6992526e+00  -6.0952416e+00  -1.7002516e+01  -6.4160438e+00   0.0000000e+00   0.0000000e+00   0.0000000e+00   0.0000000e+00
  -6.0952416e+00   8.0200547e+00  -6.7368460e+00   1.4756901e+01   1.2832088e+00  -2.8872197e+00  -1.3152890e+01   3.8496263e+00   4.1704285e+00  -2.4701769e+01  -1.7002516e+01   4.1704285e+00  -2.0852142e+01  -2.2776955e+01  -2.2135351e+01   4.1704285e+00   9.3032635e+00  -7.3784504e+00  -1.5719307e+01  -6.4160438e+00   0.0000000e+00   0.0000000e+00   0.0000000e+00   0.0000000e+00
  -6.7368460e+00   7.6992526e+00  -8.3408569e+00   1.2832088e+01   1.2832088e+00  -1.9248131e+00  -1.5398505e+01   2.8872197e+00   3.5288241e+00  -2.3739362e+01  -1.5719307e+01   3.5288241e+00  -1.7323318e+01  -1.7964923e+01  -2.1172945e+01   3.2080219e+00   9.3032635e+00  -8.6616591e+00  -1.5077703e+01  -6.4160438e+00   0.0000000e+00   0.0000000e+00   0.0000000e+00   0.0000000e+00
  -8.0200547e+00   7.0576482e+00  -9.3032635e+00   1.0265670e+01  -1.2832088e+00  -2.2456153e+00  -1.7002516e+01   1.9248131e+00   1.2832088e+00  -2.4060164e+01  -1.4756901e+01   1.6040109e+00  -1.7002516e+01  -1.5398505e+01  -2.0852142e+01   2.5664175e+00   7.6992526e+00  -1.0265670e+01  -1.5398505e+01  -6.0952416e+00   0.0000000e+00   0.0000000e+00   0.0000000e+00   0.0000000e+00
  -9.3032635e+00   6.0952416e+00  -8.9824613e+00   7.0576482e+00  -6.4160438e+00  -3.8496263e+00  -1.6681714e+01   9.6240657e-01  -1.9248131e+00  -2.6305780e+01  -1.4115296e+01  -1.6040109e+00  -1.9568934e+01  -1.5719307e+01  -2.1814549e+01   2.2456153e+00   4.1704285e+00  -1.2190483e+01  -1.6681714e+01  -6.0952416e+00   0.0000000e+00   0.0000000e+00   0.0000000e+00   0.0000000e+00
  -9.3032635e+00   5.4536372e+00  -7.6992526e+00   4.1704285e+00  -1.2190483e+01  -5.7744394e+00  -1.4436099e+01   3.2080219e-01  -5.1328350e+00  -2.9834604e+01  -1.2832088e+01  -4.8120328e+00  -2.3097758e+01  -1.7323318e+01  -2.2456153e+01   3.2080219e+00   6.4160438e-01  -1.3473692e+01  -1.8285725e+01  -5.7744394e+00   0.0000000e+00   0.0000000e+00   0.0000000e+00   0.0000000e+00
  -9.9448679e+00   5.1328350e+00  -5.7744394e+00   1.6040109e+00  -1.7644120e+01  -7.6992526e+00  -1.1548879e+01  -6.4160438e-01  -7.6992526e+00  -3.3363428e+01  -1.1228077e+01  -7.6992526e+00  -2.5664175e+01  -1.8606527e+01  -2.2776955e+01   4.4912307e+00  -2.8872197e+00  -1.4115296e+01  -1.9248131e+01  -5.4536372e+00   0.0000000e+00   0.0000000e+00   0.0000000e+00   0.0000000e+00
  -1.1548879e+01   4.4912307e+00  -4.4912307e+00   3.2080219e-01  -1.9889736e+01  -8.9824613e+00  -8.9824613e+00  -1.2832088e+00  -9.6240657e+00  -3.4967439e+01  -9.3032635e+00  -8.9824613e+00  -2.5984977e+01  -1.9248131e+01  -2.2776955e+01   5.4536372e+00  -4.8120328e+00  -1.4115296e+01  -2.0210538e+01  -5.1328350e+00   0.0000000e+00   0.0000000e+00   0.0000000e+00   0.0000000e+00
  -1.4756901e+01   3.8496263e+00  -4.1704285e+00   0.0000000e+00  -1.9568934e+01  -9.6240657e+00  -8.0200547e+00  -2.2456153e+00  -1.0265670e+01  -3.4646636e+01  -7.3784504e+00  -9.3032635e+00  -2.5343373e+01  -1.8927329e+01  -2.2776955e+01   6.0952416e+00  -5.7744394e+00  -1.3473692e+01  -2.0531340e+01  -4.8120328e+00   0.0000000e+00   0.0000000e+00   0.0000000e+00   0.0000000e+00
  -1.7323318e+01   3.5288241e+00  -4.1704285e+00   3.2080219e-01  -1.7323318e+01  -1.0586472e+01  -9.3032635e+00  -2.5664175e+00  -9.9448679e+00  -3.3042626e+01  -6.4160438e+00  -8.9824613e+00  -2.5022571e+01  -1.9248131e+01  -2.3097758e+01   5.7744394e+00  -6.7368460e+00  -1.2190483e+01  -2.1172945e+01  -5.4536372e+00   0.0000000e+00   0.0000000e+00   0.0000000e+00   0.0000000e+00
  -1.8606527e+01   3.5288241e+00  -4.8120328e+00   9.6240657e-01  -1.5719307e+01  -1.1869681e+01  -1.1228077e+01  -2.2456153e+00  -8.9824613e+00  -3.1438615e+01  -6.0952416e+00  -8.6616591e+00  -2.5664175e+01  -2.0852142e+01  -2.4380966e+01   5.1328350e+00  -7.6992526e+00  -1.1228077e+01  -2.2135351e+01  -6.4160438e+00   0.0000000e+00   0.0000000e+00   0.0000000e+00   0.0000000e+00
  -1.7323318e+01   5.4536372e+00  -4.4912307e+00   2.2456153e+00  -1.4756901e+01  -1.2832088e+01  -1.2511285e+01  -3.2080219e-01  -7.6992526e+00  -2.9834604e+01  -6.0952416e+00  -8.0200547e+00  -2.6626582e+01  -2.3418560e+01  -2.5022571e+01   5.7744394e+00  -8.3408569e+00  -9.6240657e+00  -2.2776955e+01  -6.4160438e+00   0.0000000e+00   0.0000000e+00   0.0000000e+00   0.0000000e+00
  -1.6360912e+01   6.7368460e+00  -4.8120328e+00   2.5664175e+00  -1.5398505e+01  -1.5077703e+01  -1.3794494e+01   1.6040109e+00  -7.3784504e+00  -2.9834604e+01  -6.7368460e+00  -8.6616591e+00  -2.8551395e+01  -2.6947384e+01  -2.6305780e+01   6.0952416e+00  -9.6240657e+00  -8.9824613e+00  -2.3418560e+01  -6.7368460e+00   0.0000000e+00   0.0000000e+00   0.0000000e+00   0.0000000e+00
  -1.5719307e+01   8.9824613e+00  -3.8496263e+00   3.5288241e+00  -1.5719307e+01  -1.6360912e+01  -1.3473692e+01   4.1704285e+00  -7.6992526e+00  -3.0155406e+01  -7.0576482e+00  -8.9824613e+00  -2.8872197e+01  -2.9192999e+01  -2.6626582e+01   7.6992526e+00  -9.9448679e+00  -8.3408569e+00  -2.3097758e+01  -6.0952416e+00   0.0000000e+00   0.0000000e+00   0.0000000e+00   0.0000000e+00
  -1.6040109e+01   9.9448679e+00  -3.5288241e+00   3.8496263e+00  -1.6360912e+01  -1.7323318e+01  -1.3794494e+01   5.7744394e+00  -8.9824613e+00  -3.1117812e+01  -7.6992526e+00  -9.6240657e+00  -2.8551395e+01  -2.9834604e+01  -2.6947384e+01   8.6616591e+00  -9.6240657e+00  -8.0200547e+00  -2.2456153e+01  -4.8120328e+00   0.0000000e+00   0.0000000e+00   0.0000000e+00   0.0000000e+00
  -1.7002516e+01   1.0265670e+01  -2.8872197e+00   5.1328350e+00  -1.6040109e+01  -1.7002516e+01  -1.3473692e+01   6.4160438e+00  -9.9448679e+00  -3.1759417e+01  -8.0200547e+00  -9.3032635e+00  -2.6947384e+01  -2.8872197e+01  -2.6305780e+01   9.3032635e+00  -8.6616591e+00  -8.0200547e+00  -2.1172945e+01  -3.5288241e+00   0.0000000e+00   0.0000000e+00   0.0000000e+00   0.0000000e+00
  -1.7644120e+01   9.9448679e+00  -2.5664175e+00   6.4160438e+00  -1.5077703e+01  -1.5398505e+01  -1.2832088e+01   6.0952416e+00  -1.0265670e+01  -3.1759417e+01  -8.6616591e+00  -8.3408569e+00  -2.4701769e+01  -2.6947384e+01  -2.5664175e+01   9.6240657e+00  -7.3784504e+00  -8.0200547e+00  -2.0210538e+01  -2.5664175e+00   0.0000000e+00   0.0000000e+00   0.0000000e+00   0.0000000e+00
  -1.7644120e+01   9.6240657e+00  -2.2456153e+00   8.0200547e+00  -1.4436099e+01  -1.3473692e+01  -1.2190483e+01   5.7744394e+00  -1.0265670e+01  -3.1438615e+01  -9.6240657e+00  -6.4160438e+00  -2.2776955e+01  -2.5022571e+01  -2.4701769e+01   9.6240657e+00  -5.7744394e+00  -8.0200547e+00  -1.9248131e+01  -1.6040109e+00   0.0000000e+00   0.0000000e+00   0.0000000e+00   0.0000000e+00
  -1.7002516e+01   9.3032635e+00  -1.6040109e+00   9.6240657e+00  -1.4115296e+01  -1.2511285e+01  -1.1228077e+01   5.4536372e+00  -1.0265670e+01  -3.1117812e+01  -1.0586472e+01  -4.8120328e+00  -2.1493747e+01  -2.4060164e+01  -2.4060164e+01   9.9448679e+00  -4.8120328e+00  -8.6616591e+00  -1.9248131e+01  -9.6240657e-01   0.0000000e+00   0.0000000e+00   0.0000000e+00   0.0000000e+00
  -1.6040109e+01   8.9824613e+00  -9.6240657e-01   1.0586472e+01  -1.4436099e+01  -1.2190483e+01  -1.0586472e+01   5.7744394e+00  -1.0265670e+01  -3.0797010e+01  -1.2190483e+01  -3.2080219e+00  -2.1493747e+01  -2.4060164e+01  -2.3739362e+01   1.0586472e+01  -4.4912307e+00  -9.9448679e+00  -1.9568934e+01  -6.4160438e-01   0.0000000e+00   0.0000000e+00   0.0000000e+00   0.0000000e+00
  -1.5077703e+01   8.3408569e+00  -6.4160438e-01   1.1228077e+01  -1.5077703e+01  -1.2832088e+01  -1.1228077e+01   6.0952416e+00  -9.9448679e+00  -3.0155406e+01  -1.3152890e+01  -1.6040109e+00  -2.2135351e+01  -2.4701769e+01  -2.3739362e+01   1.1228077e+01  -4.1704285e+00  -1.1548879e+01  -1.9889736e+01  -3.2080219e-01   0.0000000e+00   0.0000000e+00   0.0000000e+00   0.0000000e+00
  -1.4436099e+01   7.3784504e+00  -9.6240657e-01   1.1228077e+01  -1.5398505e+01  -1.3152890e+01  -1.2832088e+01   6.4160438e+00  -9.3032635e+00  -2.8872197e+01  -1.3794494e+01   0.0000000e+00  -2.2776955e+01  -2.5664175e+01  -2.4060164e+01   1.1548879e+01  -3.5288241e+00  -1.3473692e+01  -1.9889736e+01  -3.2080219e-01   0.0000000e+00   0.0000000e+00   0.0000000e+00   0.0000000e+00
  -1.5077703e+01   5.4536372e+00  -2.5664175e+00   1.0265670e+01  -1.5719307e+01  -1.3473692e+01  -1.6040109e+01   5.4536372e+00  -8.6616591e+00  -2.7909791e+01  -1.4115296e+01   1.6040109e+00  -2.3418560e+01  -2.6947384e+01  -2.4701769e+01   1.0907274e+01  -3.2080219e+00  -1.5077703e+01  -2.0210538e+01  -6.4160438e-01   0.0000000e+00   0.0000000e+00   0.0000000e+00   0.0000000e+00
  -1.5719307e+01   4.4912307e+00  -4.1704285e+00   9.6240657e+00  -1.5398505e+01  -1.2832088e+01  -1.8606527e+01   5.1328350e+00  -7.6992526e+00  -2.6626582e+01  -1.3473692e+01   3.5288241e+00  -2.3097758e+01  -2.6947384e+01  -2.4701769e+01   1.0586472e+01  -2.2456153e+00  -1.6040109e+01  -1.9568934e+01  -3.2080219e-01   0.0000000e+00   0.0000000e+00   0.0000000e+00   0.0000000e+00
  -1.7323318e+01   3.5288241e+00  -5.7744394e+00   9.3032635e+00  -1.5398505e+01  -1.2511285e+01  -2.0531340e+01   4.8120328e+00  -7.3784504e+00  -2.6626582e+01  -1.3152890e+01   4.4912307e+00  -2.3097758e+01  -2.6947384e+01  -2.4701769e+01   9.9448679e+00  -1.6040109e+00  -1.7002516e+01  -1.9248131e+01  -3.2080219e-01   0.0000000e+00   0.0000000e+00   0.0000000e+00   0.0000000e+00
  -1.7964923e+01   4.1704285e+00  -6.0952416e+00   9.6240657e+00  -1.5077703e+01  -1.2511285e+01  -2.0210538e+01   5.4536372e+00  -7.0576482e+00  -2.6947384e+01  -1.2511285e+01   5.4536372e+00  -2.2456153e+01  -2.6626582e+01  -2.4060164e+01   1.0265670e+01  -9.6240657e-01  -1.6681714e+01  -1.8606527e+01   0.0000000e+00   0.0000000e+00   0.0000000e+00   0.0000000e+00   0.0000000e+00
  -1.7644120e+01   5.1328350e+00  -5.7744394e+00   1.0265670e+01  -1.4436099e+01  -1.2832088e+01  -1.8285725e+01   6.4160438e+00  -7.0576482e+00  -2.7909791e+01  -1.2190483e+01   6.0952416e+00  -2.1814549e+01  -2.5984977e+01  -2.2456153e+01   1.0907274e+01  -3.2080219e-01  -1.5719307e+01  -1.8285725e+01   3.2080219e-01   0.0000000e+00   0.0000000e+00   0.0000000e+00   0.0000000e+00
  -1.6040109e+01   6.7368460e+00  -5.7744394e+00   1.0907274e+01  -1.3473692e+01  -1.3152890e+01  -1.6040109e+01   7.3784504e+00  -7.0576482e+00  -2.8551395e+01  -1.1869681e+01   7.0576482e+00  -2.0852142e+01  -2.4701769e+01  -2.0852142e+01   1.1548879e+01   6.4160438e-01  -1.4436099e+01  -1.7644120e+01   6.4160438e-01   0.0000000e+00   0.0000000e+00   0.0000000e+00   0.0000000e+00
  -1.3473692e+01   8.0200547e+00  -5.4536372e+00   1.2190483e+01  -1.2190483e+01  -1.2832088e+01  -1.3794494e+01   8.3408569e+00  -6.4160438e+00  -2.7588988e+01  -1.0907274e+01   8.9824613e+00  -1.9248131e+01  -2.2456153e+01  -1.8606527e+01   1.1869681e+01   2.5664175e+00  -1.2190483e+01  -1.6360912e+01   9.6240657e-01   0.0000000e+00   0.0000000e+00   0.0000000e+00   0.0000000e+00
  -1.0586472e+01   8.6616591e+00  -6.0952416e+00   1.3794494e+01  -1.1228077e+01  -1.1869681e+01  -1.2832088e+01   8.3408569e+00  -5.4536372e+00  -2.5343373e+01  -1.0265670e+01   1.0907274e+01  -1.7002516e+01  -2.0210538e+01  -1.6681714e+01   1.1869681e+01   4.4912307e+00  -9.3032635e+00  -1.5077703e+01   1.2832088e+00   0.0000000e+00   0.0000000e+00   0.0000000e+00   0.0000000e+00
  -7.6992526e+00   8.6616591e+00  -6.7368460e+00   1.5719307e+01  -1.0907274e+01  -1.0907274e+01  -1.2511285e+01   8.6616591e+00  -4.4912307e+00  -2.2456153e+01  -1.0265670e+01   1.3152890e+01  -1.5398505e+01  -1.7644120e+01  -1.5398505e+01   1.0907274e+01   6.4160438e+00  -6.4160438e+00  -1.3473692e+01   1.9248131e+00   0.0000000e+00   0.0000000e+00   0.0000000e+00   0.0000000e+00
  -4.8120328e+00   8.6616591e+00  -6.4160438e+00   1.7644120e+01  -1.1548879e+01  -9.9448679e+00  -1.2190483e+01   8.9824613e+00  -3.2080219e+00  -2.0531340e+01  -1.1228077e+01   1.4756901e+01  -1.4436099e+01  -1.6360912e+01  -1.4756901e+01   9.9448679e+00   8.0200547e+00  -4.1704285e+00  -1.2832088e+01   2.2456153e+00   0.0000000e+00   0.0000000e+00   0.0000000e+00   0.0000000e+00
  -2.2456153e+00   8.9824613e+00  -4.8120328e+00   2.0210538e+01  -1.2511285e+01  -8.9824613e+00  -1.1228077e+01   9.6240657e+00  -1.9248131e+00  -1.9889736e+01  -1.2511285e+01   1.6360912e+01  -1.3794494e+01  -1.5398505e+01  -1.4756901e+01   9.6240657e+00   9.3032635e+00  -1.9248131e+00  -1.2190483e+01   2.8872197e+00   0.0000000e+00   0.0000000e+00   0.0000000e+00   0.0000000e+00
  -1.2832088e+00   8.9824613e+00  -3.2080219e+00   2.2456153e+01  -1.3152890e+01  -8.3408569e+00  -9.6240657e+00   9.9448679e+00  -1.2832088e+00  -2.0210538e+01  -1.4115296e+01   1.7323318e+01  -1.3473692e+01  -1.5398505e+01  -1.5077703e+01   9.3032635e+00   1.0265670e+01  -3.2080219e-01  -1.2511285e+01   2.5664175e+00   0.0000000e+00   0.0000000e+00   0.0000000e+00   0.0000000e+00
  -2.5664175e+00   8.6616591e+00  -1.9248131e+00   2.4380966e+01  -1.2832088e+01  -8.0200547e+00  -8.0200547e+00   9.9448679e+00  -9.6240657e-01  -2.1172945e+01  -1.5077703e+01   1.8606527e+01  -1.2832088e+01  -1.5398505e+01  -1.5398505e+01   9.6240657e+00   1.1548879e+01   1.2832088e+00  -1.2511285e+01   2.2456153e+00   0.0000000e+00   0.0000000e+00   0.0000000e+00   0.0000000e+00
  -5.7744394e+00   8.0200547e+00  -1.2832088e+00   2.5984977e+01  -1.0907274e+01  -7.6992526e+00  -8.0200547e+00   9.9448679e+00  -6.4160438e-01  -2.0852142e+01  -1.5077703e+01   2.0852142e+01  -1.0907274e+01  -1.4756901e+01  -1.5077703e+01   9.9448679e+00   1.3473692e+01   2.5664175e+00  -1.1869681e+01   2.2456153e+00   0.0000000e+00   0.0000000e+00   0.0000000e+00   0.0000000e+00
  -9.3032635e+00   7.3784504e+00  -1.9248131e+00   2.7909791e+01  -7.6992526e+00  -7.0576482e+00  -8.9824613e+00   9.9448679e+00   3.2080219e-01  -1.9248131e+01  -1.4115296e+01   2.4380966e+01  -8.0200547e+00  -1.3152890e+01  -1.4115296e+01   9.9448679e+00   1.5719307e+01   3.8496263e+00  -1.0907274e+01   2.2456153e+00   0.0000000e+00   0.0000000e+00   0.0000000e+00   0.0000000e+00
  -1.1548879e+01   6.7368460e+00  -2.8872197e+00   2.9192999e+01  -4.4912307e+00  -6.0952416e+00  -1.1228077e+01   9.3032635e+00   1.6040109e+00  -1.6681714e+01  -1.3152890e+01   2.7588988e+01  -4.4912307e+00  -1.1228077e+01  -1.3473692e+01   8.9824613e+00   1.8285725e+01   5.1328350e+00  -9.6240657e+00   2.2456153e+00   0.0000000e+00   0.0000000e+00   0.0000000e+00   0.0000000e+00
  -1.2190483e+01   7.0576482e+00  -3.8496263e+00   3.0476208e+01  -1.9248131e+00  -4.8120328e+00  -1.2832088e+01   8.3408569e+00   3.2080219e+00  -1.4115296e+01  -1.2511285e+01   3.0476208e+01  -1.2832088e+00  -9.3032635e+00  -1.2832088e+01   8.3408569e+00   2.0210538e+01   6.0952416e+00  -8.6616591e+00   2.2456153e+00   0.0000000e+00   0.0000000e+00   0.0000000e+00   0.0000000e+00
  -1.0907274e+01   8.3408569e+00  -3.5288241e+00   3.2080219e+01   3.2080219e-01  -3.2080219e+00  -1.2832088e+01   7.6992526e+00   4.1704285e+00  -1.2190483e+01  -1.2511285e+01   3.2401021e+01   6.4160438e-01  -7.6992526e+00  -1.2511285e+01   8.3408569e+00   2.1814549e+01   6.4160438e+00  -8.0200547e+00   1.9248131e+00   0.0000000e+00   0.0000000e+00   0.0000000e+00   0.0000000e+00
  -9.6240657e+00   9.9448679e+00  -2.5664175e+00   3.3042626e+01   1.9248131e+00  -1.6040109e+00  -1.0907274e+01   6.7368460e+00   3.8496263e+00  -1.2190483e+01  -1.3473692e+01   3.2721823e+01   9.6240657e-01  -7.3784504e+00  -1.2511285e+01   8.6616591e+00   2.2776955e+01   6.0952416e+00  -8.0200547e+00   1.2832088e+00   0.0000000e+00   0.0000000e+00   0.0000000e+00   0.0000000e+00
  -9.3032635e+00   1.1228077e+01  -1.2832088e+00   3.4005032e+01   3.5288241e+00   0.0000000e+00  -8.3408569e+00   6.0952416e+00   2.8872197e+00  -1.2832088e+01  -1.4756901e+01   3.3042626e+01   6.4160438e-01  -7.0576482e+00  -1.2190483e+01   9.6240657e+00   2.3418560e+01   5.7744394e+00  -7.6992526e+00   6.4160438e-01   0.0000000e+00   0.0000000e+00   0.0000000e+00   0.0000000e+00
  -9.9448679e+00   1.2190483e+01  -3.2080219e-01   3.4325834e+01   5.1328350e+00   1.2832088e+00  -5.7744394e+00   5.7744394e+00   2.5664175e+00  -1.2511285e+01  -1.5398505e+01   3.3684230e+01   6.4160438e-01  -6.7368460e+00  -1.2190483e+01   1.0586472e+01   2.4701769e+01   5.7744394e+00  -7.3784504e+00   3.2080219e-01   0.0000000e+00   0.0000000e+00   0.0000000e+00   0.0000000e+00
  -1.0586472e+01   1.2511285e+01   0.0000000e+00   3.4325834e+01   6.0952416e+00   2.5664175e+00  -4.4912307e+00   6.0952416e+00   2.8872197e+00  -1.1548879e+01  -1.5719307e+01   3.5288241e+01   1.2832088e+00  -5.4536372e+00  -1.1869681e+01   1.0907274e+01   2.5664175e+01   6.0952416e+00  -6.7368460e+00   6.4160438e-01   0.0000000e+00   0.0000000e+00   0.0000000e+00   0.0000000e+00
  -1.0586472e+01   1.2832088e+01  -3.2080219e-01   3.4005032e+01   6.4160438e+00   3.5288241e+00  -4.4912307e+00   6.4160438e+00   3.8496263e+00  -9.9448679e+00  -1.5719307e+01   3.6250647e+01   1.6040109e+00  -4.8120328e+00  -1.2511285e+01   9.9448679e+00   2.6305780e+01   6.4160438e+00  -6.7368460e+00   6.4160438e-01   0.0000000e+00   0.0000000e+00   0.0000000e+00   0.0000000e+00
  -9.6240657e+00   1.2832088e+01  -9.6240657e-01   3.3042626e+01   5.4536372e+00   3.5288241e+00  -5.4536372e+00   6.4160438e+00   3.8496263e+00  -9.3032635e+00  -1.6040109e+01   3.6250647e+01   9.6240657e-01  -4.8120328e+00  -1.3794494e+01   8.3408569e+00   2.5664175e+01   6.4160438e+00  -7.3784504e+00  -3.2080219e-01   0.0000000e+00   0.0000000e+00   0.0000000e+00   0.0000000e+00
  -7.3784504e+00   1.3794494e+01  -9.6240657e-01   3.2721823e+01   4.4912307e+00   3.2080219e+00  -5.4536372e+00   7.3784504e+00   3.2080219e+00  -9.3032635e+00  -1.6360912e+01   3.4967439e+01  -9.6240657e-01  -5.7744394e+00  -1.5398505e+01   7.0576482e+00   2.4380966e+01   6.4160438e+00  -8.6616591e+00  -9.6240657e-01   0.0000000e+00   0.0000000e+00   0.0000000e+00   0.0000000e+00
  -4.8120328e+00   1.4756901e+01  -3.2080219e-01   3.2401021e+01   3.5288241e+00   2.5664175e+00  -4.4912307e+00   8.3408569e+00   1.6040109e+00  -9.9448679e+00  -1.6681714e+01   3.3042626e+01  -4.1704285e+00  -7.6992526e+00  -1.7002516e+01   6.4160438e+00   2.2456153e+01   7.0576482e+00  -9.9448679e+00  -1.9248131e+00   0.0000000e+00   0.0000000e+00   0.0000000e+00   0.0000000e+00
  -2.5664175e+00   1.5719307e+01   3.2080219e-01   3.2080219e+01   2.5664175e+00   1.6040109e+00  -3.2080219e+00   8.6616591e+00  -3.2080219e-01  -1.1548879e+01  -1.7323318e+01   3.0476208e+01  -7.3784504e+00  -9.9448679e+00  -1.7964923e+01   6.0952416e+00   2.0852142e+01   7.6992526e+00  -1.0907274e+01  -2.8872197e+00   0.0000000e+00   0.0000000e+00   0.0000000e+00   0.0000000e+00
  -1.6040109e+00   1.6681714e+01   3.2080219e-01   3.1117812e+01   1.6040109e+00   6.4160438e-01  -2.2456153e+00   8.6616591e+00  -2.2456153e+00  -1.2832088e+01  -1.7323318e+01   2.8230593e+01  -9.6240657e+00  -1.1228077e+01  -1.8606527e+01   5.7744394e+00   1.9568934e+01   8.9824613e+00  -1.1548879e+01  -3.8496263e+00   0.0000000e+00   0.0000000e+00   0.0000000e+00   0.0000000e+00
  -1.6040109e+00   1.7964923e+01  -6.4160438e-01   2.9834604e+01   9.6240657e-01  -3.2080219e-01  -2.2456153e+00   8.0200547e+00  -3.8496263e+00  -1.4115296e+01  -1.7323318e+01   2.6947384e+01  -1.0586472e+01  -1.0907274e+01  -1.8927329e+01   5.1328350e+00   1.8606527e+01   1.0586472e+01  -1.1869681e+01  -4.1704285e+00   0.0000000e+00   0.0000000e+00   0.0000000e+00   0.0000000e+00
  -2.5664175e+00   1.9248131e+01  -1.9248131e+00   2.8230593e+01   3.2080219e-01  -1.2832088e+00  -3.5288241e+00   7.3784504e+00  -4.8120328e+00  -1.4756901e+01  -1.7323318e+01   2.5664175e+01  -1.0265670e+01  -9.9448679e+00  -1.9248131e+01   4.1704285e+00   1.8285725e+01   1.2190483e+01  -1.1548879e+01  -3.8496263e+00   0.0000000e+00   0.0000000e+00   0.0000000e+00   0.0000000e+00
  -2.8872197e+00   2.1493747e+01  -2.8872197e+00   2.6947384e+01   3.2080219e-01  -1.9248131e+00  -4.4912307e+00   7.3784504e+00  -5.7744394e+00  -1.4756901e+01  -1.6681714e+01   2.4701769e+01  -9.6240657e+00  -8.6616591e+00  -1.9568934e+01   3.5288241e+00   1.7644120e+01   1.3794494e+01  -1.0907274e+01  -3.2080219e+00   0.0000000e+00   0.0000000e+00   0.0000000e+00   0.0000000e+00
  -3.2080219e+00   2.3418560e+01  -3.2080219e+00   2.6305780e+01   0.0000000e+00  -2.5664175e+00  -4.4912307e+00   7.6992526e+00  -7.3784504e+00  -1.4436099e+01  -1.6040109e+01   2.3097758e+01  -9.6240657e+00  -8.3408569e+00  -1.9568934e+01   3.5288241e+00   1.6681714e+01   1.5077703e+01  -1.0265670e+01  -1.9248131e+00   0.0000000e+00   0.0000000e+00   0.0000000e+00   0.0000000e+00
  -3.5288241e+00   2.4380966e+01  -3.2080219e+00   2.5022571e+01  -6.4160438e-01  -3.2080219e+00  -4.1704285e+00   8.0200547e+00  -9.6240657e+00  -1.4115296e+01  -1.5077703e+01   2.0852142e+01  -1.0907274e+01  -9.3032635e+00  -1.9248131e+01   4.4912307e+00   1.4756901e+01   1.5719307e+01  -9.9448679e+00  -9.6240657e-01   0.0000000e+00   0.0000000e+00   0.0000000e+00   0.0000000e+00
  -4.4912307e+00   2.3739362e+01  -3.2080219e+00   2.2776955e+01  -2.2456153e+00  -3.8496263e+00  -3.2080219e+00   7.6992526e+00  -1.2511285e+01  -1.3473692e+01  -1.3794494e+01   1.8285725e+01  -1.2511285e+01  -1.0907274e+01  -1.8927329e+01   6.0952416e+00   1.2832088e+01   1.5719307e+01  -9.9448679e+00  -3.2080219e-01   0.0000000e+00   0.0000000e+00   0.0000000e+00   0.0000000e+00
  -7.0576482e+00   2.1172945e+01  -4.1704285e+00   1.8927329e+01  -5.1328350e+00  -4.1704285e+00  -3.5288241e+00   5.7744394e+00  -1.5398505e+01  -1.2511285e+01  -1.3473692e+01   1.5077703e+01  -1.4756901e+01  -1.3152890e+01  -1.9248131e+01   7.0576482e+00   9.9448679e+00   1.4436099e+01  -1.0586472e+01  -3.2080219e-01   0.0000000e+00   0.0000000e+00   0.0000000e+00   0.0000000e+00
  -1.0265670e+01   1.7964923e+01  -5.1328350e+00   1.4756901e+01  -7.6992526e+00  -3.5288241e+00  -4.8120328e+00   4.1704285e+00  -1.7323318e+01  -1.1228077e+01  -1.2511285e+01   1.2190483e+01  -1.6040109e+01  -1.4756901e+01  -1.9568934e+01   8.0200547e+00   8.0200547e+00   1.3152890e+01  -1.0907274e+01   0.0000000e+00   0.0000000e+00   0.0000000e+00   0.0000000e+00   0.0000000e+00
  -1.4115296e+01   1.4756901e+01  -6.4160438e+00   1.0265670e+01  -9.9448679e+00  -3.5288241e+00  -7.0576482e+00   1.9248131e+00  -1.8606527e+01  -1.1228077e+01  -1.2511285e+01   9.3032635e+00  -1.7644120e+01  -1.6360912e+01  -2.0531340e+01   7.6992526e+00   5.7744394e+00   1.0586472e+01  -1.1228077e+01   0.0000000e+00   0.0000000e+00   0.0000000e+00   0.0000000e+00   0.0000000e+00
  -1.7002516e+01   1.2511285e+01  -7.0576482e+00   6.7368460e+00  -1.1869681e+01  -3.5288241e+00  -9.6240657e+00   3.2080219e-01  -1.9248131e+01  -1.2511285e+01  -1.3152890e+01   6.7368460e+00  -1.8927329e+01  -1.7323318e+01  -2.1814549e+01   7.0576482e+00   3.8496263e+00   7.6992526e+00  -1.1548879e+01  -6.4160438e-01   0.0000000e+00   0.0000000e+00   0.0000000e+00   0.0000000e+00
  -1.8606527e+01   1.0586472e+01  -7.6992526e+00   4.1704285e+00  -1.3152890e+01  -4.4912307e+00  -1.1228077e+01  -9.6240657e-01  -1.9889736e+01  -1.5077703e+01  -1.3794494e+01   3.8496263e+00  -2.0852142e+01  -1.8606527e+01  -2.3418560e+01   6.4160438e+00   1.9248131e+00   4.4912307e+00  -1.2511285e+01  -1.9248131e+00   0.0000000e+00   0.0000000e+00   0.0000000e+00   0.0000000e+00
  -1.8927329e+01   8.9824613e+00  -7.6992526e+00   2.8872197e+00  -1.4436099e+01  -5.7744394e+00  -1.2190483e+01  -1.6040109e+00  -2.0852142e+01  -1.7323318e+01  -1.4436099e+01   1.2832088e+00  -2.2776955e+01  -1.9568934e+01  -2.4701769e+01   6.0952416e+00  -3.2080219e-01   1.6040109e+00  -1.3473692e+01  -3.2080219e+00   0.0000000e+00   0.0000000e+00   0.0000000e+00   0.0000000e+00
  -1.8927329e+01   7.6992526e+00  -8.0200547e+00   2.2456153e+00  -1.5398505e+01  -7.0576482e+00  -1.2190483e+01  -1.9248131e+00  -2.2135351e+01  -1.8606527e+01  -1.4756901e+01  -9.6240657e-01  -2.4701769e+01  -2.0531340e+01  -2.5022571e+01   6.4160438e+00  -1.9248131e+00  -6.4160438e-01  -1.4115296e+01  -4.1704285e+00   0.0000000e+00   0.0000000e+00   0.0000000e+00   0.0000000e+00
  -1.9889736e+01   5.7744394e+00  -9.3032635e+00   6.4160438e-01  -1.7644120e+01  -8.6616591e+00  -1.3152890e+01  -2.8872197e+00  -2.4380966e+01  -1.9248131e+01  -1.5398505e+01  -4.1704285e+00  -2.7268186e+01  -2.2135351e+01  -2.5984977e+01   6.0952416e+00  -3.8496263e+00  -3.2080219e+00  -1.5398505e+01  -5.1328350e+00   0.0000000e+00   0.0000000e+00   0.0000000e+00   0.0000000e+00
  -1.9568934e+01   4.8120328e+00  -1.0586472e+01  -6.4160438e-01  -1.9568934e+01  -9.6240657e+00  -1.4436099e+01  -3.5288241e+00  -2.5984977e+01  -1.8927329e+01  -1.5077703e+01  -6.0952416e+00  -2.8872197e+01  -2.3097758e+01  -2.5984977e+01   5.7744394e+00  -5.1328350e+00  -4.8120328e+00  -1.6040109e+01  -4.8120328e+00   0.0000000e+00   0.0000000e+00   0.0000000e+00   0.0000000e+00
  -1.8285725e+01   3.8496263e+00  -1.1869681e+01  -1.2832088e+00  -2.1814549e+01  -1.0907274e+01  -1.6040109e+01  -4.1704285e+00  -2.7268186e+01  -1.9248131e+01  -1.5077703e+01  -7.6992526e+00  -3.0476208e+01  -2.3418560e+01  -2.5984977e+01   5.1328350e+00  -6.4160438e+00  -6.0952416e+00  -1.6681714e+01  -4.4912307e+00   0.0000000e+00   0.0000000e+00   0.0000000e+00   0.0000000e+00
  -1.6040109e+01   3.5288241e+00  -1.2832088e+01  -1.2832088e+00  -2.3418560e+01  -1.2190483e+01  -1.6681714e+01  -4.1704285e+00  -2.8230593e+01  -1.9889736e+01  -1.4756901e+01  -8.6616591e+00  -3.1759417e+01  -2.3097758e+01  -2.5664175e+01   4.8120328e+00  -7.3784504e+00  -6.7368460e+00  -1.7002516e+01  -3.8496263e+00   0.0000000e+00   0.0000000e+00   0.0000000e+00   0.0000000e+00
  -1.4115296e+01   4.1704285e+00  -1.3152890e+01  -3.2080219e-01  -2.4060164e+01  -1.4115296e+01  -1.6040109e+01  -3.8496263e+00  -2.8872197e+01  -2.0210538e+01  -1.3473692e+01  -8.6616591e+00  -3.2080219e+01  -2.1814549e+01  -2.4701769e+01   5.4536372e+00  -7.6992526e+00  -6.4160438e+00  -1.7644120e+01  -2.8872197e+00   0.0000000e+00   0.0000000e+00   0.0000000e+00   0.0000000e+00
  -1.4436099e+01   4.1704285e+00  -1.3473692e+01   1.2832088e+00  -2.4060164e+01  -1.6040109e+01  -1.4756901e+01  -2.8872197e+00  -2.9513801e+01  -2.0210538e+01  -1.1869681e+01  -8.6616591e+00  -3.2080219e+01  -2.0210538e+01  -2.3739362e+01   6.7368460e+00  -8.0200547e+00  -5.4536372e+00  -1.7964923e+01  -2.5664175e+00   0.0000000e+00   0.0000000e+00   0.0000000e+00   0.0000000e+00
  -1.7323318e+01   3.8496263e+00  -1.4115296e+01   3.2080219e+00  -2.2135351e+01  -1.7644120e+01  -1.2832088e+01  -1.9248131e+00  -3.0155406e+01  -1.8927329e+01  -9.6240657e+00  -8.6616591e+00  -3.1438615e+01  -1.8606527e+01  -2.2456153e+01   8.3408569e+00  -7.3784504e+00  -4.1704285e+00  -1.8285725e+01  -1.9248131e+00   0.0000000e+00   0.0000000e+00   0.0000000e+00   0.0000000e+00
  -2.1493747e+01   3.2080219e+00  -1.5077703e+01   5.4536372e+00  -1.9248131e+01  -1.7644120e+01  -1.1548879e+01  -1.2832088e+00  -3.0155406e+01  -1.7002516e+01  -7.6992526e+00  -7.6992526e+00  -3.0797010e+01  -1.7644120e+01  -2.1493747e+01   9.6240657e+00  -6.0952416e+00  -2.2456153e+00  -1.7964923e+01  -1.9248131e+00   0.0000000e+00   0.0000000e+00   0.0000000e+00   0.0000000e+00
  -2.4060164e+01   2.8872197e+00  -1.5719307e+01   8.0200547e+00  -1.5077703e+01  -1.6360912e+01  -1.1869681e+01  -1.2832088e+00  -2.9513801e+01  -1.4756901e+01  -6.0952416e+00  -6.4160438e+00  -2.9513801e+01  -1.7323318e+01  -2.0852142e+01   9.9448679e+00  -4.1704285e+00  -3.2080219e-01  -1.7644120e+01  -1.6040109e+00   0.0000000e+00   0.0000000e+00   0.0000000e+00   0.0000000e+00
  -2.3418560e+01   4.1704285e+00  -1.5077703e+01   1.1548879e+01  -1.0265670e+01  -1.3794494e+01  -1.2190483e+01  -9.6240657e-01  -2.7909791e+01  -1.2832088e+01  -4.4912307e+00  -4.1704285e+00  -2.7909791e+01  -1.6681714e+01  -1.9889736e+01   9.6240657e+00  -1.2832088e+00   1.9248131e+00  -1.6360912e+01  -9.6240657e-01   0.0000000e+00   0.0000000e+00   0.0000000e+00   0.0000000e+00
  -2.0210538e+01   6.4160438e+00  -1.3473692e+01   1.6040109e+01  -5.1328350e+00  -1.0907274e+01  -1.2511285e+01  -3.2080219e-01  -2.6305780e+01  -1.1548879e+01  -4.1704285e+00  -9.6240657e-01  -2.5664175e+01  -1.6040109e+01  -1.8927329e+01   8.9824613e+00   1.6040109e+00   3.8496263e+00  -1.4756901e+01  -6.4160438e-01   0.0000000e+00   0.0000000e+00   0.0000000e+00   0.0000000e+00
  -1.6040109e+01   9.6240657e+00  -1.0907274e+01   2.1172945e+01  -3.2080219e-01  -8.3408569e+00  -1.1869681e+01   0.0000000e+00  -2.5343373e+01  -1.1548879e+01  -4.1704285e+00   1.9248131e+00  -2.3739362e+01  -1.5077703e+01  -1.7964923e+01   8.0200547e+00   4.4912307e+00   5.4536372e+00  -1.3473692e+01  -6.4160438e-01   0.0000000e+00   0.0000000e+00   0.0000000e+00   0.0000000e+00
  -1.2511285e+01   1.3473692e+01  -8.3408569e+00   2.6305780e+01   3.5288241e+00  -6.0952416e+00  -9.9448679e+00   0.0000000e+00  -2.5343373e+01  -1.1869681e+01  -4.4912307e+00   4.8120328e+00  -2.2456153e+01  -1.4115296e+01  -1.7002516e+01   7.3784504e+00   6.7368460e+00   6.4160438e+00  -1.2511285e+01  -1.2832088e+00   0.0000000e+00   0.0000000e+00   0.0000000e+00   0.0000000e+00
  -9.6240657e+00   1.7323318e+01  -5.7744394e+00   3.1438615e+01   7.0576482e+00  -4.1704285e+00  -7.0576482e+00   3.2080219e-01  -2.5022571e+01  -1.1228077e+01  -4.1704285e+00   8.6616591e+00  -2.0852142e+01  -1.3152890e+01  -1.5719307e+01   7.0576482e+00   9.6240657e+00   7.3784504e+00  -1.0907274e+01  -1.9248131e+00   0.0000000e+00   0.0000000e+00   0.0000000e+00   0.0000000e+00
  -7.6992526e+00   1.9889736e+01  -5.4536372e+00   3.5288241e+01   8.9824613e+00  -3.5288241e+00  -5.7744394e+00  -9.6240657e-01  -2.3418560e+01  -9.6240657e+00  -4.1704285e+00   1.2511285e+01  -1.9248131e+01  -1.2190483e+01  -1.4756901e+01   5.7744394e+00   1.1869681e+01   7.6992526e+00  -9.6240657e+00  -3.2080219e+00   0.0000000e+00   0.0000000e+00   0.0000000e+00   0.0000000e+00
  -5.7744394e+00   2.1814549e+01  -6.4160438e+00   3.7854658e+01   1.0265670e+01  -3.2080219e+00  -5.7744394e+00  -2.2456153e+00  -1.9889736e+01  -6.0952416e+00  -3.2080219e+00   1.7323318e+01  -1.6681714e+01  -1.0907274e+01  -1.3473692e+01   4.4912307e+00   1.4756901e+01   7.6992526e+00  -7.6992526e+00  -3.8496263e+00   0.0000000e+00   0.0000000e+00   0.0000000e+00   0.0000000e+00
  -3.8496263e+00   2.2776955e+01  -8.3408569e+00   3.9137867e+01   1.0265670e+01  -3.8496263e+00  -7.0576482e+00  -4.1704285e+00  -1.4756901e+01  -2.2456153e+00  -2.8872197e+00   2.2135351e+01  -1.3794494e+01  -9.6240657e+00  -1.2832088e+01   2.2456153e+00   1.7644120e+01   7.0576482e+00  -6.4160438e+00  -4.8120328e+00   0.0000000e+00   0.0000000e+00   0.0000000e+00   0.0000000e+00
  -9.6240657e-01   2.4380966e+01  -9.9448679e+00   4.0421076e+01   1.0907274e+01  -3.8496263e+00  -8.3408569e+00  -5.7744394e+00  -9.3032635e+00   1.2832088e+00  -2.2456153e+00   2.6626582e+01  -9.6240657e+00  -7.0576482e+00  -1.1548879e+01   6.4160438e-01   2.1172945e+01   6.4160438e+00  -4.8120328e+00  -5.1328350e+00   0.0000000e+00   0.0000000e+00   0.0000000e+00   0.0000000e+00
   2.5664175e+00   2.5984977e+01  -1.1548879e+01   4.2025087e+01   1.1869681e+01  -3.2080219e+00  -8.3408569e+00  -7.3784504e+00  -4.8120328e+00   3.2080219e+00  -1.9248131e+00   3.0797010e+01  -5.1328350e+00  -4.1704285e+00  -1.0265670e+01  -3.2080219e-01   2.4701769e+01   6.0952416e+00  -3.8496263e+00  -6.0952416e+00   0.0000000e+00   0.0000000e+00   0.0000000e+00   0.0000000e+00
   6.7368460e+00   2.7268186e+01  -1.2190483e+01   4.4591504e+01   1.4436099e+01  -1.2832088e+00  -6.7368460e+00  -8.3408569e+00  -1.2832088e+00   4.4912307e+00  -9.6240657e-01   3.4967439e+01   0.0000000e+00  -6.4160438e-01  -8.0200547e+00   0.0000000e+00   2.8872197e+01   6.7368460e+00  -2.8872197e+00  -7.3784504e+00   0.0000000e+00   0.0000000e+00   0.0000000e+00   0.0000000e+00
   1.0265670e+01   2.7268186e+01  -1.3152890e+01   4.7478724e+01   1.7644120e+01   1.9248131e+00  -4.1704285e+00  -9.6240657e+00   2.2456153e+00   5.4536372e+00  -6.4160438e-01   3.8817065e+01   5.7744394e+00   3.2080219e+00  -6.0952416e+00   9.6240657e-01   3.3363428e+01   8.0200547e+00  -2.2456153e+00  -8.9824613e+00   0.0000000e+00   0.0000000e+00   0.0000000e+00   0.0000000e+00
   1.3473692e+01   2.5984977e+01  -1.3794494e+01   4.9403537e+01   2.1172945e+01   6.0952416e+00  -1.2832088e+00  -1.1228077e+01   6.0952416e+00   6.7368460e+00   0.0000000e+00   4.2345889e+01   1.1869681e+01   7.0576482e+00  -3.5288241e+00   1.9248131e+00   3.8175461e+01   9.9448679e+00  -9.6240657e-01  -9.9448679e+00   0.0000000e+00   0.0000000e+00   0.0000000e+00   0.0000000e+00
   1.6360912e+01   2.4060164e+01  -1.4756901e+01   5.0365944e+01   2.3418560e+01   9.9448679e+00   3.2080219e-01  -1.2832088e+01   9.6240657e+00   8.3408569e+00  -6.4160438e-01   4.4912307e+01   1.7002516e+01   1.0265670e+01  -1.9248131e+00   1.9248131e+00   4.2025087e+01   1.1869681e+01   6.4160438e-01  -1.0586472e+01   0.0000000e+00   0.0000000e+00   0.0000000e+00   0.0000000e+00
   1.9889736e+01   2.2135351e+01  -1.5398505e+01   4.9403537e+01   2.4380966e+01   1.2511285e+01   6.4160438e-01  -1.4115296e+01   1.1228077e+01   8.9824613e+00  -1.9248131e+00   4.6195515e+01   2.0210538e+01   1.2511285e+01  -9.6240657e-01   3.2080219e-01   4.4591504e+01   1.3152890e+01   1.6040109e+00  -1.1228077e+01   0.0000000e+00   0.0000000e+00   0.0000000e+00   0.0000000e+00
   2.5022571e+01   2.1493747e+01  -1.4436099e+01   4.8441131e+01   2.3418560e+01   1.4436099e+01   1.2832088e+00  -1.4756901e+01   1.1548879e+01   9.6240657e+00  -3.8496263e+00   4.6837120e+01   2.1172945e+01   1.3794494e+01  -3.2080219e-01  -1.2832088e+00   4.5874713e+01   1.4756901e+01   2.2456153e+00  -1.1228077e+01   0.0000000e+00   0.0000000e+00   0.0000000e+00   0.0000000e+00
   3.0797010e+01   2.1814549e+01  -1.2190483e+01   4.8120328e+01   2.2135351e+01   1.5719307e+01   2.8872197e+00  -1.4115296e+01   1.1869681e+01   9.9448679e+00  -5.1328350e+00   4.7478724e+01   2.0531340e+01   1.4436099e+01   3.2080219e-01  -2.2456153e+00   4.6516318e+01   1.7002516e+01   2.2456153e+00  -1.0907274e+01   0.0000000e+00   0.0000000e+00   0.0000000e+00   0.0000000e+00
   3.4967439e+01   2.2456153e+01  -8.9824613e+00   5.0045142e+01   2.2456153e+01   1.6681714e+01   5.4536372e+00  -1.2190483e+01   1.3473692e+01   1.1548879e+01  -5.7744394e+00   4.9082735e+01   1.9568934e+01   1.4756901e+01   1.6040109e+00  -2.2456153e+00   4.7799526e+01   2.0210538e+01   2.2456153e+00  -1.0586472e+01   0.0000000e+00   0.0000000e+00   0.0000000e+00   0.0000000e+00
   3.5929845e+01   2.2776955e+01  -5.7744394e+00   5.3894768e+01   2.5022571e+01   1.7644120e+01   8.6616591e+00  -9.6240657e+00   1.6681714e+01   1.3794494e+01  -5.4536372e+00   5.1649153e+01   1.9568934e+01   1.4756901e+01   3.2080219e+00  -9.6240657e-01   4.9724339e+01   2.4380966e+01   1.9248131e+00  -9.9448679e+00   0.0000000e+00   0.0000000e+00   0.0000000e+00   0.0000000e+00
   3.3684230e+01   2.3097758e+01  -3.2080219e+00   5.8706801e+01   3.0476208e+01   1.8927329e+01   1.1548879e+01  -7.3784504e+00   2.1172945e+01   1.7002516e+01  -4.4912307e+00   5.6140383e+01   2.1814549e+01   1.5398505e+01   5.1328350e+00   3.2080219e-01   5.2932361e+01   2.8551395e+01   2.2456153e+00  -9.3032635e+00   0.0000000e+00   0.0000000e+00   0.0000000e+00   0.0000000e+00
   3.0155406e+01   2.4060164e+01  -2.2456153e+00   6.3518834e+01   3.6571450e+01   2.0210538e+01   1.3152890e+01  -6.0952416e+00   2.5664175e+01   1.9889736e+01  -3.8496263e+00   6.1594020e+01   2.6947384e+01   1.6681714e+01   6.7368460e+00   9.6240657e-01   5.6781988e+01   3.2721823e+01   2.8872197e+00  -8.9824613e+00   0.0000000e+00   0.0000000e+00   0.0000000e+00   0.0000000e+00
   2.7909791e+01   2.5664175e+01  -1.9248131e+00   6.7368460e+01   4.1383482e+01   2.1493747e+01   1.3473692e+01  -5.7744394e+00   2.8872197e+01   2.2456153e+01  -3.5288241e+00   6.7689262e+01   3.3684230e+01   1.8927329e+01   7.6992526e+00   6.4160438e-01   6.0952416e+01   3.6571450e+01   4.1704285e+00  -8.9824613e+00   0.0000000e+00   0.0000000e+00   0.0000000e+00   0.0000000e+00
   2.6626582e+01   2.7909791e+01  -2.2456153e+00   6.9934877e+01   4.3949900e+01   2.1493747e+01   1.2832088e+01  -6.4160438e+00   3.1117812e+01   2.4060164e+01  -4.1704285e+00   7.3784504e+01   4.0421076e+01   2.1814549e+01   8.0200547e+00  -6.4160438e-01   6.4481240e+01   3.9137867e+01   5.1328350e+00  -9.6240657e+00   0.0000000e+00   0.0000000e+00   0.0000000e+00   0.0000000e+00
   2.5664175e+01   3.0155406e+01  -2.5664175e+00   7.2501295e+01   4.4912307e+01   2.1493747e+01   1.2511285e+01  -7.0576482e+00   3.2721823e+01   2.5343373e+01  -4.8120328e+00   7.8917339e+01   4.5553911e+01   2.4060164e+01   8.0200547e+00  -1.6040109e+00   6.7368460e+01   4.1383482e+01   5.7744394e+00  -1.0265670e+01   0.0000000e+00   0.0000000e+00   0.0000000e+00   0.0000000e+00
   2.3097758e+01   3.2080219e+01  -2.8872197e+00   7.4105306e+01   4.5233109e+01   2.0852142e+01   1.2190483e+01  -8.3408569e+00   3.4005032e+01   2.5984977e+01  -6.7368460e+00   8.2766965e+01   4.8441131e+01   2.5022571e+01   7.0576482e+00  -2.8872197e+00   6.8972471e+01   4.2345889e+01   5.7744394e+00  -1.1869681e+01   0.0000000e+00   0.0000000e+00   0.0000000e+00   0.0000000e+00
   1.9889736e+01   3.4967439e+01  -2.5664175e+00   7.6030119e+01   4.6837120e+01   2.1172945e+01   1.2832088e+01  -8.6616591e+00   3.4646636e+01   2.6626582e+01  -8.3408569e+00   8.5333382e+01   5.0045142e+01   2.5022571e+01   6.4160438e+00  -3.2080219e+00   7.0576482e+01   4.2666691e+01   5.4536372e+00  -1.2832088e+01   0.0000000e+00   0.0000000e+00   0.0000000e+00   0.0000000e+00
   1.7964923e+01   3.8175461e+01  -2.5664175e+00   7.7954932e+01   4.9082735e+01   2.2135351e+01   1.2511285e+01  -9.3032635e+00   3.4005032e+01   2.6947384e+01  -9.9448679e+00   8.7258196e+01   5.1007548e+01   2.3739362e+01   5.4536372e+00  -3.8496263e+00   7.1538888e+01   4.2345889e+01   5.1328350e+00  -1.3794494e+01   0.0000000e+00   0.0000000e+00   0.0000000e+00   0.0000000e+00
   1.8927329e+01   4.1383482e+01  -2.8872197e+00   7.9238141e+01   5.0686746e+01   2.3097758e+01   1.1228077e+01  -1.0265670e+01   3.2401021e+01   2.6305780e+01  -1.1548879e+01   8.8862207e+01   5.1328350e+01   2.2135351e+01   4.4912307e+00  -5.4536372e+00   7.2180493e+01   4.1704285e+01   5.1328350e+00  -1.4756901e+01   0.0000000e+00   0.0000000e+00   0.0000000e+00   0.0000000e+00
   2.2776955e+01   4.3629098e+01  -4.1704285e+00   7.9879745e+01   5.0365944e+01   2.3418560e+01   8.6616591e+00  -1.1869681e+01   3.0155406e+01   2.4380966e+01  -1.3152890e+01   9.0466218e+01   5.1328350e+01   2.0852142e+01   2.8872197e+00  -7.6992526e+00   7.1859691e+01   4.0100274e+01   4.8120328e+00  -1.5719307e+01   0.0000000e+00   0.0000000e+00   0.0000000e+00   0.0000000e+00
   2.6947384e+01   4.3629098e+01  -5.7744394e+00   7.8917339e+01   4.7799526e+01   2.3418560e+01   5.4536372e+00  -1.4115296e+01   2.7588988e+01   2.1493747e+01  -1.5077703e+01   9.1107822e+01   4.9403537e+01   1.8927329e+01   6.4160438e-01  -1.0265670e+01   7.0576482e+01   3.7854658e+01   3.8496263e+00  -1.7323318e+01   0.0000000e+00   0.0000000e+00   0.0000000e+00   0.0000000e+00
   2.9513801e+01   4.2666691e+01  -7.3784504e+00   7.6992526e+01   4.4270702e+01   2.2776955e+01   3.2080219e+00  -1.6040109e+01   2.4380966e+01   1.7323318e+01  -1.7323318e+01   9.0466218e+01   4.5233109e+01   1.6040109e+01  -1.9248131e+00  -1.2832088e+01   6.7689262e+01   3.5288241e+01   2.5664175e+00  -1.9248131e+01   0.0000000e+00   0.0000000e+00   0.0000000e+00   0.0000000e+00
   2.9513801e+01   4.1062680e+01  -8.0200547e+00   7.4426108e+01   4.0741878e+01   2.2776955e+01   2.5664175e+00  -1.6681714e+01   2.0852142e+01   1.2190483e+01  -1.9568934e+01   8.8220602e+01   3.8817065e+01   1.2190483e+01  -4.4912307e+00  -1.4115296e+01   6.4160438e+01   3.3042626e+01   6.4160438e-01  -2.0210538e+01   0.0000000e+00   0.0000000e+00   0.0000000e+00   0.0000000e+00
   2.7909791e+01   4.0421076e+01  -7.6992526e+00   7.2180493e+01   3.8175461e+01   2.2456153e+01   3.2080219e+00  -1.6040109e+01   1.7002516e+01   7.0576482e+00  -2.1493747e+01   8.5333382e+01   3.1759417e+01   7.6992526e+00  -6.7368460e+00  -1.4115296e+01   6.0310812e+01   3.1438615e+01  -9.6240657e-01  -2.0852142e+01   0.0000000e+00   0.0000000e+00   0.0000000e+00   0.0000000e+00
   2.6626582e+01   4.1062680e+01  -6.4160438e+00   7.0576482e+01   3.7213054e+01   2.1814549e+01   4.4912307e+00  -1.4115296e+01   1.3794494e+01   2.8872197e+00  -2.2135351e+01   8.3408569e+01   2.6305780e+01   3.8496263e+00  -8.0200547e+00  -1.3152890e+01   5.7744394e+01   3.1117812e+01  -1.6040109e+00  -2.0531340e+01   0.0000000e+00   0.0000000e+00   0.0000000e+00   0.0000000e+00
   2.6947384e+01   4.1704285e+01  -5.1328350e+00   7.0255680e+01   3.7213054e+01   2.0531340e+01   5.7744394e+00  -1.1869681e+01   1.2190483e+01   9.6240657e-01  -2.1814549e+01   8.3087767e+01   2.3418560e+01   1.6040109e+00  -8.3408569e+00  -1.1228077e+01   5.6461185e+01   3.1759417e+01  -1.9248131e+00  -1.9248131e+01   0.0000000e+00   0.0000000e+00   0.0000000e+00   0.0000000e+00
   2.8230593e+01   4.2345889e+01  -4.4912307e+00   6.9614075e+01   3.7854658e+01   1.9248131e+01   5.7744394e+00  -9.3032635e+00   1.2511285e+01   1.2832088e+00  -2.0852142e+01   8.3729372e+01   2.2135351e+01   0.0000000e+00  -8.3408569e+00  -8.9824613e+00   5.5819581e+01   3.3684230e+01  -1.6040109e+00  -1.7323318e+01   0.0000000e+00   0.0000000e+00   0.0000000e+00   0.0000000e+00
   3.0155406e+01   4.2025087e+01  -3.5288241e+00   6.9293273e+01   3.8817065e+01   1.8285725e+01   5.4536372e+00  -6.7368460e+00   1.3152890e+01   2.5664175e+00  -1.9248131e+01   8.4370976e+01   2.1814549e+01  -2.2456153e+00  -8.0200547e+00  -7.0576482e+00   5.5177977e+01   3.6250647e+01  -1.2832088e+00  -1.5398505e+01   0.0000000e+00   0.0000000e+00   0.0000000e+00   0.0000000e+00
   3.1438615e+01   4.1383482e+01  -2.2456153e+00   6.9293273e+01   4.0100274e+01   1.8927329e+01   6.0952416e+00  -4.1704285e+00   1.3152890e+01   3.5288241e+00  -1.7644120e+01   8.4050174e+01   2.1493747e+01  -4.8120328e+00  -8.3408569e+00  -4.8120328e+00   5.4857174e+01   3.9137867e+01  -9.6240657e-01  -1.3473692e+01   0.0000000e+00   0.0000000e+00   0.0000000e+00   0.0000000e+00
   3.2080219e+01   4.0741878e+01  -9.6240657e-01   6.9934877e+01   4.0741878e+01   2.0210538e+01   8.0200547e+00  -2.5664175e+00   1.0586472e+01   2.8872197e+00  -1.6360912e+01   8.2125361e+01   2.0210538e+01  -7.6992526e+00  -8.9824613e+00  -2.5664175e+00   5.3894768e+01   4.1704285e+01  -9.6240657e-01  -1.1869681e+01   0.0000000e+00   0.0000000e+00   0.0000000e+00   0.0000000e+00
   3.2080219e+01   4.0421076e+01   6.4160438e-01   7.1538888e+01   4.0421076e+01   2.1493747e+01   1.0907274e+01  -1.2832088e+00   6.4160438e+00   9.6240657e-01  -1.5398505e+01   7.9558943e+01   1.8927329e+01  -9.6240657e+00  -9.3032635e+00  -3.2080219e-01   5.3253164e+01   4.3949900e+01  -6.4160438e-01  -1.0265670e+01   0.0000000e+00   0.0000000e+00   0.0000000e+00   0.0000000e+00
   3.1117812e+01   3.9458669e+01   9.6240657e-01   7.1859691e+01   3.8175461e+01   2.1172945e+01   1.3152890e+01  -1.2832088e+00  -3.2080219e-01  -2.8872197e+00  -1.4436099e+01   7.6030119e+01   1.7002516e+01  -1.0265670e+01  -9.6240657e+00   1.2832088e+00   5.1649153e+01   4.4591504e+01  -3.2080219e-01  -8.6616591e+00   0.0000000e+00   0.0000000e+00   0.0000000e+00   0.0000000e+00
   2.9513801e+01   3.7854658e+01   3.2080219e-01   7.1538888e+01   3.4967439e+01   1.8927329e+01   1.3152890e+01  -1.6040109e+00  -8.0200547e+00  -6.7368460e+00  -1.3794494e+01   7.2501295e+01   1.4436099e+01  -8.9824613e+00  -9.6240657e+00   2.2456153e+00   5.0365944e+01   4.4591504e+01   3.2080219e-01  -7.3784504e+00   0.0000000e+00   0.0000000e+00   0.0000000e+00   0.0000000e+00
   2.7268186e+01   3.4646636e+01  -1.6040109e+00   6.9293273e+01   3.0797010e+01   1.5398505e+01   1.0907274e+01  -2.5664175e+00  -1.5719307e+01  -9.9448679e+00  -1.3473692e+01   6.9614075e+01   1.0907274e+01  -8.0200547e+00  -1.0265670e+01   1.9248131e+00   4.8120328e+01   4.3308296e+01   6.4160438e-01  -6.7368460e+00   0.0000000e+00   0.0000000e+00   0.0000000e+00   0.0000000e+00
   2.3739362e+01   3.1117812e+01  -3.5288241e+00   6.6406053e+01   2.7268186e+01   1.2190483e+01   6.7368460e+00  -3.2080219e+00  -2.2135351e+01  -1.1869681e+01  -1.3794494e+01   6.7689262e+01   8.0200547e+00  -7.6992526e+00  -1.1228077e+01   1.2832088e+00   4.6195515e+01   4.1704285e+01   3.2080219e-01  -6.0952416e+00   0.0000000e+00   0.0000000e+00   0.0000000e+00   0.0000000e+00
   1.8927329e+01   2.7909791e+01  -4.8120328e+00   6.3839636e+01   2.5022571e+01   9.6240657e+00   2.5664175e+00  -2.8872197e+00  -2.5022571e+01  -1.2511285e+01  -1.4115296e+01   6.6726855e+01   6.4160438e+00  -7.6992526e+00  -1.1548879e+01   6.4160438e-01   4.4912307e+01   3.9779472e+01   0.0000000e+00  -6.0952416e+00   0.0000000e+00   0.0000000e+00   0.0000000e+00   0.0000000e+00
   1.4115296e+01   2.5343373e+01  -5.1328350e+00   6.2235625e+01   2.4701769e+01   8.3408569e+00   3.2080219e-01  -1.9248131e+00  -2.3418560e+01  -1.2190483e+01  -1.3794494e+01   6.6726855e+01   7.3784504e+00  -6.4160438e+00  -1.1228077e+01   9.6240657e-01   4.5233109e+01   3.8817065e+01   3.2080219e-01  -5.4536372e+00   0.0000000e+00   0.0000000e+00   0.0000000e+00   0.0000000e+00
   9.6240657e+00   2.3739362e+01  -5.7744394e+00   6.1594020e+01   2.4380966e+01   7.0576482e+00  -6.4160438e-01  -9.6240657e-01  -1.9568934e+01  -1.2190483e+01  -1.3794494e+01   6.7047658e+01   1.0586472e+01  -3.8496263e+00  -1.0265670e+01   1.6040109e+00   4.6195515e+01   3.7533856e+01   9.6240657e-01  -5.1328350e+00   0.0000000e+00   0.0000000e+00   0.0000000e+00   0.0000000e+00
   7.0576482e+00   2.2456153e+01  -6.7368460e+00   6.1914823e+01   2.4060164e+01   5.1328350e+00  -6.4160438e-01  -9.6240657e-01  -1.6040109e+01  -1.2511285e+01  -1.3473692e+01   6.6726855e+01   1.3794494e+01  -6.4160438e-01  -9.3032635e+00   2.2456153e+00   4.6837120e+01   3.6250647e+01   1.9248131e+00  -4.8120328e+00   0.0000000e+00   0.0000000e+00   0.0000000e+00   0.0000000e+00
   6.0952416e+00   2.1172945e+01  -8.3408569e+00   6.1914823e+01   2.3739362e+01   2.8872197e+00  -6.4160438e-01  -1.6040109e+00  -1.4115296e+01  -1.2832088e+01  -1.2511285e+01   6.5764449e+01   1.6040109e+01   2.2456153e+00  -8.6616591e+00   2.5664175e+00   4.6837120e+01   3.4325834e+01   3.2080219e+00  -3.8496263e+00   0.0000000e+00   0.0000000e+00   0.0000000e+00   0.0000000e+00
   6.4160438e+00   1.9889736e+01  -9.6240657e+00   6.1273218e+01   2.3418560e+01   1.2832088e+00  -6.4160438e-01  -2.2456153e+00  -1.3152890e+01  -1.1869681e+01  -1.1228077e+01   6.4802042e+01   1.6681714e+01   4.1704285e+00  -8.3408569e+00   2.5664175e+00   4.6516318e+01   3.2401021e+01   4.8120328e+00  -1.9248131e+00   0.0000000e+00   0.0000000e+00   0.0000000e+00   0.0000000e+00
   6.4160438e+00   1.8927329e+01  -1.0265670e+01   6.0631614e+01   2.3739362e+01   1.6040109e+00   0.0000000e+00  -2.2456153e+00  -1.1548879e+01  -8.9824613e+00  -8.9824613e+00   6.3518834e+01   1.7002516e+01   5.1328350e+00  -7.3784504e+00   2.8872197e+00   4.5874713e+01   3.1117812e+01   7.0576482e+00   6.4160438e-01   0.0000000e+00   0.0000000e+00   0.0000000e+00   0.0000000e+00
   5.1328350e+00   1.9568934e+01  -9.9448679e+00   5.9990009e+01   2.5022571e+01   4.1704285e+00   1.9248131e+00  -1.2832088e+00  -8.3408569e+00  -4.4912307e+00  -6.0952416e+00   6.2235625e+01   1.7323318e+01   5.7744394e+00  -5.4536372e+00   4.4912307e+00   4.5553911e+01   3.0797010e+01   9.3032635e+00   3.5288241e+00   0.0000000e+00   0.0000000e+00   0.0000000e+00   0.0000000e+00
   3.5288241e+00   2.1493747e+01  -9.3032635e+00   5.9348405e+01   2.6626582e+01   7.0576482e+00   4.1704285e+00  -3.2080219e-01  -5.1328350e+00  -1.2832088e+00  -3.2080219e+00   5.9348405e+01   1.7644120e+01   6.0952416e+00  -2.8872197e+00   6.4160438e+00   4.4912307e+01   3.0797010e+01   1.1228077e+01   5.7744394e+00   0.0000000e+00   0.0000000e+00   0.0000000e+00   0.0000000e+00
   2.5664175e+00   2.4380966e+01  -8.0200547e+00   5.9027603e+01   2.8230593e+01   9.9448679e+00   7.3784504e+00   6.4160438e-01  -2.5664175e+00   3.2080219e-01  -9.6240657e-01   5.5498779e+01   1.7644120e+01   7.0576482e+00   0.0000000e+00   8.6616591e+00   4.4270702e+01   3.1117812e+01   1.2832088e+01   7.0576482e+00   0.0000000e+00   0.0000000e+00   0.0000000e+00   0.0000000e+00
   2.8872197e+00   2.7588988e+01  -6.7368460e+00   5.8706801e+01   2.9192999e+01   1.1228077e+01   9.6240657e+00   3.2080219e-01  -1.9248131e+00   0.0000000e+00   3.2080219e-01   5.1328350e+01   1.7323318e+01   8.0200547e+00   3.2080219e+00   1.0265670e+01   4.3629098e+01   3.1438615e+01   1.3794494e+01   7.3784504e+00   0.0000000e+00   0.0000000e+00   0.0000000e+00   0.0000000e+00
   3.8496263e+00   2.9513801e+01  -7.0576482e+00   5.7423592e+01   2.8551395e+01   1.1548879e+01   9.6240657e+00  -1.2832088e+00  -3.5288241e+00  -2.5664175e+00   6.4160438e-01   4.6837120e+01   1.6360912e+01   8.3408569e+00   5.1328350e+00   1.0586472e+01   4.2345889e+01   3.0797010e+01   1.4115296e+01   6.7368460e+00   0.0000000e+00   0.0000000e+00   0.0000000e+00   0.0000000e+00
   4.8120328e+00   3.1438615e+01  -7.6992526e+00   5.5819581e+01   2.7268186e+01   1.1869681e+01   8.6616591e+00  -2.8872197e+00  -6.4160438e+00  -4.8120328e+00   6.4160438e-01   4.3629098e+01   1.5077703e+01   8.9824613e+00   6.4160438e+00   1.0265670e+01   4.1383482e+01   3.0476208e+01   1.4436099e+01   5.7744394e+00   0.0000000e+00   0.0000000e+00   0.0000000e+00   0.0000000e+00
   5.1328350e+00   3.3684230e+01  -8.9824613e+00   5.2611559e+01   2.5343373e+01   1.2190483e+01   6.7368460e+00  -4.1704285e+00  -9.3032635e+00  -6.7368460e+00   3.2080219e-01   4.1062680e+01   1.3473692e+01   8.9824613e+00   6.7368460e+00   9.3032635e+00   4.0100274e+01   3.0476208e+01   1.4436099e+01   5.1328350e+00   0.0000000e+00   0.0000000e+00   0.0000000e+00   0.0000000e+00
   4.4912307e+00   3.5929845e+01  -9.9448679e+00   4.8120328e+01   2.2135351e+01   1.2190483e+01   4.8120328e+00  -4.1704285e+00  -1.1869681e+01  -8.3408569e+00   0.0000000e+00   3.8496263e+01   1.1548879e+01   8.3408569e+00   6.0952416e+00   8.6616591e+00   3.7854658e+01   3.0155406e+01   1.4115296e+01   4.8120328e+00   0.0000000e+00   0.0000000e+00   0.0000000e+00   0.0000000e+00
   4.4912307e+00   3.7533856e+01  -9.9448679e+00   4.2987493e+01   1.8606527e+01   1.1869681e+01   3.2080219e+00  -3.2080219e+00  -1.3152890e+01  -8.9824613e+00  -6.4160438e-01   3.5929845e+01   8.9824613e+00   6.7368460e+00   4.8120328e+00   8.9824613e+00   3.5288241e+01   3.0155406e+01   1.3152890e+01   4.8120328e+00   0.0000000e+00   0.0000000e+00   0.0000000e+00   0.0000000e+00
   5.1328350e+00   3.7854658e+01  -9.9448679e+00   3.7854658e+01   1.4436099e+01   1.0586472e+01   2.5664175e+00  -1.6040109e+00  -1.3794494e+01  -9.3032635e+00  -1.2832088e+00   3.3042626e+01   6.0952416e+00   4.8120328e+00   3.5288241e+00   9.9448679e+00   3.2721823e+01   2.9513801e+01   1.2190483e+01   4.8120328e+00   0.0000000e+00   0.0000000e+00   0.0000000e+00   0.0000000e+00
   6.7368460e+00   3.6250647e+01  -8.6616591e+00   3.4005032e+01   1.1548879e+01   9.3032635e+00   2.5664175e+00   0.0000000e+00  -1.2832088e+01  -7.3784504e+00  -1.2832088e+00   3.1759417e+01   4.8120328e+00   3.8496263e+00   2.8872197e+00   1.1228077e+01   3.1438615e+01   2.9513801e+01   1.1548879e+01   4.8120328e+00   0.0000000e+00   0.0000000e+00   0.0000000e+00   0.0000000e+00
   9.6240657e+00   3.3684230e+01  -7.0576482e+00   3.2080219e+01   1.1548879e+01   9.3032635e+00   4.4912307e+00   9.6240657e-01  -8.9824613e+00  -3.5288241e+00  -3.2080219e-01   3.2721823e+01   6.4160438e+00   5.4536372e+00   3.8496263e+00   1.2832088e+01   3.2401021e+01   3.0476208e+01   1.2832088e+01   5.7744394e+00   0.0000000e+00   0.0000000e+00   0.0000000e+00   0.0000000e+00
   1.2190483e+01   3.1759417e+01  -5.7744394e+00   3.2401021e+01   1.4115296e+01   1.1548879e+01   7.0576482e+00   1.2832088e+00  -3.8496263e+00   1.9248131e+00   9.6240657e-01   3.5609043e+01   1.0265670e+01   8.9824613e+00   6.0952416e+00   1.3473692e+01   3.5288241e+01   3.2080219e+01   1.5398505e+01   6.7368460e+00   0.0000000e+00   0.0000000e+00   0.0000000e+00   0.0000000e+00
   1.3473692e+01   3.0155406e+01  -5.7744394e+00   3.3042626e+01   1.7323318e+01   1.4115296e+01   8.9824613e+00   0.0000000e+00   6.4160438e-01   6.7368460e+00   1.6040109e+00   3.8817065e+01   1.4436099e+01   1.2832088e+01   7.0576482e+00   1.2511285e+01   3.7854658e+01   3.3042626e+01   1.7323318e+01   6.7368460e+00   0.0000000e+00   0.0000000e+00   0.0000000e+00   0.0000000e+00
   1.5077703e+01   2.9834604e+01  -6.4160438e+00   3.3363428e+01   1.9248131e+01   1.7002516e+01   1.0265670e+01  -1.9248131e+00   3.5288241e+00   1.0265670e+01   9.6240657e-01   4.1062680e+01   1.7323318e+01   1.5398505e+01   7.0576482e+00   1.0586472e+01   3.9137867e+01   3.3363428e+01   1.7964923e+01   6.0952416e+00   0.0000000e+00   0.0000000e+00   0.0000000e+00   0.0000000e+00
   1.7323318e+01   2.9192999e+01  -8.6616591e+00   3.2401021e+01   1.6681714e+01   1.7323318e+01   1.0265670e+01  -5.1328350e+00   2.8872197e+00   1.1548879e+01  -1.6040109e+00   4.0741878e+01   1.7323318e+01   1.5398505e+01   5.1328350e+00   7.3784504e+00   3.7533856e+01   3.1438615e+01   1.6360912e+01   3.5288241e+00   0.0000000e+00   0.0000000e+00   0.0000000e+00   0.0000000e+00
   2.1814549e+01   2.8551395e+01  -1.0586472e+01   3.1117812e+01   1.0907274e+01   1.6040109e+01   9.6240657e+00  -7.6992526e+00   1.2832088e+00   1.3152890e+01  -4.4912307e+00   3.9458669e+01   1.6040109e+01   1.3794494e+01   2.5664175e+00   4.8120328e+00   3.4967439e+01   2.8551395e+01   1.3473692e+01   6.4160438e-01   0.0000000e+00   0.0000000e+00   0.0000000e+00   0.0000000e+00
   2.7268186e+01   2.7588988e+01  -1.2511285e+01   3.0155406e+01   4.4912307e+00   1.3473692e+01   8.0200547e+00  -1.0265670e+01  -3.2080219e-01   1.5398505e+01  -8.0200547e+00   3.7533856e+01   1.4115296e+01   1.1548879e+01  -3.2080219e-01   2.5664175e+00   3.2080219e+01   2.5664175e+01   9.9448679e+00  -3.2080219e+00   0.0000000e+00   0.0000000e+00   0.0000000e+00   0.0000000e+00
   3.2080219e+01   2.7588988e+01  -1.3794494e+01   3.2080219e+01   3.5288241e+00   1.1228077e+01   5.4536372e+00  -1.1869681e+01   9.6240657e-01   1.8606527e+01  -1.0586472e+01   3.7533856e+01   1.3794494e+01   9.9448679e+00  -1.9248131e+00   9.6240657e-01   3.1759417e+01   2.3739362e+01   7.3784504e+00  -6.4160438e+00   0.0000000e+00   0.0000000e+00   0.0000000e+00   0.0000000e+00
   3.3684230e+01   2.8551395e+01  -1.4756901e+01   3.5929845e+01   9.3032635e+00   1.0265670e+01   2.5664175e+00  -1.3473692e+01   4.1704285e+00   2.1172945e+01  -1.2190483e+01   3.9137867e+01   1.5077703e+01   9.6240657e+00  -2.8872197e+00  -3.2080219e-01   3.3684230e+01   2.3418560e+01   5.7744394e+00  -8.9824613e+00   0.0000000e+00   0.0000000e+00   0.0000000e+00   0.0000000e+00
   3.3363428e+01   3.0797010e+01  -1.5398505e+01   4.0100274e+01   1.8606527e+01   1.0586472e+01  -3.2080219e-01  -1.4436099e+01   8.9824613e+00   2.1493747e+01  -1.3473692e+01   4.1383482e+01   1.7002516e+01   1.0586472e+01  -3.5288241e+00  -1.9248131e+00   3.6250647e+01   2.3739362e+01   4.8120328e+00  -1.0586472e+01   0.0000000e+00   0.0000000e+00   0.0000000e+00   0.0000000e+00
   3.2721823e+01   3.2401021e+01  -1.6040109e+01   4.2666691e+01   2.5343373e+01   1.0586472e+01  -3.2080219e+00  -1.5719307e+01   1.2832088e+01   1.8927329e+01  -1.4436099e+01   4.2987493e+01   1.7644120e+01   1.1548879e+01  -4.8120328e+00  -3.8496263e+00   3.7213054e+01   2.3739362e+01   3.5288241e+00  -1.2190483e+01   0.0000000e+00   0.0000000e+00   0.0000000e+00   0.0000000e+00
   3.2721823e+01   3.3042626e+01  -1.6040109e+01   4.3308296e+01   2.6305780e+01   9.6240657e+00  -4.8120328e+00  -1.6681714e+01   1.4115296e+01   1.4115296e+01  -1.5077703e+01   4.2025087e+01   1.6040109e+01   1.1869681e+01  -6.4160438e+00  -5.7744394e+00   3.5609043e+01   2.3097758e+01   1.6040109e+00  -1.4115296e+01   0.0000000e+00   0.0000000e+00   0.0000000e+00   0.0000000e+00
   3.1438615e+01   3.3042626e+01  -1.6040109e+01   4.2345889e+01   2.3097758e+01   7.3784504e+00  -5.4536372e+00  -1.7964923e+01   1.2832088e+01   8.3408569e+00  -1.6040109e+01   3.9458669e+01   1.1869681e+01   1.0907274e+01  -8.6616591e+00  -7.3784504e+00   3.2080219e+01   2.1814549e+01  -9.6240657e-01  -1.6040109e+01   0.0000000e+00   0.0000000e+00   0.0000000e+00   0.0000000e+00
   2.7268186e+01   3.3684230e+01  -1.5719307e+01   4.1704285e+01   2.0210538e+01   4.1704285e+00  -5.4536372e+00  -1.8606527e+01   1.0586472e+01   3.2080219e+00  -1.6360912e+01   3.6571450e+01   6.7368460e+00   8.9824613e+00  -1.0586472e+01  -8.0200547e+00   2.8872197e+01   2.0852142e+01  -3.5288241e+00  -1.7964923e+01   0.0000000e+00   0.0000000e+00   0.0000000e+00   0.0000000e+00
   1.9248131e+01   3.4646636e+01  -1.6040109e+01   4.1383482e+01   2.0210538e+01   0.0000000e+00  -6.7368460e+00  -1.9568934e+01   7.6992526e+00  -6.4160438e-01  -1.6360912e+01   3.4325834e+01   1.9248131e+00   6.4160438e+00  -1.2190483e+01  -8.6616591e+00   2.6305780e+01   1.9889736e+01  -5.7744394e+00  -1.9568934e+01   0.0000000e+00   0.0000000e+00   0.0000000e+00   0.0000000e+00
   9.9448679e+00   3.6571450e+01  -1.6681714e+01   4.0421076e+01   2.2135351e+01  -5.1328350e+00  -9.3032635e+00  -2.0210538e+01   5.1328350e+00  -3.2080219e+00  -1.6681714e+01   3.3363428e+01  -6.4160438e-01   4.4912307e+00  -1.3152890e+01  -9.3032635e+00   2.4701769e+01   1.9889736e+01  -7.3784504e+00  -2.0852142e+01   0.0000000e+00   0.0000000e+00   0.0000000e+00   0.0000000e+00
   3.5288241e+00   4.0100274e+01  -1.7002516e+01   3.9458669e+01   2.4380966e+01  -9.6240657e+00  -1.1548879e+01  -1.9889736e+01   3.8496263e+00  -3.2080219e+00  -1.6360912e+01   3.4325834e+01   9.6240657e-01   5.1328350e+00  -1.2832088e+01  -9.3032635e+00   2.4701769e+01   2.0852142e+01  -7.6992526e+00  -2.0852142e+01   0.0000000e+00   0.0000000e+00   0.0000000e+00   0.0000000e+00
   1.9248131e+00   4.2987493e+01  -1.7002516e+01   3.6892252e+01   2.4060164e+01  -1.3794494e+01  -1.3152890e+01  -1.8606527e+01   2.5664175e+00  -1.9248131e+00  -1.5719307e+01   3.4967439e+01   4.1704285e+00   6.7368460e+00  -1.2190483e+01  -8.9824613e+00   2.4701769e+01   2.2456153e+01  -6.7368460e+00  -2.0210538e+01   0.0000000e+00   0.0000000e+00   0.0000000e+00   0.0000000e+00
   3.8496263e+00   4.3629098e+01  -1.6360912e+01   3.3042626e+01   2.1172945e+01  -1.6681714e+01  -1.3152890e+01  -1.7323318e+01   3.2080219e-01  -6.4160438e-01  -1.5719307e+01   3.4646636e+01   6.0952416e+00   7.3784504e+00  -1.1869681e+01  -8.6616591e+00   2.3739362e+01   2.3097758e+01  -6.4160438e+00  -1.9568934e+01   0.0000000e+00   0.0000000e+00   0.0000000e+00   0.0000000e+00
   6.7368460e+00   4.1383482e+01  -1.5077703e+01   2.9192999e+01   1.7323318e+01  -1.6360912e+01  -1.1228077e+01  -1.6040109e+01  -2.8872197e+00  -3.2080219e-01  -1.6360912e+01   3.2721823e+01   5.1328350e+00   6.0952416e+00  -1.2190483e+01  -8.3408569e+00   2.2135351e+01   2.3418560e+01  -6.0952416e+00  -1.9248131e+01   0.0000000e+00   0.0000000e+00   0.0000000e+00   0.0000000e+00
   8.3408569e+00   3.7854658e+01  -1.3473692e+01   2.6947384e+01   1.5398505e+01  -1.1869681e+01  -7.6992526e+00  -1.4436099e+01  -5.7744394e+00  -6.4160438e-01  -1.6681714e+01   3.0476208e+01   2.5664175e+00   3.2080219e+00  -1.2511285e+01  -7.3784504e+00   2.1172945e+01   2.3739362e+01  -5.7744394e+00  -1.8606527e+01   0.0000000e+00   0.0000000e+00   0.0000000e+00   0.0000000e+00
   7.3784504e+00   3.3684230e+01  -1.2511285e+01   2.5664175e+01   1.5398505e+01  -4.8120328e+00  -4.1704285e+00  -1.3473692e+01  -8.3408569e+00  -1.2832088e+00  -1.7002516e+01   2.8551395e+01  -3.2080219e-01  -9.6240657e-01  -1.2832088e+01  -7.3784504e+00   2.1172945e+01   2.3739362e+01  -5.4536372e+00  -1.7964923e+01   0.0000000e+00   0.0000000e+00   0.0000000e+00   0.0000000e+00
   7.6992526e+00   3.0797010e+01  -1.0907274e+01   2.6305780e+01   1.6360912e+01   3.2080219e+00  -9.6240657e-01  -1.1869681e+01  -9.3032635e+00  -1.9248131e+00  -1.6681714e+01   2.8551395e+01  -6.4160438e-01  -3.5288241e+00  -1.2190483e+01  -7.3784504e+00   2.2456153e+01   2.4060164e+01  -3.8496263e+00  -1.6360912e+01   0.0000000e+00   0.0000000e+00   0.0000000e+00   0.0000000e+00
   1.2832088e+01   2.9834604e+01  -8.9824613e+00   2.9513801e+01   1.7323318e+01   9.6240657e+00   2.2456153e+00  -9.6240657e+00  -8.6616591e+00  -2.2456153e+00  -1.5398505e+01   3.0476208e+01   1.9248131e+00  -3.5288241e+00  -1.0265670e+01  -7.0576482e+00   2.5022571e+01   2.5664175e+01  -9.6240657e-01  -1.3794494e+01   0.0000000e+00   0.0000000e+00   0.0000000e+00   0.0000000e+00
   2.2456153e+01   3.0797010e+01  -6.4160438e+00   3.3684230e+01   1.7964923e+01   1.4436099e+01   5.1328350e+00  -7.0576482e+00  -7.3784504e+00  -3.2080219e+00  -1.4115296e+01   3.3042626e+01   6.4160438e+00  -9.6240657e-01  -8.3408569e+00  -6.7368460e+00   2.8230593e+01   2.6947384e+01   2.2456153e+00  -1.0907274e+01   0.0000000e+00   0.0000000e+00   0.0000000e+00   0.0000000e+00
   3.2721823e+01   3.3042626e+01  -3.5288241e+00   3.8175461e+01   2.0531340e+01   1.7964923e+01   8.0200547e+00  -4.4912307e+00  -6.7368460e+00  -4.8120328e+00  -1.3473692e+01   3.5288241e+01   9.9448679e+00   2.2456153e+00  -7.0576482e+00  -6.0952416e+00   3.1438615e+01   2.7909791e+01   5.1328350e+00  -8.6616591e+00   0.0000000e+00   0.0000000e+00   0.0000000e+00   0.0000000e+00
   3.8496263e+01   3.5609043e+01  -1.2832088e+00   4.1383482e+01   2.5022571e+01   2.0852142e+01   1.0265670e+01  -2.5664175e+00  -7.3784504e+00  -8.6616591e+00  -1.4115296e+01   3.5929845e+01   1.0586472e+01   4.1704285e+00  -7.3784504e+00  -6.0952416e+00   3.3684230e+01   2.7909791e+01   6.7368460e+00  -7.3784504e+00   0.0000000e+00   0.0000000e+00   0.0000000e+00   0.0000000e+00
   3.7213054e+01   3.9458669e+01   3.2080219e-01   4.3308296e+01   3.0476208e+01   2.2456153e+01   1.1228077e+01  -1.2832088e+00  -9.6240657e+00  -1.3152890e+01  -1.5719307e+01   3.5609043e+01   8.6616591e+00   4.4912307e+00  -9.6240657e+00  -6.4160438e+00   3.4646636e+01   2.6947384e+01   6.7368460e+00  -7.3784504e+00   0.0000000e+00   0.0000000e+00   0.0000000e+00   0.0000000e+00
   3.0476208e+01   4.3949900e+01   9.6240657e-01   4.4270702e+01   3.4325834e+01   2.2135351e+01   1.0586472e+01  -1.2832088e+00  -1.2190483e+01  -1.7644120e+01  -1.7644120e+01   3.4967439e+01   5.7744394e+00   3.5288241e+00  -1.2511285e+01  -7.3784504e+00   3.4325834e+01   2.5022571e+01   6.0952416e+00  -8.0200547e+00   0.0000000e+00   0.0000000e+00   0.0000000e+00   0.0000000e+00
   2.2776955e+01   4.8441131e+01   9.6240657e-01   4.4912307e+01   3.5288241e+01   1.8606527e+01   8.3408569e+00  -1.9248131e+00  -1.4756901e+01  -2.0210538e+01  -1.9248131e+01   3.4325834e+01   3.5288241e+00   2.2456153e+00  -1.5398505e+01  -8.6616591e+00   3.3684230e+01   2.3097758e+01   5.1328350e+00  -8.3408569e+00   0.0000000e+00   0.0000000e+00   0.0000000e+00   0.0000000e+00
   1.7964923e+01   5.1007548e+01   3.2080219e-01   4.5233109e+01   3.4005032e+01   1.2832088e+01   6.0952416e+00  -2.8872197e+00  -1.7323318e+01  -2.1172945e+01  -1.9889736e+01   3.4325834e+01   2.5664175e+00   9.6240657e-01  -1.7002516e+01  -9.9448679e+00   3.3042626e+01   2.1493747e+01   4.1704285e+00  -8.6616591e+00   0.0000000e+00   0.0000000e+00   0.0000000e+00   0.0000000e+00
   1.7002516e+01   5.1328350e+01  -3.2080219e-01   4.6195515e+01   3.2401021e+01   7.6992526e+00   4.8120328e+00  -3.2080219e+00  -1.9889736e+01  -2.0531340e+01  -1.9248131e+01   3.4325834e+01   2.5664175e+00   6.4160438e-01  -1.7002516e+01  -1.0265670e+01   3.2721823e+01   2.0852142e+01   3.5288241e+00  -8.3408569e+00   0.0000000e+00   0.0000000e+00   0.0000000e+00   0.0000000e+00
   1.7964923e+01   4.8761933e+01  -1.2832088e+00   4.6516318e+01   3.1759417e+01   4.4912307e+00   4.8120328e+00  -3.5288241e+00  -2.3739362e+01  -2.0852142e+01  -1.8285725e+01   3.3684230e+01   2.5664175e+00   3.2080219e-01  -1.5719307e+01  -9.9448679e+00   3.2721823e+01   2.0531340e+01   2.5664175e+00  -8.0200547e+00   0.0000000e+00   0.0000000e+00   0.0000000e+00   0.0000000e+00
   1.9248131e+01   4.4912307e+01  -1.9248131e+00   4.7478724e+01   3.3042626e+01   5.1328350e+00   7.0576482e+00  -3.2080219e+00  -2.8230593e+01  -2.1814549e+01  -1.7323318e+01   3.3042626e+01   2.5664175e+00   0.0000000e+00  -1.3794494e+01  -8.3408569e+00   3.3363428e+01   2.1172945e+01   1.9248131e+00  -7.6992526e+00   0.0000000e+00   0.0000000e+00   0.0000000e+00   0.0000000e+00
   1.8927329e+01   4.0741878e+01  -2.2456153e+00   4.8761933e+01   3.5929845e+01   8.9824613e+00   9.9448679e+00  -2.5664175e+00  -3.1759417e+01  -2.2776955e+01  -1.6360912e+01   3.2401021e+01   2.5664175e+00   0.0000000e+00  -1.1869681e+01  -6.0952416e+00   3.4646636e+01   2.2135351e+01   1.2832088e+00  -7.3784504e+00   0.0000000e+00   0.0000000e+00   0.0000000e+00   0.0000000e+00
   1.6681714e+01   3.7533856e+01  -1.9248131e+00   5.0365944e+01   3.9137867e+01   1.3473692e+01   1.2832088e+01  -1.2832088e+00  -3.1759417e+01  -2.2456153e+01  -1.4436099e+01   3.3042626e+01   4.1704285e+00   3.2080219e-01  -9.6240657e+00  -3.8496263e+00   3.6571450e+01   2.4380966e+01   1.9248131e+00  -6.7368460e+00   0.0000000e+00   0.0000000e+00   0.0000000e+00   0.0000000e+00
   1.4115296e+01   3.4005032e+01  -1.6040109e+00   5.1328350e+01   4.0421076e+01   1.7323318e+01   1.4436099e+01  -6.4160438e-01  -2.8872197e+01  -2.0852142e+01  -1.2832088e+01   3.4646636e+01   6.7368460e+00   9.6240657e-01  -8.3408569e+00  -2.5664175e+00   3.8496263e+01   2.6626582e+01   3.2080219e+00  -6.0952416e+00   0.0000000e+00   0.0000000e+00   0.0000000e+00   0.0000000e+00
   1.3152890e+01   3.0476208e+01  -1.6040109e+00   5.1969955e+01   3.9458669e+01   1.9248131e+01   1.4115296e+01  -3.2080219e-01  -2.4060164e+01  -1.8285725e+01  -1.0907274e+01   3.6892252e+01   9.6240657e+00   1.6040109e+00  -7.0576482e+00  -2.2456153e+00   3.9779472e+01   2.8551395e+01   4.4912307e+00  -5.7744394e+00   0.0000000e+00   0.0000000e+00   0.0000000e+00   0.0000000e+00
   1.3794494e+01   2.7588988e+01  -2.5664175e+00   5.1969955e+01   3.6250647e+01   1.9568934e+01   1.2511285e+01  -3.2080219e-01  -2.0852142e+01  -1.6040109e+01  -9.6240657e+00   3.8817065e+01   1.0907274e+01   1.9248131e+00  -6.7368460e+00  -2.8872197e+00   4.0421076e+01   2.9192999e+01   5.1328350e+00  -5.7744394e+00   0.0000000e+00   0.0000000e+00   0.0000000e+00   0.0000000e+00
   1.5719307e+01   2.5984977e+01  -3.5288241e+00   5.1969955e+01   3.2401021e+01   1.7964923e+01   1.0586472e+01  -6.4160438e-01  -1.9889736e+01  -1.5077703e+01  -8.6616591e+00   3.9458669e+01   1.0907274e+01   1.2832088e+00  -6.7368460e+00  -3.5288241e+00   3.9779472e+01   2.9192999e+01   4.8120328e+00  -6.0952416e+00   0.0000000e+00   0.0000000e+00   0.0000000e+00   0.0000000e+00
   1.6681714e+01   2.5984977e+01  -4.4912307e+00   5.1007548e+01   2.9192999e+01   1.4436099e+01   8.3408569e+00  -6.4160438e-01  -2.1814549e+01  -1.5398505e+01  -8.3408569e+00   3.8817065e+01   9.3032635e+00   0.0000000e+00  -7.3784504e+00  -3.5288241e+00   3.8496263e+01   2.8230593e+01   3.2080219e+00  -6.7368460e+00   0.0000000e+00   0.0000000e+00   0.0000000e+00   0.0000000e+00
   1.6681714e+01   2.7268186e+01  -5.4536372e+00   5.0365944e+01   2.7909791e+01   1.0907274e+01   6.7368460e+00   0.0000000e+00  -2.4060164e+01  -1.5719307e+01  -7.6992526e+00   3.7854658e+01   7.3784504e+00  -3.2080219e-01  -8.0200547e+00  -2.2456153e+00   3.7854658e+01   2.7268186e+01   2.2456153e+00  -6.7368460e+00   0.0000000e+00   0.0000000e+00   0.0000000e+00   0.0000000e+00
   1.5398505e+01   2.8551395e+01  -6.4160438e+00   4.9403537e+01   2.8230593e+01   7.3784504e+00   5.1328350e+00   6.4160438e-01  -2.5022571e+01  -1.4756901e+01  -6.4160438e+00   3.7213054e+01   6.4160438e+00   0.0000000e+00  -8.3408569e+00  -6.4160438e-01   3.8175461e+01   2.5984977e+01   1.9248131e+00  -6.4160438e+00   0.0000000e+00   0.0000000e+00   0.0000000e+00   0.0000000e+00
   1.3794494e+01   2.9192999e+01  -7.6992526e+00   4.8120328e+01   2.9834604e+01   5.7744394e+00   3.2080219e+00   6.4160438e-01  -2.4380966e+01  -1.2511285e+01  -4.8120328e+00   3.7533856e+01   6.7368460e+00   1.6040109e+00  -8.6616591e+00   9.6240657e-01   3.9779472e+01   2.5022571e+01   2.2456153e+00  -5.7744394e+00   0.0000000e+00   0.0000000e+00   0.0000000e+00   0.0000000e+00
   1.1548879e+01   2.8230593e+01  -1.0265670e+01   4.7157922e+01   3.1438615e+01   5.1328350e+00   3.2080219e-01  -3.2080219e-01  -2.3097758e+01  -9.3032635e+00  -3.5288241e+00   3.8175461e+01   7.3784504e+00   3.2080219e+00  -9.3032635e+00   9.6240657e-01   4.1383482e+01   2.3739362e+01   3.2080219e+00  -5.1328350e+00   0.0000000e+00   0.0000000e+00   0.0000000e+00   0.0000000e+00
   9.6240657e+00   2.7268186e+01  -1.2190483e+01   4.6195515e+01   3.2721823e+01   6.0952416e+00  -1.9248131e+00  -1.6040109e+00  -2.1814549e+01  -6.4160438e+00  -2.5664175e+00   3.8496263e+01   7.6992526e+00   4.4912307e+00  -8.9824613e+00   3.2080219e-01   4.2666691e+01   2.1814549e+01   4.1704285e+00  -4.4912307e+00   0.0000000e+00   0.0000000e+00   0.0000000e+00   0.0000000e+00
   7.3784504e+00   2.6626582e+01  -1.4115296e+01   4.4591504e+01   3.2080219e+01   7.0576482e+00  -3.5288241e+00  -3.2080219e+00  -2.2135351e+01  -4.8120328e+00  -2.2456153e+00   3.6892252e+01   5.4536372e+00   4.1704285e+00  -8.6616591e+00  -6.4160438e-01   4.2666691e+01   1.8927329e+01   4.4912307e+00  -4.4912307e+00   0.0000000e+00   0.0000000e+00   0.0000000e+00   0.0000000e+00
   6.4160438e+00   2.7588988e+01  -1.4436099e+01   4.2987493e+01   2.9834604e+01   8.0200547e+00  -3.5288241e+00  -4.1704285e+00  -2.4060164e+01  -4.1704285e+00  -2.2456153e+00   3.4325834e+01   1.9248131e+00   2.5664175e+00  -7.6992526e+00  -1.6040109e+00   4.1383482e+01   1.6360912e+01   3.8496263e+00  -4.4912307e+00   0.0000000e+00   0.0000000e+00   0.0000000e+00   0.0000000e+00
   6.7368460e+00   2.9513801e+01  -1.3794494e+01   4.2345889e+01   2.8230593e+01   9.3032635e+00  -2.2456153e+00  -4.4912307e+00  -2.5022571e+01  -3.5288241e+00  -1.9248131e+00   3.2721823e+01  -1.2832088e+00   9.6240657e-01  -6.0952416e+00  -1.2832088e+00   4.0741878e+01   1.4436099e+01   3.5288241e+00  -4.4912307e+00   0.0000000e+00   0.0000000e+00   0.0000000e+00   0.0000000e+00
   8.6616591e+00   3.1438615e+01  -1.3152890e+01   4.3949900e+01   2.7909791e+01   1.0907274e+01  -3.2080219e-01  -4.4912307e+00  -2.2776955e+01  -1.6040109e+00  -9.6240657e-01   3.2721823e+01  -1.9248131e+00   6.4160438e-01  -3.8496263e+00  -6.4160438e-01   4.1062680e+01   1.4115296e+01   3.5288241e+00  -4.1704285e+00   0.0000000e+00   0.0000000e+00   0.0000000e+00   0.0000000e+00
   1.0586472e+01   3.3042626e+01  -1.3152890e+01   4.7478724e+01   3.0155406e+01   1.2832088e+01   6.4160438e-01  -4.8120328e+00  -1.7323318e+01   1.9248131e+00   9.6240657e-01   3.5609043e+01   9.6240657e-01   2.2456153e+00  -1.9248131e+00   0.0000000e+00   4.3629098e+01   1.4756901e+01   4.1704285e+00  -3.8496263e+00   0.0000000e+00   0.0000000e+00   0.0000000e+00   0.0000000e+00
   1.1548879e+01   3.4005032e+01  -1.3794494e+01   5.1007548e+01   3.3684230e+01   1.4436099e+01   3.2080219e-01  -5.7744394e+00  -9.6240657e+00   6.7368460e+00   2.5664175e+00   3.9137867e+01   6.4160438e+00   5.1328350e+00  -9.6240657e-01   0.0000000e+00   4.6837120e+01   1.6040109e+01   5.1328350e+00  -4.1704285e+00   0.0000000e+00   0.0000000e+00   0.0000000e+00   0.0000000e+00
   1.2511285e+01   3.4967439e+01  -1.4115296e+01   5.3894768e+01   3.6571450e+01   1.5719307e+01  -3.2080219e-01  -6.4160438e+00  -1.6040109e+00   1.1228077e+01   3.8496263e+00   4.2666691e+01   1.2190483e+01   8.9824613e+00  -9.6240657e-01  -6.4160438e-01   4.9724339e+01   1.7644120e+01   6.0952416e+00  -4.8120328e+00   0.0000000e+00   0.0000000e+00   0.0000000e+00   0.0000000e+00
   1.2832088e+01   3.5609043e+01  -1.3152890e+01   5.4536372e+01   3.5929845e+01   1.5398505e+01  -6.4160438e-01  -6.7368460e+00   3.5288241e+00   1.3473692e+01   3.8496263e+00   4.3949900e+01   1.5398505e+01   1.1548879e+01  -2.5664175e+00  -1.9248131e+00   5.0686746e+01   1.8606527e+01   6.0952416e+00  -5.7744394e+00   0.0000000e+00   0.0000000e+00   0.0000000e+00   0.0000000e+00
   1.3152890e+01   3.5288241e+01  -1.0907274e+01   5.3573966e+01   3.2721823e+01   1.3794494e+01  -3.2080219e-01  -6.4160438e+00   4.8120328e+00   1.3473692e+01   3.2080219e+00   4.3308296e+01   1.5398505e+01   1.2190483e+01  -4.1704285e+00  -2.8872197e+00   4.9403537e+01   1.9248131e+01   4.8120328e+00  -7.0576482e+00   0.0000000e+00   0.0000000e+00   0.0000000e+00   0.0000000e+00
   1.4115296e+01   3.3684230e+01  -7.6992526e+00   5.2290757e+01   2.8230593e+01   1.1548879e+01   1.2832088e+00  -5.7744394e+00   3.2080219e+00   1.1548879e+01   1.9248131e+00   4.1383482e+01   1.3152890e+01   1.1228077e+01  -5.1328350e+00  -3.2080219e+00   4.7478724e+01   1.9568934e+01   2.8872197e+00  -8.6616591e+00   0.0000000e+00   0.0000000e+00   0.0000000e+00   0.0000000e+00
   1.4436099e+01   3.0797010e+01  -4.8120328e+00   5.1007548e+01   2.4380966e+01   9.3032635e+00   3.2080219e+00  -5.1328350e+00   9.6240657e-01   9.9448679e+00   6.4160438e-01   3.9779472e+01   1.0586472e+01   9.9448679e+00  -4.8120328e+00  -3.5288241e+00   4.5874713e+01   2.0210538e+01   1.2832088e+00  -1.0265670e+01   0.0000000e+00   0.0000000e+00   0.0000000e+00   0.0000000e+00
   1.3152890e+01   2.8230593e+01  -3.2080219e+00   5.0365944e+01   2.3097758e+01   8.3408569e+00   4.4912307e+00  -4.8120328e+00   0.0000000e+00   9.9448679e+00   3.2080219e-01   3.9458669e+01   9.3032635e+00   8.9824613e+00  -2.5664175e+00  -4.1704285e+00   4.6195515e+01   2.1814549e+01   3.2080219e-01  -1.1228077e+01   0.0000000e+00   0.0000000e+00   0.0000000e+00   0.0000000e+00
   9.9448679e+00   2.7268186e+01  -2.5664175e+00   5.0045142e+01   2.4701769e+01   8.6616591e+00   5.1328350e+00  -4.8120328e+00   6.4160438e-01   1.1869681e+01   3.2080219e-01   4.0100274e+01   9.6240657e+00   8.9824613e+00   6.4160438e-01  -5.1328350e+00   4.7799526e+01   2.3418560e+01   6.4160438e-01  -1.1548879e+01   0.0000000e+00   0.0000000e+00   0.0000000e+00   0.0000000e+00
   4.8120328e+00   2.7909791e+01  -3.8496263e+00   4.9082735e+01   2.6626582e+01   9.3032635e+00   4.4912307e+00  -5.4536372e+00   1.6040109e+00   1.4115296e+01   3.2080219e-01   4.0421076e+01   9.9448679e+00   8.0200547e+00   2.2456153e+00  -6.4160438e+00   4.9082735e+01   2.4701769e+01   1.2832088e+00  -1.1869681e+01   0.0000000e+00   0.0000000e+00   0.0000000e+00   0.0000000e+00
   0.0000000e+00   2.9834604e+01  -5.7744394e+00   4.7478724e+01   2.8230593e+01   1.0265670e+01   3.8496263e+00  -6.0952416e+00   1.9248131e+00   1.4756901e+01   0.0000000e+00   4.0100274e+01   9.6240657e+00   6.0952416e+00   1.9248131e+00  -7.6992526e+00   5.0045142e+01   2.5343373e+01   1.2832088e+00  -1.1869681e+01   0.0000000e+00   0.0000000e+00   0.0000000e+00   0.0000000e+00
  -2.5664175e+00   3.2080219e+01  -7.3784504e+00   4.6516318e+01   2.9513801e+01   1.0907274e+01   3.5288241e+00  -6.4160438e+00   1.9248131e+00   1.3152890e+01  -6.4160438e-01   3.9779472e+01   8.6616591e+00   3.5288241e+00   0.0000000e+00  -7.6992526e+00   5.0365944e+01   2.5664175e+01   1.6040109e+00  -1.1548879e+01   0.0000000e+00   0.0000000e+00   0.0000000e+00   0.0000000e+00
  -2.2456153e+00   3.4325834e+01  -8.6616591e+00   4.5874713e+01   3.0476208e+01   1.1548879e+01   3.5288241e+00  -6.7368460e+00   9.6240657e-01   9.3032635e+00  -1.6040109e+00   3.9137867e+01   7.6992526e+00   1.6040109e+00  -3.2080219e+00  -7.3784504e+00   5.0686746e+01   2.5984977e+01   1.6040109e+00  -1.1869681e+01   0.0000000e+00   0.0000000e+00   0.0000000e+00   0.0000000e+00
   0.0000000e+00   3.5929845e+01  -8.9824613e+00   4.5874713e+01   3.1759417e+01   1.2832088e+01   3.8496263e+00  -7.0576482e+00  -3.2080219e-01   4.8120328e+00  -2.5664175e+00   3.8496263e+01   8.0200547e+00   2.5664175e+00  -6.0952416e+00  -7.0576482e+00   5.1649153e+01   2.5984977e+01   2.2456153e+00  -1.2190483e+01   0.0000000e+00   0.0000000e+00   0.0000000e+00   0.0000000e+00
   4.1704285e+00   3.7854658e+01  -8.0200547e+00   4.7157922e+01   3.4967439e+01   1.5077703e+01   4.4912307e+00  -7.0576482e+00  -1.2832088e+00   3.2080219e+00  -3.2080219e+00   3.9458669e+01   9.9448679e+00   6.4160438e+00  -6.7368460e+00  -6.4160438e+00   5.4215570e+01   2.6626582e+01   4.1704285e+00  -1.1548879e+01   0.0000000e+00   0.0000000e+00   0.0000000e+00   0.0000000e+00
   8.0200547e+00   3.9137867e+01  -6.7368460e+00   4.8441131e+01   3.8496263e+01   1.7644120e+01   5.1328350e+00  -7.3784504e+00  -2.2456153e+00   3.8496263e+00  -3.8496263e+00   4.0741878e+01   1.2511285e+01   1.1548879e+01  -5.7744394e+00  -6.7368460e+00   5.6781988e+01   2.7268186e+01   6.7368460e+00  -1.0586472e+01   0.0000000e+00   0.0000000e+00   0.0000000e+00   0.0000000e+00
   1.1869681e+01   3.9779472e+01  -5.1328350e+00   5.0686746e+01   4.2025087e+01   2.0852142e+01   6.0952416e+00  -7.3784504e+00  -2.8872197e+00   6.0952416e+00  -4.1704285e+00   4.2666691e+01   1.5398505e+01   1.6360912e+01  -2.8872197e+00  -7.3784504e+00   5.9348405e+01   2.7909791e+01   9.3032635e+00  -9.3032635e+00   0.0000000e+00   0.0000000e+00   0.0000000e+00   0.0000000e+00
   1.5398505e+01   3.9779472e+01  -3.2080219e+00   5.2932361e+01   4.4270702e+01   2.3097758e+01   7.6992526e+00  -6.7368460e+00  -2.8872197e+00   7.6992526e+00  -5.1328350e+00   4.4270702e+01   1.7644120e+01   1.9889736e+01   6.4160438e-01  -8.0200547e+00   6.1273218e+01   2.7909791e+01   1.0907274e+01  -8.0200547e+00   0.0000000e+00   0.0000000e+00   0.0000000e+00   0.0000000e+00
   1.8285725e+01   3.9458669e+01  -1.6040109e+00   5.4536372e+01   4.4270702e+01   2.4380966e+01   9.9448679e+00  -5.7744394e+00  -3.2080219e+00   7.3784504e+00  -6.7368460e+00   4.5233109e+01   1.9248131e+01   2.1814549e+01   3.8496263e+00  -8.3408569e+00   6.1594020e+01   2.7909791e+01   1.1869681e+01  -7.3784504e+00   0.0000000e+00   0.0000000e+00   0.0000000e+00   0.0000000e+00
   2.0210538e+01   3.9779472e+01  -6.4160438e-01   5.5498779e+01   4.2345889e+01   2.3097758e+01   1.1548879e+01  -5.7744394e+00  -4.1704285e+00   4.8120328e+00  -9.3032635e+00   4.4591504e+01   1.9248131e+01   2.1814549e+01   5.4536372e+00  -8.6616591e+00   6.0952416e+01   2.6626582e+01   1.1548879e+01  -7.0576482e+00   0.0000000e+00   0.0000000e+00   0.0000000e+00   0.0000000e+00
   2.1172945e+01   4.1704285e+01  -3.2080219e-01   5.5819581e+01   3.9458669e+01   1.9889736e+01   1.2190483e+01  -5.7744394e+00  -6.4160438e+00   1.2832088e+00  -1.1869681e+01   4.2666691e+01   1.7964923e+01   2.0852142e+01   5.4536372e+00  -9.3032635e+00   5.9027603e+01   2.5343373e+01   1.0265670e+01  -7.6992526e+00   0.0000000e+00   0.0000000e+00   0.0000000e+00   0.0000000e+00
   2.0852142e+01   4.4591504e+01  -6.4160438e-01   5.5177977e+01   3.5609043e+01   1.4436099e+01   1.0586472e+01  -6.7368460e+00  -9.9448679e+00  -1.9248131e+00  -1.4756901e+01   3.9458669e+01   1.5398505e+01   1.8927329e+01   3.8496263e+00  -1.0265670e+01   5.6781988e+01   2.3739362e+01   8.6616591e+00  -8.3408569e+00   0.0000000e+00   0.0000000e+00   0.0000000e+00   0.0000000e+00
   1.9889736e+01   4.7799526e+01  -1.2832088e+00   5.3894768e+01   3.1759417e+01   8.6616591e+00   7.6992526e+00  -8.0200547e+00  -1.4436099e+01  -4.1704285e+00  -1.6681714e+01   3.5929845e+01   1.1869681e+01   1.6360912e+01   6.4160438e-01  -1.1548879e+01   5.3894768e+01   2.1814549e+01   7.0576482e+00  -9.3032635e+00   0.0000000e+00   0.0000000e+00   0.0000000e+00   0.0000000e+00
   1.8927329e+01   5.0365944e+01  -9.6240657e-01   5.2290757e+01   2.9192999e+01   5.4536372e+00   5.7744394e+00  -8.6616591e+00  -1.8285725e+01  -4.8120328e+00  -1.7323318e+01   3.2721823e+01   8.0200547e+00   1.2832088e+01  -2.2456153e+00  -1.2511285e+01   5.1328350e+01   2.1172945e+01   6.4160438e+00  -8.9824613e+00   0.0000000e+00   0.0000000e+00   0.0000000e+00   0.0000000e+00
   1.8927329e+01   5.2290757e+01   9.6240657e-01   5.1328350e+01   2.9192999e+01   6.4160438e+00   6.0952416e+00  -7.6992526e+00  -2.0852142e+01  -4.8120328e+00  -1.6681714e+01   2.9834604e+01   4.8120328e+00   9.6240657e+00  -3.8496263e+00  -1.2190483e+01   5.0045142e+01   2.2135351e+01   6.7368460e+00  -8.0200547e+00   0.0000000e+00   0.0000000e+00   0.0000000e+00   0.0000000e+00
   2.0531340e+01   5.3573966e+01   3.5288241e+00   5.0365944e+01   3.1117812e+01   1.1228077e+01   8.9824613e+00  -5.7744394e+00  -2.2776955e+01  -6.0952416e+00  -1.5398505e+01   2.6626582e+01   1.6040109e+00   6.0952416e+00  -4.4912307e+00  -1.0907274e+01   4.9403537e+01   2.3739362e+01   7.6992526e+00  -7.0576482e+00   0.0000000e+00   0.0000000e+00   0.0000000e+00   0.0000000e+00
   2.4701769e+01   5.4857174e+01   7.3784504e+00   5.0365944e+01   3.5288241e+01   1.7964923e+01   1.4436099e+01  -2.5664175e+00  -2.4060164e+01  -8.0200547e+00  -1.3794494e+01   2.3739362e+01  -3.2080219e-01   3.5288241e+00  -2.8872197e+00  -8.3408569e+00   4.9724339e+01   2.6947384e+01   9.3032635e+00  -5.4536372e+00   0.0000000e+00   0.0000000e+00   0.0000000e+00   0.0000000e+00
   2.9513801e+01   5.6140383e+01   1.0265670e+01   4.9403537e+01   3.8496263e+01   2.3418560e+01   1.8927329e+01  -3.2080219e-01  -2.5984977e+01  -1.0907274e+01  -1.2832088e+01   2.0531340e+01  -2.5664175e+00   1.2832088e+00  -1.2832088e+00  -5.7744394e+00   4.9724339e+01   2.9192999e+01   1.0265670e+01  -3.8496263e+00   0.0000000e+00   0.0000000e+00   0.0000000e+00   0.0000000e+00
   3.4005032e+01   5.7744394e+01   1.1869681e+01   4.7157922e+01   3.9779472e+01   2.5984977e+01   2.1493747e+01   1.2832088e+00  -2.8230593e+01  -1.3794494e+01  -1.2190483e+01   1.7323318e+01  -4.4912307e+00   0.0000000e+00   0.0000000e+00  -4.4912307e+00   4.8761933e+01   3.0797010e+01   1.1228077e+01  -2.8872197e+00   0.0000000e+00   0.0000000e+00   0.0000000e+00   0.0000000e+00
   3.6250647e+01   5.9027603e+01   1.2190483e+01   4.3949900e+01   3.8817065e+01   2.6626582e+01   2.1493747e+01   2.2456153e+00  -3.0797010e+01  -1.5719307e+01  -1.1869681e+01   1.4756901e+01  -5.7744394e+00   3.2080219e-01   9.6240657e-01  -3.8496263e+00   4.7799526e+01   3.1438615e+01   1.2190483e+01  -1.6040109e+00   0.0000000e+00   0.0000000e+00   0.0000000e+00   0.0000000e+00
   3.6571450e+01   5.9348405e+01   1.1869681e+01   4.0421076e+01   3.6250647e+01   2.6305780e+01   1.9889736e+01   1.9248131e+00  -3.3363428e+01  -1.6360912e+01  -1.2190483e+01   1.2832088e+01  -6.4160438e+00   1.6040109e+00   1.2832088e+00  -4.4912307e+00   4.5874713e+01   3.1117812e+01   1.2832088e+01  -9.6240657e-01   0.0000000e+00   0.0000000e+00   0.0000000e+00   0.0000000e+00
   3.5609043e+01   5.8385999e+01   1.1228077e+01   3.6892252e+01   3.2721823e+01   2.5664175e+01   1.7644120e+01   1.2832088e+00  -3.5929845e+01  -1.6681714e+01  -1.3152890e+01   1.1228077e+01  -7.3784504e+00   2.5664175e+00   3.2080219e-01  -5.7744394e+00   4.2987493e+01   2.9834604e+01   1.2511285e+01  -9.6240657e-01   0.0000000e+00   0.0000000e+00   0.0000000e+00   0.0000000e+00
   3.3363428e+01   5.6781988e+01   1.1228077e+01   3.3684230e+01   2.9192999e+01   2.5343373e+01   1.6040109e+01   6.4160438e-01  -3.8817065e+01  -1.7323318e+01  -1.4756901e+01   9.6240657e+00  -8.9824613e+00   2.5664175e+00  -1.6040109e+00  -7.0576482e+00   3.9458669e+01   2.8230593e+01   1.1548879e+01  -1.2832088e+00   0.0000000e+00   0.0000000e+00   0.0000000e+00   0.0000000e+00
   3.0476208e+01   5.5498779e+01   1.0907274e+01   3.0476208e+01   2.5984977e+01   2.3739362e+01   1.4756901e+01   0.0000000e+00  -4.2025087e+01  -1.8606527e+01  -1.7323318e+01   7.0576482e+00  -1.1869681e+01   9.6240657e-01  -3.8496263e+00  -7.6992526e+00   3.4646636e+01   2.5343373e+01   9.6240657e+00  -1.9248131e+00   0.0000000e+00   0.0000000e+00   0.0000000e+00   0.0000000e+00
   2.6305780e+01   5.5177977e+01   9.6240657e+00   2.6947384e+01   2.3418560e+01   2.0852142e+01   1.2511285e+01  -1.2832088e+00  -4.5553911e+01  -2.0531340e+01  -1.9568934e+01   4.1704285e+00  -1.5719307e+01  -2.5664175e+00  -7.0576482e+00  -8.9824613e+00   2.9513801e+01   2.1814549e+01   6.7368460e+00  -3.5288241e+00   0.0000000e+00   0.0000000e+00   0.0000000e+00   0.0000000e+00
   2.2135351e+01   5.5819581e+01   7.3784504e+00   2.2776955e+01   2.0531340e+01   1.6360912e+01   8.6616591e+00  -3.2080219e+00  -4.8441131e+01  -2.2456153e+01  -2.1814549e+01   6.4160438e-01  -1.9248131e+01  -6.4160438e+00  -9.9448679e+00  -1.0586472e+01   2.4380966e+01   1.7323318e+01   3.8496263e+00  -4.8120328e+00   0.0000000e+00   0.0000000e+00   0.0000000e+00   0.0000000e+00
   1.7964923e+01   5.6461185e+01   4.1704285e+00   1.8606527e+01   1.7644120e+01   1.1228077e+01   3.2080219e+00  -5.1328350e+00  -5.0045142e+01  -2.4060164e+01  -2.3418560e+01  -2.5664175e+00  -2.1814549e+01  -9.6240657e+00  -1.2832088e+01  -1.3152890e+01   1.9568934e+01   1.2832088e+01   1.2832088e+00  -6.7368460e+00   0.0000000e+00   0.0000000e+00   0.0000000e+00   0.0000000e+00
   1.4115296e+01   5.5177977e+01   1.9248131e+00   1.4756901e+01   1.4756901e+01   7.0576482e+00  -1.6040109e+00  -7.0576482e+00  -5.0365944e+01  -2.5343373e+01  -2.4060164e+01  -5.7744394e+00  -2.3739362e+01  -1.2190483e+01  -1.4756901e+01  -1.5398505e+01   1.5077703e+01   8.3408569e+00  -9.6240657e-01  -8.0200547e+00   0.0000000e+00   0.0000000e+00   0.0000000e+00   0.0000000e+00
   1.1228077e+01   5.1649153e+01   6.4160438e-01   1.1548879e+01   1.2190483e+01   3.8496263e+00  -4.8120328e+00  -7.6992526e+00  -5.0365944e+01  -2.6305780e+01  -2.4060164e+01  -8.6616591e+00  -2.5664175e+01  -1.4115296e+01  -1.6360912e+01  -1.7323318e+01   1.1548879e+01   4.8120328e+00  -2.5664175e+00  -9.3032635e+00   0.0000000e+00   0.0000000e+00   0.0000000e+00   0.0000000e+00
   8.9824613e+00   4.6516318e+01   6.4160438e-01   9.6240657e+00   9.9448679e+00   1.6040109e+00  -5.7744394e+00  -8.0200547e+00  -5.0365944e+01  -2.7909791e+01  -2.4060164e+01  -1.1228077e+01  -2.7909791e+01  -1.6040109e+01  -1.7644120e+01  -1.7964923e+01   8.3408569e+00   1.6040109e+00  -3.8496263e+00  -1.0265670e+01   0.0000000e+00   0.0000000e+00   0.0000000e+00   0.0000000e+00
   7.6992526e+00   4.2345889e+01   1.2832088e+00   8.9824613e+00   8.9824613e+00   0.0000000e+00  -4.8120328e+00  -7.3784504e+00  -5.1007548e+01  -2.9834604e+01  -2.3418560e+01  -1.3152890e+01  -3.0155406e+01  -1.8285725e+01  -1.8927329e+01  -1.7323318e+01   6.0952416e+00  -6.4160438e-01  -5.1328350e+00  -1.0907274e+01   0.0000000e+00   0.0000000e+00   0.0000000e+00   0.0000000e+00
   7.3784504e+00   4.0100274e+01   9.6240657e-01   8.0200547e+00   7.6992526e+00  -3.2080219e+00  -4.4912307e+00  -8.0200547e+00  -5.2290757e+01  -3.1759417e+01  -2.3739362e+01  -1.5077703e+01  -3.3042626e+01  -2.1493747e+01  -2.0852142e+01  -1.6360912e+01   3.5288241e+00  -2.8872197e+00  -7.0576482e+00  -1.2511285e+01   0.0000000e+00   0.0000000e+00   0.0000000e+00   0.0000000e+00
   8.9824613e+00   4.0421076e+01   0.0000000e+00   8.0200547e+00   7.3784504e+00  -7.0576482e+00  -4.4912307e+00  -8.6616591e+00  -5.2932361e+01  -3.2401021e+01  -2.3097758e+01  -1.6040109e+01  -3.4646636e+01  -2.3739362e+01  -2.2456153e+01  -1.5077703e+01   1.6040109e+00  -4.4912307e+00  -8.9824613e+00  -1.3794494e+01   0.0000000e+00   0.0000000e+00   0.0000000e+00   0.0000000e+00
   1.2190483e+01   4.2666691e+01  -1.2832088e+00   8.3408569e+00   6.7368460e+00  -1.1228077e+01  -5.7744394e+00  -9.9448679e+00  -5.2611559e+01  -3.0797010e+01  -2.2456153e+01  -1.5719307e+01  -3.4967439e+01  -2.5022571e+01  -2.3739362e+01  -1.4115296e+01   6.4160438e-01  -4.8120328e+00  -9.9448679e+00  -1.4436099e+01   0.0000000e+00   0.0000000e+00   0.0000000e+00   0.0000000e+00
   1.5398505e+01   4.3308296e+01  -2.2456153e+00   8.6616591e+00   5.1328350e+00  -1.3794494e+01  -7.3784504e+00  -1.1548879e+01  -5.1328350e+01  -2.8230593e+01  -2.1493747e+01  -1.4436099e+01  -3.4646636e+01  -2.5664175e+01  -2.4380966e+01  -1.3473692e+01   0.0000000e+00  -4.8120328e+00  -1.0907274e+01  -1.5077703e+01   0.0000000e+00   0.0000000e+00   0.0000000e+00   0.0000000e+00
   1.6360912e+01   4.1383482e+01  -3.2080219e+00   8.9824613e+00   2.8872197e+00  -1.4436099e+01  -8.3408569e+00  -1.2511285e+01  -4.9724339e+01  -2.5664175e+01  -2.0210538e+01  -1.2832088e+01  -3.4005032e+01  -2.5664175e+01  -2.4380966e+01  -1.3152890e+01  -6.4160438e-01  -4.4912307e+00  -1.1548879e+01  -1.5398505e+01   0.0000000e+00   0.0000000e+00   0.0000000e+00   0.0000000e+00
   1.5077703e+01   3.7213054e+01  -2.8872197e+00   9.6240657e+00   9.6240657e-01  -1.2190483e+01  -8.0200547e+00  -1.2832088e+01  -4.8120328e+01  -2.3739362e+01  -1.9248131e+01  -1.1869681e+01  -3.3363428e+01  -2.5664175e+01  -2.3739362e+01  -1.2190483e+01  -9.6240657e-01  -3.5288241e+00  -1.1869681e+01  -1.5719307e+01   0.0000000e+00   0.0000000e+00   0.0000000e+00   0.0000000e+00
   1.2511285e+01   3.3042626e+01  -2.2456153e+00   1.0907274e+01  -6.4160438e-01  -8.6616591e+00  -6.7368460e+00  -1.2511285e+01  -4.7157922e+01  -2.2776955e+01  -1.8285725e+01  -1.0907274e+01  -3.3042626e+01  -2.5664175e+01  -2.2776955e+01  -1.1548879e+01  -9.6240657e-01  -2.5664175e+00  -1.2511285e+01  -1.6040109e+01   0.0000000e+00   0.0000000e+00   0.0000000e+00   0.0000000e+00
   9.9448679e+00   3.0476208e+01  -2.2456153e+00   1.2511285e+01  -1.6040109e+00  -5.7744394e+00  -6.0952416e+00  -1.2832088e+01  -4.7478724e+01  -2.3418560e+01  -1.7964923e+01  -9.9448679e+00  -3.2721823e+01  -2.5664175e+01  -2.1814549e+01  -1.1228077e+01  -9.6240657e-01  -2.2456153e+00  -1.3473692e+01  -1.7002516e+01   0.0000000e+00   0.0000000e+00   0.0000000e+00   0.0000000e+00
   8.3408569e+00   2.9834604e+01  -3.2080219e+00   1.4436099e+01  -2.5664175e+00  -4.1704285e+00  -7.0576482e+00  -1.3794494e+01  -4.7478724e+01  -2.3739362e+01  -1.7644120e+01  -8.6616591e+00  -3.1438615e+01  -2.4380966e+01  -2.1172945e+01  -1.1869681e+01  -6.4160438e-01  -2.2456153e+00  -1.4756901e+01  -1.8285725e+01   0.0000000e+00   0.0000000e+00   0.0000000e+00   0.0000000e+00
   8.0200547e+00   2.9834604e+01  -5.1328350e+00   1.6040109e+01  -2.8872197e+00  -3.8496263e+00  -9.3032635e+00  -1.5077703e+01  -4.6516318e+01  -2.2456153e+01  -1.7644120e+01  -6.4160438e+00  -2.8872197e+01  -2.2776955e+01  -2.0852142e+01  -1.3473692e+01   3.2080219e-01  -2.5664175e+00  -1.5398505e+01  -1.9568934e+01   0.0000000e+00   0.0000000e+00   0.0000000e+00   0.0000000e+00
   9.3032635e+00   2.9834604e+01  -7.0576482e+00   1.7644120e+01  -2.8872197e+00  -2.8872197e+00  -1.1869681e+01  -1.6360912e+01  -4.3629098e+01  -1.7644120e+01  -1.6681714e+01  -3.2080219e+00  -2.5664175e+01  -2.0210538e+01  -2.0852142e+01  -1.5077703e+01   1.9248131e+00  -2.5664175e+00  -1.5077703e+01  -1.9568934e+01   0.0000000e+00   0.0000000e+00   0.0000000e+00   0.0000000e+00
   1.1228077e+01   2.7268186e+01  -9.9448679e+00   1.7644120e+01  -4.4912307e+00  -2.8872197e+00  -1.5398505e+01  -1.7964923e+01  -4.0741878e+01  -1.2190483e+01  -1.7002516e+01  -1.2832088e+00  -2.3739362e+01  -1.9568934e+01  -2.2135351e+01  -1.7644120e+01   2.2456153e+00  -3.8496263e+00  -1.5719307e+01  -2.0531340e+01   0.0000000e+00   0.0000000e+00   0.0000000e+00   0.0000000e+00
   1.4115296e+01   2.3097758e+01  -1.2832088e+01   1.6360912e+01  -6.7368460e+00  -3.8496263e+00  -1.8606527e+01  -1.9248131e+01  -3.8175461e+01  -7.0576482e+00  -1.7644120e+01  -6.4160438e-01  -2.4060164e+01  -2.0852142e+01  -2.4701769e+01  -1.9889736e+01   1.6040109e+00  -6.0952416e+00  -1.7002516e+01  -2.1493747e+01   0.0000000e+00   0.0000000e+00   0.0000000e+00   0.0000000e+00
   1.6360912e+01   1.7964923e+01  -1.6040109e+01   1.5077703e+01  -9.9448679e+00  -6.4160438e+00  -2.1172945e+01  -2.0210538e+01  -3.7854658e+01  -3.8496263e+00  -1.9248131e+01  -9.6240657e-01  -2.6626582e+01  -2.5022571e+01  -2.7909791e+01  -2.1814549e+01   0.0000000e+00  -9.3032635e+00  -1.9248131e+01  -2.2776955e+01   0.0000000e+00   0.0000000e+00   0.0000000e+00   0.0000000e+00
   1.7323318e+01   1.4436099e+01  -1.8285725e+01   1.4115296e+01  -1.2511285e+01  -1.0907274e+01  -2.3418560e+01  -2.0852142e+01  -3.8175461e+01  -2.2456153e+00  -2.0531340e+01  -1.2832088e+00  -2.9513801e+01  -2.9834604e+01  -3.1117812e+01  -2.2776955e+01  -1.9248131e+00  -1.3152890e+01  -2.2135351e+01  -2.4060164e+01   0.0000000e+00   0.0000000e+00   0.0000000e+00   0.0000000e+00
   1.5398505e+01   1.3473692e+01  -2.0210538e+01   1.3473692e+01  -1.4436099e+01  -1.6681714e+01  -2.5984977e+01  -2.1493747e+01  -3.8496263e+01  -2.5664175e+00  -2.1493747e+01  -6.4160438e-01  -3.1438615e+01  -3.4005032e+01  -3.3684230e+01  -2.4060164e+01  -3.5288241e+00  -1.7002516e+01  -2.5022571e+01  -2.5984977e+01   0.0000000e+00   0.0000000e+00   0.0000000e+00   0.0000000e+00
   1.3473692e+01   1.5077703e+01  -2.2135351e+01   1.3794494e+01  -1.5719307e+01  -2.1493747e+01  -2.8230593e+01  -2.1814549e+01  -3.6892252e+01  -2.5664175e+00  -2.0852142e+01   1.6040109e+00  -3.0797010e+01  -3.5288241e+01  -3.4967439e+01  -2.4701769e+01  -3.5288241e+00  -1.9248131e+01  -2.6626582e+01  -2.6947384e+01   0.0000000e+00   0.0000000e+00   0.0000000e+00   0.0000000e+00
   1.1228077e+01   1.6360912e+01  -2.5022571e+01   1.3473692e+01  -1.6681714e+01  -2.5343373e+01  -3.0797010e+01  -2.3097758e+01  -3.4325834e+01  -2.5664175e+00  -2.0210538e+01   3.8496263e+00  -2.8872197e+01  -3.4967439e+01  -3.5929845e+01  -2.5984977e+01  -3.5288241e+00  -2.1172945e+01  -2.8230593e+01  -2.8230593e+01   0.0000000e+00   0.0000000e+00   0.0000000e+00   0.0000000e+00
   9.3032635e+00   1.6681714e+01  -2.7588988e+01   1.3473692e+01  -1.7002516e+01  -2.5984977e+01  -3.2721823e+01  -2.4380966e+01  -3.1759417e+01  -1.9248131e+00  -1.9248131e+01   6.0952416e+00  -2.6947384e+01  -3.3042626e+01  -3.5609043e+01  -2.6626582e+01  -2.8872197e+00  -2.2135351e+01  -2.8872197e+01  -2.8872197e+01   0.0000000e+00   0.0000000e+00   0.0000000e+00   0.0000000e+00
   5.4536372e+00   1.5077703e+01  -2.9192999e+01   1.3152890e+01  -1.5398505e+01  -2.4380966e+01  -3.3363428e+01  -2.4380966e+01  -3.0155406e+01  -1.6040109e+00  -1.8606527e+01   7.0576482e+00  -2.5984977e+01  -3.0797010e+01  -3.4967439e+01  -2.6626582e+01  -2.2456153e+00  -2.2456153e+01  -2.9192999e+01  -2.9192999e+01   0.0000000e+00   0.0000000e+00   0.0000000e+00   0.0000000e+00
  -1.2832088e+00   1.1869681e+01  -2.9513801e+01   1.3473692e+01  -1.1869681e+01  -2.1814549e+01  -3.2721823e+01  -2.3418560e+01  -2.9834604e+01  -2.5664175e+00  -1.8285725e+01   7.3784504e+00  -2.5984977e+01  -2.9513801e+01  -3.4646636e+01  -2.5664175e+01  -1.6040109e+00  -2.2456153e+01  -2.9513801e+01  -2.9192999e+01   0.0000000e+00   0.0000000e+00   0.0000000e+00   0.0000000e+00
  -8.6616591e+00   8.9824613e+00  -2.7588988e+01   1.4756901e+01  -7.0576482e+00  -1.8606527e+01  -3.0155406e+01  -2.1493747e+01  -2.8551395e+01  -3.2080219e+00  -1.7323318e+01   8.6616591e+00  -2.4701769e+01  -2.7588988e+01  -3.3042626e+01  -2.4060164e+01   0.0000000e+00  -2.1172945e+01  -2.9192999e+01  -2.8230593e+01   0.0000000e+00   0.0000000e+00   0.0000000e+00   0.0000000e+00
  -1.5077703e+01   7.6992526e+00  -2.4380966e+01   1.6681714e+01  -2.2456153e+00  -1.5719307e+01  -2.7268186e+01  -1.8606527e+01  -2.5343373e+01  -3.5288241e+00  -1.5719307e+01   1.1548879e+01  -2.2135351e+01  -2.5022571e+01  -3.0797010e+01  -2.1814549e+01   2.5664175e+00  -1.8927329e+01  -2.8230593e+01  -2.6305780e+01   0.0000000e+00   0.0000000e+00   0.0000000e+00   0.0000000e+00
  -1.8285725e+01   7.0576482e+00  -2.1172945e+01   1.9248131e+01   9.6240657e-01  -1.4115296e+01  -2.5022571e+01  -1.6681714e+01  -1.9889736e+01  -2.5664175e+00  -1.3473692e+01   1.5398505e+01  -1.7964923e+01  -2.1814549e+01  -2.8230593e+01  -2.0210538e+01   5.1328350e+00  -1.5398505e+01  -2.6626582e+01  -2.4380966e+01   0.0000000e+00   0.0000000e+00   0.0000000e+00   0.0000000e+00
  -1.7644120e+01   6.4160438e+00  -1.8927329e+01   2.1814549e+01   1.9248131e+00  -1.3794494e+01  -2.4060164e+01  -1.5719307e+01  -1.4115296e+01  -1.6040109e+00  -1.0907274e+01   1.9568934e+01  -1.3473692e+01  -1.8285725e+01  -2.5984977e+01  -1.9248131e+01   7.6992526e+00  -1.1869681e+01  -2.5022571e+01  -2.2776955e+01   0.0000000e+00   0.0000000e+00   0.0000000e+00   0.0000000e+00
  -1.4115296e+01   5.4536372e+00  -1.7964923e+01   2.4060164e+01   1.9248131e+00  -1.4436099e+01  -2.3739362e+01  -1.5398505e+01  -1.0265670e+01  -9.6240657e-01  -9.3032635e+00   2.2776955e+01  -1.0586472e+01  -1.5719307e+01  -2.4380966e+01  -1.8606527e+01   8.9824613e+00  -8.6616591e+00  -2.3739362e+01  -2.1493747e+01   0.0000000e+00   0.0000000e+00   0.0000000e+00   0.0000000e+00
