nt = 4200
nc = 24
channels = F7 T3 T5 Fp1 F3 C3 P3 O1 F8 T4 T6 Fp2 F4 C4 P4 O2 Fz Cz Pz Oz TR SOn Occ RAp
ne = 20
type = N
fsmp = 600.0000000000
orig.file = s6_bl1
orig.nt = 283420
orig.sample_range = 231098 235297
orig.fsmp = 600
orig.subject = 6
orig.run = 42
  -5.2506618e+00  -7.2925859e+00   8.1676962e+00   2.1294351e+01  -4.3755515e+00  -4.6672549e+00  -4.0838481e+00   7.8759927e+00  -9.3345099e+00  -3.7921446e+00   5.2506618e+00   3.1503971e+01  -2.4211385e+01  -1.7502206e+01   4.0838481e+00   6.1257721e+00   2.0419240e+00  -5.5423652e+00  -2.0419240e+00   8.1676962e+00   0.0000000e+00   0.0000000e+00   0.0000000e+00   0.0000000e+00
  -4.0838481e+00  -6.7091790e+00   7.2925859e+00   2.0710944e+01  -4.0838481e+00  -4.9589584e+00  -4.6672549e+00   7.8759927e+00  -8.1676962e+00  -2.3336275e+00   5.5423652e+00   3.1503971e+01  -2.4211385e+01  -1.8085613e+01   3.7921446e+00   5.5423652e+00   1.7502206e+00  -4.3755515e+00  -3.5004412e+00   7.5842893e+00   0.0000000e+00   0.0000000e+00   0.0000000e+00   0.0000000e+00
  -2.3336275e+00  -6.1257721e+00   6.4174756e+00   1.9544130e+01  -4.0838481e+00  -5.5423652e+00  -4.9589584e+00   7.5842893e+00  -6.7091790e+00  -2.9170343e-01   5.8340687e+00   3.1212267e+01  -2.3919682e+01  -1.8377316e+01   3.7921446e+00   4.9589584e+00   1.1668137e+00  -2.9170343e+00  -4.6672549e+00   7.0008824e+00   0.0000000e+00   0.0000000e+00   0.0000000e+00   0.0000000e+00
  -1.4585172e+00  -5.8340687e+00   5.2506618e+00   1.8669020e+01  -4.6672549e+00  -6.1257721e+00  -5.8340687e+00   7.0008824e+00  -6.1257721e+00   1.4585172e+00   6.1257721e+00   3.0920564e+01  -2.3919682e+01  -1.8960723e+01   4.0838481e+00   4.3755515e+00   2.9170343e-01  -2.3336275e+00  -6.1257721e+00   6.4174756e+00   0.0000000e+00   0.0000000e+00   0.0000000e+00   0.0000000e+00
  -1.1668137e+00  -6.1257721e+00   4.0838481e+00   1.9252427e+01  -5.2506618e+00  -6.7091790e+00  -6.4174756e+00   6.4174756e+00  -5.2506618e+00   2.6253309e+00   6.7091790e+00   3.1503971e+01  -2.3336275e+01  -1.9544130e+01   4.3755515e+00   3.7921446e+00   0.0000000e+00  -2.0419240e+00  -7.0008824e+00   5.5423652e+00   0.0000000e+00   0.0000000e+00   0.0000000e+00   0.0000000e+00
  -1.4585172e+00  -6.1257721e+00   2.9170343e+00   2.1002647e+01  -6.1257721e+00  -7.0008824e+00  -6.7091790e+00   5.8340687e+00  -4.0838481e+00   2.9170343e+00   7.2925859e+00   3.2962488e+01  -2.2169461e+01  -2.0127537e+01   4.6672549e+00   3.7921446e+00   2.9170343e-01  -2.0419240e+00  -7.0008824e+00   4.3755515e+00   0.0000000e+00   0.0000000e+00   0.0000000e+00   0.0000000e+00
  -2.3336275e+00  -6.1257721e+00   2.0419240e+00   2.2461164e+01  -7.0008824e+00  -7.2925859e+00  -7.0008824e+00   4.6672549e+00  -2.9170343e+00   2.6253309e+00   7.8759927e+00   3.4421005e+01  -2.1294351e+01  -2.0710944e+01   4.6672549e+00   3.2087378e+00   8.7511030e-01  -2.3336275e+00  -7.0008824e+00   3.5004412e+00   0.0000000e+00   0.0000000e+00   0.0000000e+00   0.0000000e+00
  -2.9170343e+00  -5.8340687e+00   1.4585172e+00   2.3336275e+01  -7.8759927e+00  -7.5842893e+00  -7.2925859e+00   3.2087378e+00  -1.1668137e+00   2.6253309e+00   8.4593996e+00   3.5296116e+01  -2.0127537e+01  -2.0419240e+01   4.9589584e+00   2.6253309e+00   1.1668137e+00  -2.3336275e+00  -7.0008824e+00   2.6253309e+00   0.0000000e+00   0.0000000e+00   0.0000000e+00   0.0000000e+00
  -2.9170343e+00  -4.6672549e+00   1.4585172e+00   2.3627978e+01  -8.1676962e+00  -7.0008824e+00  -7.0008824e+00   2.0419240e+00   1.4585172e+00   3.7921446e+00   9.3345099e+00   3.6462929e+01  -1.8377316e+01  -1.8960723e+01   5.2506618e+00   2.3336275e+00   2.3336275e+00  -1.1668137e+00  -6.7091790e+00   2.6253309e+00   0.0000000e+00   0.0000000e+00   0.0000000e+00   0.0000000e+00
  -2.6253309e+00  -3.5004412e+00   1.4585172e+00   2.3919682e+01  -7.8759927e+00  -6.4174756e+00  -6.7091790e+00   1.1668137e+00   4.0838481e+00   6.1257721e+00   1.0209620e+01   3.7629743e+01  -1.6627096e+01  -1.7210503e+01   5.2506618e+00   2.6253309e+00   2.9170343e+00   1.1668137e+00  -7.0008824e+00   2.9170343e+00   0.0000000e+00   0.0000000e+00   0.0000000e+00   0.0000000e+00
  -2.3336275e+00  -2.3336275e+00   1.7502206e+00   2.5086495e+01  -7.2925859e+00  -5.5423652e+00  -6.1257721e+00   8.7511030e-01   6.7091790e+00   8.7511030e+00   1.1668137e+01   3.8796557e+01  -1.4293468e+01  -1.5460282e+01   5.2506618e+00   3.5004412e+00   4.3755515e+00   4.0838481e+00  -7.0008824e+00   3.5004412e+00   0.0000000e+00   0.0000000e+00   0.0000000e+00   0.0000000e+00
  -2.6253309e+00  -2.3336275e+00   8.7511030e-01   2.6253309e+01  -7.5842893e+00  -5.8340687e+00  -6.1257721e+00   2.9170343e-01   7.8759927e+00   9.6262133e+00   1.2543248e+01   3.9671667e+01  -1.3126655e+01  -1.4876875e+01   4.0838481e+00   3.7921446e+00   4.9589584e+00   6.1257721e+00  -7.2925859e+00   3.5004412e+00   0.0000000e+00   0.0000000e+00   0.0000000e+00   0.0000000e+00
  -3.7921446e+00  -3.2087378e+00  -2.9170343e-01   2.6836716e+01  -8.1676962e+00  -6.4174756e+00  -7.0008824e+00  -8.7511030e-01   7.0008824e+00   8.7511030e+00   1.2251544e+01   4.0255074e+01  -1.2834951e+01  -1.5460282e+01   2.3336275e+00   3.5004412e+00   4.9589584e+00   6.4174756e+00  -7.8759927e+00   2.3336275e+00   0.0000000e+00   0.0000000e+00   0.0000000e+00   0.0000000e+00
  -5.5423652e+00  -4.9589584e+00  -2.3336275e+00   2.5086495e+01  -1.0209620e+01  -8.7511030e+00  -9.0428065e+00  -3.7921446e+00   4.3755515e+00   5.8340687e+00   9.9179168e+00   3.9088260e+01  -1.4293468e+01  -1.7793909e+01  -5.8340687e-01   1.4585172e+00   3.5004412e+00   4.3755515e+00  -9.3345099e+00  -2.9170343e-01   0.0000000e+00   0.0000000e+00   0.0000000e+00   0.0000000e+00
  -6.7091790e+00  -6.7091790e+00  -4.0838481e+00   2.1877758e+01  -1.2251544e+01  -1.1084730e+01  -1.1376434e+01  -7.5842893e+00   1.1668137e+00   2.3336275e+00   6.4174756e+00   3.7338040e+01  -1.6627096e+01  -2.0419240e+01  -3.2087378e+00  -1.7502206e+00   1.7502206e+00   8.7511030e-01  -1.1084730e+01  -3.5004412e+00   0.0000000e+00   0.0000000e+00   0.0000000e+00   0.0000000e+00
  -7.2925859e+00  -8.1676962e+00  -5.8340687e+00   1.6918799e+01  -1.4001765e+01  -1.3418358e+01  -1.3710061e+01  -1.1084730e+01  -1.7502206e+00  -5.8340687e-01   2.0419240e+00   3.5004412e+01  -1.8960723e+01  -2.3336275e+01  -5.5423652e+00  -5.8340687e+00  -5.8340687e-01  -3.5004412e+00  -1.3418358e+01  -6.7091790e+00   0.0000000e+00   0.0000000e+00   0.0000000e+00   0.0000000e+00
  -7.0008824e+00  -8.7511030e+00  -6.7091790e+00   1.2543248e+01  -1.5168579e+01  -1.4876875e+01  -1.5460282e+01  -1.4293468e+01  -3.7921446e+00  -2.6253309e+00  -2.0419240e+00   3.2670785e+01  -2.1294351e+01  -2.5669902e+01  -7.5842893e+00  -9.3345099e+00  -2.6253309e+00  -7.5842893e+00  -1.5751985e+01  -9.3345099e+00   0.0000000e+00   0.0000000e+00   0.0000000e+00   0.0000000e+00
  -6.1257721e+00  -8.7511030e+00  -6.4174756e+00   1.0501324e+01  -1.5168579e+01  -1.5168579e+01  -1.5751985e+01  -1.5460282e+01  -4.6672549e+00  -4.3755515e+00  -5.2506618e+00   3.1212267e+01  -2.2461164e+01  -2.7128419e+01  -9.0428065e+00  -1.1084730e+01  -3.7921446e+00  -1.0209620e+01  -1.7793909e+01  -1.0793027e+01   0.0000000e+00   0.0000000e+00   0.0000000e+00   0.0000000e+00
  -4.9589584e+00  -8.1676962e+00  -5.5423652e+00   1.1376434e+01  -1.3710061e+01  -1.4293468e+01  -1.5168579e+01  -1.4585172e+01  -4.6672549e+00  -6.1257721e+00  -6.7091790e+00   3.1503971e+01  -2.2169461e+01  -2.8003530e+01  -9.9179168e+00  -1.1084730e+01  -3.2087378e+00  -1.1084730e+01  -1.8669020e+01  -1.1084730e+01   0.0000000e+00   0.0000000e+00   0.0000000e+00   0.0000000e+00
  -3.7921446e+00  -6.7091790e+00  -3.5004412e+00   1.4876875e+01  -1.1376434e+01  -1.2543248e+01  -1.3710061e+01  -1.2251544e+01  -4.0838481e+00  -7.8759927e+00  -6.4174756e+00   3.2962488e+01  -2.1002647e+01  -2.8295233e+01  -1.0209620e+01  -9.3345099e+00  -8.7511030e-01  -1.0501324e+01  -1.8085613e+01  -9.9179168e+00   0.0000000e+00   0.0000000e+00   0.0000000e+00   0.0000000e+00
  -2.9170343e+00  -4.6672549e+00  -8.7511030e-01   1.9252427e+01  -8.7511030e+00  -1.1084730e+01  -1.2251544e+01  -9.3345099e+00  -3.2087378e+00  -9.3345099e+00  -5.8340687e+00   3.5587819e+01  -1.9544130e+01  -2.8586937e+01  -1.0209620e+01  -6.7091790e+00   2.0419240e+00  -8.7511030e+00  -1.6627096e+01  -8.4593996e+00   0.0000000e+00   0.0000000e+00   0.0000000e+00   0.0000000e+00
  -2.9170343e+00  -3.5004412e+00   1.1668137e+00   2.1877758e+01  -7.0008824e+00  -1.0501324e+01  -1.1959841e+01  -7.2925859e+00  -3.2087378e+00  -1.0501324e+01  -5.8340687e+00   3.6754633e+01  -1.8960723e+01  -2.9753750e+01  -1.0793027e+01  -5.5423652e+00   3.7921446e+00  -7.5842893e+00  -1.6043689e+01  -7.5842893e+00   0.0000000e+00   0.0000000e+00   0.0000000e+00   0.0000000e+00
  -2.9170343e+00  -2.3336275e+00   2.9170343e+00   2.2461164e+01  -6.1257721e+00  -1.0209620e+01  -1.2251544e+01  -5.8340687e+00  -3.7921446e+00  -1.1376434e+01  -6.1257721e+00   3.7046336e+01  -1.8960723e+01  -3.0628861e+01  -1.1376434e+01  -4.6672549e+00   4.3755515e+00  -6.7091790e+00  -1.6335392e+01  -6.7091790e+00   0.0000000e+00   0.0000000e+00   0.0000000e+00   0.0000000e+00
  -3.2087378e+00  -1.7502206e+00   4.0838481e+00   2.1294351e+01  -5.8340687e+00  -1.0793027e+01  -1.2834951e+01  -5.2506618e+00  -5.2506618e+00  -1.2251544e+01  -7.0008824e+00   3.6171226e+01  -1.9544130e+01  -3.2087378e+01  -1.2251544e+01  -4.6672549e+00   4.0838481e+00  -6.4174756e+00  -1.6918799e+01  -6.1257721e+00   0.0000000e+00   0.0000000e+00   0.0000000e+00   0.0000000e+00
  -3.5004412e+00  -1.7502206e+00   4.3755515e+00   1.9544130e+01  -6.1257721e+00  -1.1668137e+01  -1.3418358e+01  -5.2506618e+00  -7.2925859e+00  -1.4001765e+01  -8.4593996e+00   3.4421005e+01  -2.1002647e+01  -3.3545895e+01  -1.2834951e+01  -4.9589584e+00   2.6253309e+00  -7.2925859e+00  -1.8377316e+01  -5.5423652e+00   0.0000000e+00   0.0000000e+00   0.0000000e+00   0.0000000e+00
  -3.5004412e+00  -1.7502206e+00   4.9589584e+00   1.9252427e+01  -6.4174756e+00  -1.1959841e+01  -1.2834951e+01  -4.0838481e+00  -9.3345099e+00  -1.5460282e+01  -9.3345099e+00   3.3254191e+01  -2.1877758e+01  -3.4712709e+01  -1.2543248e+01  -4.3755515e+00   1.7502206e+00  -8.1676962e+00  -1.8669020e+01  -4.6672549e+00   0.0000000e+00   0.0000000e+00   0.0000000e+00   0.0000000e+00
  -3.5004412e+00  -2.3336275e+00   4.9589584e+00   1.9835834e+01  -7.0008824e+00  -1.2251544e+01  -1.2251544e+01  -2.9170343e+00  -1.1084730e+01  -1.6627096e+01  -9.6262133e+00   3.2670785e+01  -2.2461164e+01  -3.5296116e+01  -1.2251544e+01  -3.5004412e+00   1.1668137e+00  -9.3345099e+00  -1.8377316e+01  -3.5004412e+00   0.0000000e+00   0.0000000e+00   0.0000000e+00   0.0000000e+00
  -3.7921446e+00  -2.6253309e+00   5.2506618e+00   2.1002647e+01  -7.2925859e+00  -1.2251544e+01  -1.1376434e+01  -1.4585172e+00  -1.1668137e+01  -1.6043689e+01  -9.0428065e+00   3.2670785e+01  -2.2169461e+01  -3.5296116e+01  -1.1668137e+01  -2.3336275e+00   8.7511030e-01  -9.9179168e+00  -1.7210503e+01  -2.0419240e+00   0.0000000e+00   0.0000000e+00   0.0000000e+00   0.0000000e+00
  -4.6672549e+00  -2.6253309e+00   5.5423652e+00   2.1002647e+01  -7.8759927e+00  -1.2543248e+01  -1.0501324e+01  -2.9170343e-01  -1.1376434e+01  -1.3710061e+01  -7.8759927e+00   3.2379081e+01  -2.1586054e+01  -3.4712709e+01  -1.1084730e+01  -1.4585172e+00   8.7511030e-01  -9.9179168e+00  -1.6043689e+01  -8.7511030e-01   0.0000000e+00   0.0000000e+00   0.0000000e+00   0.0000000e+00
  -6.4174756e+00  -3.2087378e+00   5.5423652e+00   1.8960723e+01  -9.3345099e+00  -1.3418358e+01  -1.0793027e+01   0.0000000e+00  -1.0501324e+01  -1.0501324e+01  -7.0008824e+00   3.1212267e+01  -2.1002647e+01  -3.3545895e+01  -1.0793027e+01  -1.1668137e+00   0.0000000e+00  -9.3345099e+00  -1.5460282e+01  -2.9170343e-01   0.0000000e+00   0.0000000e+00   0.0000000e+00   0.0000000e+00
  -8.1676962e+00  -4.0838481e+00   5.5423652e+00   1.6043689e+01  -1.0793027e+01  -1.4585172e+01  -1.1376434e+01  -2.9170343e-01  -9.3345099e+00  -7.5842893e+00  -6.1257721e+00   2.9462047e+01  -2.1002647e+01  -3.2379081e+01  -1.1084730e+01  -1.1668137e+00  -1.1668137e+00  -8.1676962e+00  -1.5460282e+01   0.0000000e+00   0.0000000e+00   0.0000000e+00   0.0000000e+00   0.0000000e+00
  -1.0209620e+01  -5.2506618e+00   4.9589584e+00   1.2834951e+01  -1.2834951e+01  -1.5460282e+01  -1.1668137e+01  -2.9170343e-01  -8.1676962e+00  -5.5423652e+00  -5.5423652e+00   2.7420123e+01  -2.1002647e+01  -3.0920564e+01  -1.1084730e+01  -1.4585172e+00  -2.3336275e+00  -6.7091790e+00  -1.5751985e+01  -2.9170343e-01   0.0000000e+00   0.0000000e+00   0.0000000e+00   0.0000000e+00
  -1.1668137e+01  -6.1257721e+00   4.3755515e+00   1.1376434e+01  -1.4001765e+01  -1.6335392e+01  -1.1084730e+01   2.9170343e-01  -7.2925859e+00  -4.3755515e+00  -4.0838481e+00   2.5961606e+01  -2.0710944e+01  -2.9753750e+01  -1.0501324e+01  -8.7511030e-01  -2.9170343e+00  -4.9589584e+00  -1.5168579e+01   0.0000000e+00   0.0000000e+00   0.0000000e+00   0.0000000e+00   0.0000000e+00
  -1.2543248e+01  -7.2925859e+00   3.7921446e+00   1.0793027e+01  -1.5460282e+01  -1.6918799e+01  -1.0501324e+01   8.7511030e-01  -6.7091790e+00  -3.7921446e+00  -3.2087378e+00   2.5378199e+01  -2.0710944e+01  -2.8586937e+01  -9.9179168e+00  -2.9170343e-01  -3.5004412e+00  -3.7921446e+00  -1.4001765e+01   0.0000000e+00   0.0000000e+00   0.0000000e+00   0.0000000e+00   0.0000000e+00
  -1.2834951e+01  -8.1676962e+00   3.5004412e+00   1.0793027e+01  -1.6627096e+01  -1.7502206e+01  -9.6262133e+00   1.4585172e+00  -6.7091790e+00  -3.5004412e+00  -2.3336275e+00   2.4503088e+01  -2.0710944e+01  -2.7711826e+01  -9.0428065e+00   0.0000000e+00  -4.0838481e+00  -3.5004412e+00  -1.2543248e+01   0.0000000e+00   0.0000000e+00   0.0000000e+00   0.0000000e+00   0.0000000e+00
  -1.2834951e+01  -9.3345099e+00   3.2087378e+00   9.9179168e+00  -1.8085613e+01  -1.8377316e+01  -9.3345099e+00   1.1668137e+00  -7.2925859e+00  -3.7921446e+00  -2.0419240e+00   2.2752868e+01  -2.1294351e+01  -2.7128419e+01  -8.1676962e+00  -5.8340687e-01  -4.9589584e+00  -4.3755515e+00  -1.1668137e+01  -5.8340687e-01   0.0000000e+00   0.0000000e+00   0.0000000e+00   0.0000000e+00
  -1.2543248e+01  -9.9179168e+00   3.5004412e+00   8.4593996e+00  -1.9252427e+01  -1.8960723e+01  -9.3345099e+00   5.8340687e-01  -7.8759927e+00  -4.6672549e+00  -2.3336275e+00   2.0419240e+01  -2.2169461e+01  -2.6545013e+01  -7.2925859e+00  -1.7502206e+00  -6.4174756e+00  -5.8340687e+00  -1.1084730e+01  -1.1668137e+00   0.0000000e+00   0.0000000e+00   0.0000000e+00   0.0000000e+00
  -1.3126655e+01  -1.1084730e+01   3.5004412e+00   6.1257721e+00  -2.1002647e+01  -2.0419240e+01  -1.0209620e+01  -5.8340687e-01  -8.7511030e+00  -6.7091790e+00  -3.2087378e+00   1.7502206e+01  -2.3336275e+01  -2.6253309e+01  -6.4174756e+00  -3.2087378e+00  -8.1676962e+00  -7.8759927e+00  -1.2251544e+01  -2.3336275e+00   0.0000000e+00   0.0000000e+00   0.0000000e+00   0.0000000e+00
  -1.4001765e+01  -1.1376434e+01   3.7921446e+00   5.2506618e+00  -2.1294351e+01  -2.0710944e+01  -1.0209620e+01  -5.8340687e-01  -8.1676962e+00  -8.1676962e+00  -3.2087378e+00   1.5751985e+01  -2.3627978e+01  -2.5086495e+01  -5.2506618e+00  -3.5004412e+00  -8.7511030e+00  -8.7511030e+00  -1.2834951e+01  -2.6253309e+00   0.0000000e+00   0.0000000e+00   0.0000000e+00   0.0000000e+00
  -1.5751985e+01  -1.1668137e+01   4.0838481e+00   6.1257721e+00  -2.1294351e+01  -2.0710944e+01  -1.0501324e+01  -2.9170343e-01  -7.5842893e+00  -9.3345099e+00  -2.6253309e+00   1.5751985e+01  -2.3336275e+01  -2.4503088e+01  -4.6672549e+00  -3.2087378e+00  -8.7511030e+00  -8.7511030e+00  -1.3710061e+01  -2.6253309e+00   0.0000000e+00   0.0000000e+00   0.0000000e+00   0.0000000e+00
  -1.6918799e+01  -1.1376434e+01   4.9589584e+00   9.3345099e+00  -1.9835834e+01  -2.0127537e+01  -1.0209620e+01   8.7511030e-01  -5.8340687e+00  -8.1676962e+00  -1.4585172e+00   1.7502206e+01  -2.1877758e+01  -2.3336275e+01  -4.0838481e+00  -1.7502206e+00  -7.2925859e+00  -7.2925859e+00  -1.3418358e+01  -2.3336275e+00   0.0000000e+00   0.0000000e+00   0.0000000e+00   0.0000000e+00
  -1.7210503e+01  -1.0793027e+01   5.8340687e+00   1.2834951e+01  -1.8377316e+01  -1.9544130e+01  -1.0209620e+01   1.7502206e+00  -4.3755515e+00  -6.1257721e+00  -2.9170343e-01   1.9835834e+01  -2.0127537e+01  -2.3044571e+01  -4.0838481e+00  -2.9170343e-01  -5.5423652e+00  -5.8340687e+00  -1.2834951e+01  -2.3336275e+00   0.0000000e+00   0.0000000e+00   0.0000000e+00   0.0000000e+00
  -1.6335392e+01  -1.0501324e+01   5.8340687e+00   1.4585172e+01  -1.7502206e+01  -1.9835834e+01  -1.0793027e+01   1.4585172e+00  -3.7921446e+00  -3.7921446e+00  -2.9170343e-01   2.1586054e+01  -1.9252427e+01  -2.3336275e+01  -4.9589584e+00  -2.9170343e-01  -4.3755515e+00  -4.9589584e+00  -1.2834951e+01  -2.9170343e+00   0.0000000e+00   0.0000000e+00   0.0000000e+00   0.0000000e+00
  -1.4585172e+01  -9.9179168e+00   5.5423652e+00   1.4585172e+01  -1.6918799e+01  -2.0710944e+01  -1.1668137e+01   2.9170343e-01  -3.2087378e+00  -2.0419240e+00  -1.1668137e+00   2.2752868e+01  -1.8960723e+01  -2.3919682e+01  -5.8340687e+00  -1.1668137e+00  -3.7921446e+00  -4.9589584e+00  -1.3418358e+01  -4.0838481e+00   0.0000000e+00   0.0000000e+00   0.0000000e+00   0.0000000e+00
  -1.1668137e+01  -9.0428065e+00   4.9589584e+00   1.3418358e+01  -1.6335392e+01  -2.1294351e+01  -1.2251544e+01  -8.7511030e-01  -2.9170343e+00  -1.4585172e+00  -2.6253309e+00   2.3336275e+01  -1.9835834e+01  -2.4794792e+01  -6.4174756e+00  -2.6253309e+00  -4.3755515e+00  -5.8340687e+00  -1.4585172e+01  -5.2506618e+00   0.0000000e+00   0.0000000e+00   0.0000000e+00   0.0000000e+00
  -9.6262133e+00  -8.4593996e+00   3.7921446e+00   1.2251544e+01  -1.6627096e+01  -2.2169461e+01  -1.2543248e+01  -1.7502206e+00  -3.2087378e+00  -2.3336275e+00  -4.6672549e+00   2.3627978e+01  -2.1294351e+01  -2.6253309e+01  -7.5842893e+00  -4.6672549e+00  -5.5423652e+00  -7.5842893e+00  -1.6335392e+01  -6.1257721e+00   0.0000000e+00   0.0000000e+00   0.0000000e+00   0.0000000e+00
  -8.1676962e+00  -7.2925859e+00   2.9170343e+00   1.2251544e+01  -1.6627096e+01  -2.2461164e+01  -1.2251544e+01  -1.4585172e+00  -3.2087378e+00  -3.5004412e+00  -6.1257721e+00   2.4794792e+01  -2.2752868e+01  -2.7711826e+01  -8.4593996e+00  -5.8340687e+00  -6.4174756e+00  -9.0428065e+00  -1.7793909e+01  -6.4174756e+00   0.0000000e+00   0.0000000e+00   0.0000000e+00   0.0000000e+00
  -7.2925859e+00  -5.8340687e+00   2.9170343e+00   1.4001765e+01  -1.6335392e+01  -2.1586054e+01  -1.1084730e+01   0.0000000e+00  -2.6253309e+00  -3.7921446e+00  -6.4174756e+00   2.6836716e+01  -2.3336275e+01  -2.8586937e+01  -9.0428065e+00  -5.5423652e+00  -6.4174756e+00  -9.0428065e+00  -1.8085613e+01  -5.2506618e+00   0.0000000e+00   0.0000000e+00   0.0000000e+00   0.0000000e+00
  -7.5842893e+00  -4.6672549e+00   2.6253309e+00   1.6043689e+01  -1.6335392e+01  -2.0710944e+01  -1.0501324e+01   1.1668137e+00  -2.0419240e+00  -4.0838481e+00  -6.7091790e+00   2.8586937e+01  -2.4211385e+01  -2.9753750e+01  -9.9179168e+00  -4.6672549e+00  -6.4174756e+00  -8.7511030e+00  -1.8085613e+01  -4.3755515e+00   0.0000000e+00   0.0000000e+00   0.0000000e+00   0.0000000e+00
  -8.1676962e+00  -3.7921446e+00   2.6253309e+00   1.7210503e+01  -1.6918799e+01  -1.9835834e+01  -1.0793027e+01   1.7502206e+00  -1.1668137e+00  -3.7921446e+00  -6.7091790e+00   3.0045454e+01  -2.4503088e+01  -3.0628861e+01  -1.1084730e+01  -3.7921446e+00  -6.4174756e+00  -7.5842893e+00  -1.7793909e+01  -3.7921446e+00   0.0000000e+00   0.0000000e+00   0.0000000e+00   0.0000000e+00
  -8.4593996e+00  -3.2087378e+00   2.3336275e+00   1.6627096e+01  -1.7793909e+01  -1.9544130e+01  -1.1668137e+01   1.7502206e+00  -5.8340687e-01  -4.3755515e+00  -7.0008824e+00   3.0045454e+01  -2.5086495e+01  -3.1212267e+01  -1.1668137e+01  -3.2087378e+00  -7.0008824e+00  -5.8340687e+00  -1.8085613e+01  -3.5004412e+00   0.0000000e+00   0.0000000e+00   0.0000000e+00   0.0000000e+00
  -9.0428065e+00  -3.5004412e+00   1.7502206e+00   1.4293468e+01  -1.9252427e+01  -1.9544130e+01  -1.2834951e+01   8.7511030e-01  -5.8340687e-01  -5.5423652e+00  -7.8759927e+00   2.8295233e+01  -2.6253309e+01  -3.1795674e+01  -1.2251544e+01  -3.2087378e+00  -8.7511030e+00  -4.6672549e+00  -1.8669020e+01  -3.7921446e+00   0.0000000e+00   0.0000000e+00   0.0000000e+00   0.0000000e+00
  -9.6262133e+00  -3.7921446e+00   1.1668137e+00   1.1668137e+01  -2.0710944e+01  -1.8960723e+01  -1.3418358e+01   8.7511030e-01  -1.1668137e+00  -5.8340687e+00  -8.4593996e+00   2.6545013e+01  -2.6836716e+01  -3.1795674e+01  -1.1959841e+01  -3.2087378e+00  -9.9179168e+00  -3.5004412e+00  -1.8960723e+01  -3.5004412e+00   0.0000000e+00   0.0000000e+00   0.0000000e+00   0.0000000e+00
  -1.0209620e+01  -3.7921446e+00   8.7511030e-01   1.0209620e+01  -2.1877758e+01  -1.8085613e+01  -1.3126655e+01   1.1668137e+00  -2.0419240e+00  -5.8340687e+00  -8.7511030e+00   2.5086495e+01  -2.7711826e+01  -3.1503971e+01  -1.1084730e+01  -2.6253309e+00  -1.1084730e+01  -2.3336275e+00  -1.8377316e+01  -3.2087378e+00   0.0000000e+00   0.0000000e+00   0.0000000e+00   0.0000000e+00
  -1.0793027e+01  -4.0838481e+00   8.7511030e-01   9.6262133e+00  -2.2461164e+01  -1.7210503e+01  -1.1959841e+01   1.7502206e+00  -3.5004412e+00  -5.2506618e+00  -8.7511030e+00   2.3919682e+01  -2.8295233e+01  -3.1212267e+01  -9.9179168e+00  -2.0419240e+00  -1.1376434e+01  -2.0419240e+00  -1.7210503e+01  -2.6253309e+00   0.0000000e+00   0.0000000e+00   0.0000000e+00   0.0000000e+00
  -1.1084730e+01  -4.3755515e+00   1.4585172e+00   9.6262133e+00  -2.3044571e+01  -1.6335392e+01  -1.0793027e+01   2.3336275e+00  -5.2506618e+00  -5.2506618e+00  -8.7511030e+00   2.2752868e+01  -2.8878640e+01  -3.1212267e+01  -8.7511030e+00  -1.1668137e+00  -1.1376434e+01  -2.6253309e+00  -1.5460282e+01  -1.7502206e+00   0.0000000e+00   0.0000000e+00   0.0000000e+00   0.0000000e+00
  -1.1084730e+01  -4.6672549e+00   2.0419240e+00   8.7511030e+00  -2.3336275e+01  -1.6043689e+01  -9.9179168e+00   2.3336275e+00  -7.5842893e+00  -6.4174756e+00  -9.3345099e+00   2.1002647e+01  -3.0045454e+01  -3.1212267e+01  -7.8759927e+00  -8.7511030e-01  -1.1376434e+01  -3.7921446e+00  -1.4293468e+01  -1.7502206e+00   0.0000000e+00   0.0000000e+00   0.0000000e+00   0.0000000e+00
  -1.0209620e+01  -4.0838481e+00   3.5004412e+00   7.5842893e+00  -2.3336275e+01  -1.5460282e+01  -8.7511030e+00   2.3336275e+00  -9.0428065e+00  -8.1676962e+00  -9.9179168e+00   1.9544130e+01  -3.0628861e+01  -3.0628861e+01  -6.7091790e+00  -8.7511030e-01  -1.1376434e+01  -4.6672549e+00  -1.3126655e+01  -8.7511030e-01   0.0000000e+00   0.0000000e+00   0.0000000e+00   0.0000000e+00
  -8.1676962e+00  -2.9170343e+00   4.9589584e+00   6.4174756e+00  -2.2752868e+01  -1.4585172e+01  -7.8759927e+00   2.9170343e+00  -9.9179168e+00  -9.9179168e+00  -9.9179168e+00   1.8377316e+01  -3.0920564e+01  -2.9753750e+01  -5.2506618e+00  -8.7511030e-01  -1.1084730e+01  -4.9589584e+00  -1.2543248e+01   0.0000000e+00   0.0000000e+00   0.0000000e+00   0.0000000e+00   0.0000000e+00
  -6.4174756e+00  -1.7502206e+00   6.4174756e+00   7.0008824e+00  -2.1877758e+01  -1.3126655e+01  -6.7091790e+00   3.7921446e+00  -9.3345099e+00  -1.1084730e+01  -9.0428065e+00   1.8377316e+01  -3.0628861e+01  -2.8586937e+01  -3.5004412e+00  -2.9170343e-01  -1.0209620e+01  -4.3755515e+00  -1.1959841e+01   1.7502206e+00   0.0000000e+00   0.0000000e+00   0.0000000e+00   0.0000000e+00
  -4.6672549e+00  -2.9170343e-01   8.1676962e+00   9.6262133e+00  -2.0419240e+01  -1.1084730e+01  -5.2506618e+00   5.5423652e+00  -8.1676962e+00  -1.0501324e+01  -7.5842893e+00   1.9835834e+01  -2.9462047e+01  -2.7128419e+01  -2.0419240e+00   1.4585172e+00  -8.4593996e+00  -2.3336275e+00  -1.1376434e+01   3.7921446e+00   0.0000000e+00   0.0000000e+00   0.0000000e+00   0.0000000e+00
  -3.7921446e+00   5.8340687e-01   9.0428065e+00   1.3418358e+01  -1.8669020e+01  -9.6262133e+00  -4.6672549e+00   7.2925859e+00  -6.7091790e+00  -9.9179168e+00  -6.1257721e+00   2.2461164e+01  -2.8586937e+01  -2.6253309e+01  -1.1668137e+00   3.2087378e+00  -6.4174756e+00  -2.9170343e-01  -1.0501324e+01   4.9589584e+00   0.0000000e+00   0.0000000e+00   0.0000000e+00   0.0000000e+00
  -3.5004412e+00   5.8340687e-01   9.0428065e+00   1.7210503e+01  -1.7502206e+01  -9.0428065e+00  -4.9589584e+00   7.8759927e+00  -5.5423652e+00  -9.6262133e+00  -4.9589584e+00   2.4794792e+01  -2.8003530e+01  -2.6253309e+01  -8.7511030e-01   4.3755515e+00  -4.6672549e+00   1.1668137e+00  -9.6262133e+00   5.5423652e+00   0.0000000e+00   0.0000000e+00   0.0000000e+00   0.0000000e+00
  -3.5004412e+00   2.9170343e-01   9.0428065e+00   1.9252427e+01  -1.6335392e+01  -9.0428065e+00  -5.8340687e+00   7.2925859e+00  -4.6672549e+00  -1.0209620e+01  -4.3755515e+00   2.6253309e+01  -2.7711826e+01  -2.6253309e+01  -5.8340687e-01   4.3755515e+00  -3.5004412e+00   1.1668137e+00  -8.7511030e+00   4.9589584e+00   0.0000000e+00   0.0000000e+00   0.0000000e+00   0.0000000e+00
  -3.5004412e+00  -5.8340687e-01   8.4593996e+00   1.8669020e+01  -1.6335392e+01  -9.9179168e+00  -7.5842893e+00   4.9589584e+00  -4.9589584e+00  -1.1376434e+01  -4.9589584e+00   2.6253309e+01  -2.8295233e+01  -2.6253309e+01  -5.8340687e-01   2.9170343e+00  -3.5004412e+00  -5.8340687e-01  -9.0428065e+00   3.2087378e+00   0.0000000e+00   0.0000000e+00   0.0000000e+00   0.0000000e+00
  -3.5004412e+00  -1.1668137e+00   7.8759927e+00   1.6335392e+01  -1.6335392e+01  -1.0793027e+01  -9.3345099e+00   2.0419240e+00  -5.5423652e+00  -1.2251544e+01  -5.5423652e+00   2.5961606e+01  -2.8586937e+01  -2.5669902e+01   0.0000000e+00   1.4585172e+00  -3.7921446e+00  -2.9170343e+00  -9.6262133e+00   1.4585172e+00   0.0000000e+00   0.0000000e+00   0.0000000e+00   0.0000000e+00
  -3.7921446e+00  -2.0419240e+00   7.0008824e+00   1.4001765e+01  -1.6335392e+01  -1.1668137e+01  -1.0793027e+01  -8.7511030e-01  -5.8340687e+00  -1.2543248e+01  -6.1257721e+00   2.5378199e+01  -2.9170343e+01  -2.4794792e+01   5.8340687e-01  -2.9170343e-01  -4.3755515e+00  -4.9589584e+00  -1.0501324e+01  -5.8340687e-01   0.0000000e+00   0.0000000e+00   0.0000000e+00   0.0000000e+00
  -4.0838481e+00  -2.6253309e+00   6.4174756e+00   1.3126655e+01  -1.6043689e+01  -1.1959841e+01  -1.1084730e+01  -2.9170343e+00  -5.5423652e+00  -1.1959841e+01  -5.5423652e+00   2.5961606e+01  -2.8878640e+01  -2.3336275e+01   1.4585172e+00  -1.1668137e+00  -4.0838481e+00  -5.8340687e+00  -1.1084730e+01  -2.0419240e+00   0.0000000e+00   0.0000000e+00   0.0000000e+00   0.0000000e+00
  -4.3755515e+00  -2.6253309e+00   5.8340687e+00   1.4876875e+01  -1.5168579e+01  -1.1376434e+01  -1.0793027e+01  -3.5004412e+00  -4.6672549e+00  -1.1084730e+01  -4.3755515e+00   2.8003530e+01  -2.8003530e+01  -2.1877758e+01   2.0419240e+00  -5.8340687e-01  -2.9170343e+00  -5.2506618e+00  -1.0793027e+01  -2.6253309e+00   0.0000000e+00   0.0000000e+00   0.0000000e+00   0.0000000e+00
  -4.0838481e+00  -1.4585172e+00   6.1257721e+00   1.8669020e+01  -1.3418358e+01  -1.0209620e+01  -8.7511030e+00  -2.0419240e+00  -2.9170343e+00  -9.6262133e+00  -2.3336275e+00   3.1212267e+01  -2.6253309e+01  -2.0419240e+01   2.6253309e+00   1.1668137e+00  -8.7511030e-01  -2.9170343e+00  -9.3345099e+00  -2.0419240e+00   0.0000000e+00   0.0000000e+00   0.0000000e+00   0.0000000e+00
  -3.7921446e+00  -2.9170343e-01   6.7091790e+00   2.1586054e+01  -1.1959841e+01  -9.6262133e+00  -6.7091790e+00  -2.9170343e-01  -2.0419240e+00  -8.4593996e+00  -8.7511030e-01   3.3254191e+01  -2.5086495e+01  -2.0127537e+01   2.3336275e+00   2.6253309e+00   5.8340687e-01  -2.9170343e-01  -8.1676962e+00  -1.1668137e+00   0.0000000e+00   0.0000000e+00   0.0000000e+00   0.0000000e+00
  -3.7921446e+00   1.1668137e+00   7.0008824e+00   2.2461164e+01  -1.0793027e+01  -9.3345099e+00  -5.2506618e+00   1.4585172e+00  -2.3336275e+00  -7.5842893e+00   0.0000000e+00   3.3837598e+01  -2.4794792e+01  -2.0419240e+01   1.4585172e+00   3.2087378e+00   8.7511030e-01   2.0419240e+00  -7.2925859e+00  -2.9170343e-01   0.0000000e+00   0.0000000e+00   0.0000000e+00   0.0000000e+00
  -3.7921446e+00   2.3336275e+00   7.2925859e+00   2.1586054e+01  -1.0501324e+01  -9.0428065e+00  -4.3755515e+00   2.0419240e+00  -3.2087378e+00  -7.5842893e+00   0.0000000e+00   3.2379081e+01  -2.5378199e+01  -2.1586054e+01   2.9170343e-01   3.2087378e+00   0.0000000e+00   3.5004412e+00  -7.2925859e+00   2.9170343e-01   0.0000000e+00   0.0000000e+00   0.0000000e+00   0.0000000e+00
  -4.6672549e+00   2.3336275e+00   7.0008824e+00   1.8377316e+01  -1.1668137e+01  -9.9179168e+00  -4.6672549e+00   1.4585172e+00  -5.5423652e+00  -8.7511030e+00  -1.1668137e+00   2.9462047e+01  -2.7420123e+01  -2.3627978e+01  -1.4585172e+00   1.7502206e+00  -2.3336275e+00   3.2087378e+00  -8.7511030e+00  -2.9170343e-01   0.0000000e+00   0.0000000e+00   0.0000000e+00   0.0000000e+00
  -5.5423652e+00   1.7502206e+00   6.4174756e+00   1.5751985e+01  -1.3126655e+01  -1.0501324e+01  -4.9589584e+00   8.7511030e-01  -8.1676962e+00  -1.1376434e+01  -2.6253309e+00   2.6253309e+01  -2.9753750e+01  -2.5961606e+01  -2.9170343e+00   0.0000000e+00  -4.9589584e+00   1.7502206e+00  -1.0209620e+01  -1.1668137e+00   0.0000000e+00   0.0000000e+00   0.0000000e+00   0.0000000e+00
  -6.7091790e+00   2.9170343e-01   5.2506618e+00   1.3710061e+01  -1.5168579e+01  -1.1376434e+01  -5.8340687e+00  -2.9170343e-01  -1.1084730e+01  -1.5168579e+01  -4.6672549e+00   2.3336275e+01  -3.2087378e+01  -2.8878640e+01  -5.2506618e+00  -1.7502206e+00  -7.5842893e+00  -8.7511030e-01  -1.2251544e+01  -2.6253309e+00   0.0000000e+00   0.0000000e+00   0.0000000e+00   0.0000000e+00
  -8.1676962e+00  -1.7502206e+00   3.7921446e+00   1.2543248e+01  -1.7502206e+01  -1.2834951e+01  -7.0008824e+00  -1.1668137e+00  -1.4293468e+01  -1.9252427e+01  -7.2925859e+00   2.0419240e+01  -3.5004412e+01  -3.2087378e+01  -7.8759927e+00  -3.7921446e+00  -1.0501324e+01  -4.3755515e+00  -1.4293468e+01  -4.3755515e+00   0.0000000e+00   0.0000000e+00   0.0000000e+00   0.0000000e+00
  -9.0428065e+00  -3.5004412e+00   2.9170343e+00   1.1959841e+01  -1.9835834e+01  -1.4001765e+01  -8.1676962e+00  -2.0419240e+00  -1.6627096e+01  -2.2461164e+01  -9.3345099e+00   1.7793909e+01  -3.7338040e+01  -3.4712709e+01  -1.0501324e+01  -5.8340687e+00  -1.3126655e+01  -7.8759927e+00  -1.6335392e+01  -5.5423652e+00   0.0000000e+00   0.0000000e+00   0.0000000e+00   0.0000000e+00
  -9.6262133e+00  -4.3755515e+00   2.3336275e+00   1.0793027e+01  -2.1294351e+01  -1.4876875e+01  -9.3345099e+00  -2.6253309e+00  -1.8085613e+01  -2.3627978e+01  -1.1084730e+01   1.5460282e+01  -3.8796557e+01  -3.6171226e+01  -1.2834951e+01  -7.8759927e+00  -1.4876875e+01  -9.9179168e+00  -1.8085613e+01  -6.1257721e+00   0.0000000e+00   0.0000000e+00   0.0000000e+00   0.0000000e+00
  -9.9179168e+00  -4.9589584e+00   2.6253309e+00   9.9179168e+00  -2.1877758e+01  -1.5460282e+01  -1.0501324e+01  -3.2087378e+00  -1.8377316e+01  -2.2752868e+01  -1.1959841e+01   1.3418358e+01  -3.9671667e+01  -3.7046336e+01  -1.4293468e+01  -8.7511030e+00  -1.5460282e+01  -1.0793027e+01  -1.9835834e+01  -6.1257721e+00   0.0000000e+00   0.0000000e+00   0.0000000e+00   0.0000000e+00
  -9.3345099e+00  -4.9589584e+00   3.2087378e+00   9.3345099e+00  -2.1294351e+01  -1.5751985e+01  -1.2251544e+01  -4.0838481e+00  -1.7502206e+01  -2.0127537e+01  -1.1959841e+01   1.2834951e+01  -3.9088260e+01  -3.6754633e+01  -1.4876875e+01  -8.7511030e+00  -1.5168579e+01  -1.0209620e+01  -2.1294351e+01  -5.8340687e+00   0.0000000e+00   0.0000000e+00   0.0000000e+00   0.0000000e+00
  -8.7511030e+00  -5.8340687e+00   3.5004412e+00   9.9179168e+00  -2.0127537e+01  -1.5751985e+01  -1.4585172e+01  -5.2506618e+00  -1.6043689e+01  -1.7502206e+01  -1.1668137e+01   1.4001765e+01  -3.7921446e+01  -3.6462929e+01  -1.5168579e+01  -8.1676962e+00  -1.3710061e+01  -9.0428065e+00  -2.2461164e+01  -5.8340687e+00   0.0000000e+00   0.0000000e+00   0.0000000e+00   0.0000000e+00
  -8.1676962e+00  -7.0008824e+00   3.5004412e+00   1.1376434e+01  -1.8669020e+01  -1.5460282e+01  -1.6627096e+01  -6.7091790e+00  -1.4876875e+01  -1.5460282e+01  -1.1084730e+01   1.6627096e+01  -3.5879522e+01  -3.6171226e+01  -1.4876875e+01  -6.7091790e+00  -1.1376434e+01  -7.8759927e+00  -2.3044571e+01  -6.1257721e+00   0.0000000e+00   0.0000000e+00   0.0000000e+00   0.0000000e+00
  -7.5842893e+00  -8.1676962e+00   2.9170343e+00   1.3710061e+01  -1.7210503e+01  -1.5460282e+01  -1.8085613e+01  -7.8759927e+00  -1.4001765e+01  -1.4876875e+01  -1.1084730e+01   1.9835834e+01  -3.4129302e+01  -3.5879522e+01  -1.4585172e+01  -5.8340687e+00  -8.7511030e+00  -7.5842893e+00  -2.3044571e+01  -6.7091790e+00   0.0000000e+00   0.0000000e+00   0.0000000e+00   0.0000000e+00
  -7.8759927e+00  -9.3345099e+00   2.0419240e+00   1.4585172e+01  -1.6043689e+01  -1.6335392e+01  -1.8960723e+01  -8.4593996e+00  -1.3710061e+01  -1.5168579e+01  -1.1959841e+01   2.1877758e+01  -3.2962488e+01  -3.6171226e+01  -1.5168579e+01  -5.8340687e+00  -6.7091790e+00  -9.0428065e+00  -2.3336275e+01  -7.2925859e+00   0.0000000e+00   0.0000000e+00   0.0000000e+00   0.0000000e+00
  -7.8759927e+00  -9.6262133e+00   8.7511030e-01   1.4585172e+01  -1.5168579e+01  -1.7210503e+01  -1.8669020e+01  -8.4593996e+00  -1.3126655e+01  -1.5460282e+01  -1.3710061e+01   2.2752868e+01  -3.1795674e+01  -3.6171226e+01  -1.5460282e+01  -6.7091790e+00  -5.2506618e+00  -1.0501324e+01  -2.3627978e+01  -7.5842893e+00   0.0000000e+00   0.0000000e+00   0.0000000e+00   0.0000000e+00
  -7.8759927e+00  -9.3345099e+00   2.9170343e-01   1.3710061e+01  -1.4293468e+01  -1.8085613e+01  -1.8085613e+01  -7.8759927e+00  -1.2543248e+01  -1.5168579e+01  -1.5460282e+01   2.3044571e+01  -3.0920564e+01  -3.5587819e+01  -1.5460282e+01  -7.5842893e+00  -4.3755515e+00  -1.2251544e+01  -2.4211385e+01  -7.0008824e+00   0.0000000e+00   0.0000000e+00   0.0000000e+00   0.0000000e+00
  -8.1676962e+00  -8.4593996e+00  -5.8340687e-01   1.2834951e+01  -1.3126655e+01  -1.8960723e+01  -1.7793909e+01  -7.0008824e+00  -1.1376434e+01  -1.4585172e+01  -1.6918799e+01   2.3336275e+01  -3.0045454e+01  -3.4712709e+01  -1.5751985e+01  -8.4593996e+00  -3.7921446e+00  -1.3418358e+01  -2.5378199e+01  -6.1257721e+00   0.0000000e+00   0.0000000e+00   0.0000000e+00   0.0000000e+00
  -8.1676962e+00  -6.7091790e+00  -2.9170343e-01   1.4001765e+01  -1.1376434e+01  -1.8377316e+01  -1.7210503e+01  -5.2506618e+00  -9.3345099e+00  -1.3126655e+01  -1.7210503e+01   2.5086495e+01  -2.8003530e+01  -3.2962488e+01  -1.5460282e+01  -7.8759927e+00  -2.3336275e+00  -1.2543248e+01  -2.5378199e+01  -4.3755515e+00   0.0000000e+00   0.0000000e+00   0.0000000e+00   0.0000000e+00
  -8.1676962e+00  -5.2506618e+00   2.9170343e-01   1.6918799e+01  -9.6262133e+00  -1.7210503e+01  -1.6627096e+01  -3.5004412e+00  -7.0008824e+00  -1.1959841e+01  -1.6043689e+01   2.8003530e+01  -2.5669902e+01  -3.1212267e+01  -1.4876875e+01  -5.8340687e+00  -2.9170343e-01  -1.0793027e+01  -2.5086495e+01  -2.6253309e+00   0.0000000e+00   0.0000000e+00   0.0000000e+00   0.0000000e+00
  -9.0428065e+00  -4.0838481e+00   2.9170343e-01   2.0419240e+01  -8.1676962e+00  -1.6627096e+01  -1.6627096e+01  -1.7502206e+00  -4.9589584e+00  -1.1084730e+01  -1.5168579e+01   3.0628861e+01  -2.3044571e+01  -3.0045454e+01  -1.4585172e+01  -3.7921446e+00   1.7502206e+00  -8.7511030e+00  -2.4503088e+01  -1.1668137e+00   0.0000000e+00   0.0000000e+00   0.0000000e+00   0.0000000e+00
  -9.6262133e+00  -2.9170343e+00   2.9170343e-01   2.3336275e+01  -7.2925859e+00  -1.6335392e+01  -1.6627096e+01  -2.9170343e-01  -3.2087378e+00  -9.9179168e+00  -1.4001765e+01   3.2670785e+01  -2.0710944e+01  -2.8878640e+01  -1.4293468e+01  -2.0419240e+00   3.7921446e+00  -6.7091790e+00  -2.3336275e+01  -2.9170343e-01   0.0000000e+00   0.0000000e+00   0.0000000e+00   0.0000000e+00
  -9.9179168e+00  -1.7502206e+00   2.9170343e-01   2.4794792e+01  -7.0008824e+00  -1.6335392e+01  -1.6627096e+01   5.8340687e-01  -2.0419240e+00  -8.1676962e+00  -1.3126655e+01   3.3254191e+01  -1.8669020e+01  -2.7711826e+01  -1.3710061e+01  -1.4585172e+00   4.9589584e+00  -4.6672549e+00  -2.2461164e+01   2.9170343e-01   0.0000000e+00   0.0000000e+00   0.0000000e+00   0.0000000e+00
  -9.9179168e+00  -1.4585172e+00  -2.9170343e-01   2.3336275e+01  -7.8759927e+00  -1.7502206e+01  -1.7502206e+01   2.9170343e-01  -2.0419240e+00  -7.5842893e+00  -1.3418358e+01   3.2087378e+01  -1.8085613e+01  -2.7711826e+01  -1.3710061e+01  -2.0419240e+00   4.6672549e+00  -3.7921446e+00  -2.2461164e+01  -2.9170343e-01   0.0000000e+00   0.0000000e+00   0.0000000e+00   0.0000000e+00
  -9.0428065e+00  -1.1668137e+00  -5.8340687e-01   2.0710944e+01  -9.0428065e+00  -1.8377316e+01  -1.7793909e+01   0.0000000e+00  -2.0419240e+00  -8.1676962e+00  -1.4001765e+01   3.0337157e+01  -1.7793909e+01  -2.7420123e+01  -1.3418358e+01  -3.2087378e+00   3.7921446e+00  -3.5004412e+00  -2.2752868e+01  -8.7511030e-01   0.0000000e+00   0.0000000e+00   0.0000000e+00   0.0000000e+00
  -8.1676962e+00  -1.4585172e+00  -8.7511030e-01   1.8377316e+01  -1.0793027e+01  -1.8960723e+01  -1.8377316e+01  -1.1668137e+00  -2.9170343e+00  -1.0501324e+01  -1.4876875e+01   2.8586937e+01  -1.8669020e+01  -2.7711826e+01  -1.3126655e+01  -4.3755515e+00   2.6253309e+00  -4.0838481e+00  -2.3044571e+01  -2.0419240e+00   0.0000000e+00   0.0000000e+00   0.0000000e+00   0.0000000e+00
  -7.5842893e+00  -2.3336275e+00  -1.1668137e+00   1.6627096e+01  -1.2543248e+01  -1.8669020e+01  -1.8669020e+01  -2.3336275e+00  -3.2087378e+00  -1.3710061e+01  -1.5460282e+01   2.8003530e+01  -1.9544130e+01  -2.8003530e+01  -1.2834951e+01  -4.9589584e+00   1.7502206e+00  -5.2506618e+00  -2.2752868e+01  -3.2087378e+00   0.0000000e+00   0.0000000e+00   0.0000000e+00   0.0000000e+00
  -6.7091790e+00  -2.6253309e+00  -1.1668137e+00   1.6627096e+01  -1.3710061e+01  -1.7502206e+01  -1.7793909e+01  -3.2087378e+00  -3.2087378e+00  -1.5751985e+01  -1.5460282e+01   2.8586937e+01  -1.9835834e+01  -2.7711826e+01  -1.1959841e+01  -4.9589584e+00   1.4585172e+00  -6.4174756e+00  -2.1586054e+01  -4.3755515e+00   0.0000000e+00   0.0000000e+00   0.0000000e+00   0.0000000e+00
  -5.8340687e+00  -2.3336275e+00  -8.7511030e-01   1.7502206e+01  -1.4585172e+01  -1.5168579e+01  -1.6043689e+01  -3.2087378e+00  -2.6253309e+00  -1.6043689e+01  -1.5168579e+01   2.9462047e+01  -1.9835834e+01  -2.6545013e+01  -1.1084730e+01  -4.3755515e+00   2.0419240e+00  -6.7091790e+00  -1.9544130e+01  -4.9589584e+00   0.0000000e+00   0.0000000e+00   0.0000000e+00   0.0000000e+00
  -4.6672549e+00  -8.7511030e-01   0.0000000e+00   1.8085613e+01  -1.4293468e+01  -1.2543248e+01  -1.3126655e+01  -2.0419240e+00  -1.1668137e+00  -1.4001765e+01  -1.4293468e+01   2.9753750e+01  -1.9252427e+01  -2.5086495e+01  -1.0501324e+01  -3.2087378e+00   2.6253309e+00  -5.8340687e+00  -1.7210503e+01  -4.3755515e+00   0.0000000e+00   0.0000000e+00   0.0000000e+00   0.0000000e+00
  -3.7921446e+00   5.8340687e-01   5.8340687e-01   1.7793909e+01  -1.4001765e+01  -9.9179168e+00  -1.0209620e+01  -2.9170343e-01  -2.9170343e-01  -1.1959841e+01  -1.3710061e+01   2.9170343e+01  -1.8960723e+01  -2.3336275e+01  -1.0209620e+01  -2.9170343e+00   2.9170343e+00  -4.3755515e+00  -1.5460282e+01  -3.5004412e+00   0.0000000e+00   0.0000000e+00   0.0000000e+00   0.0000000e+00
  -2.9170343e+00   2.3336275e+00   1.1668137e+00   1.6918799e+01  -1.3418358e+01  -7.2925859e+00  -7.2925859e+00   1.7502206e+00   0.0000000e+00  -1.0793027e+01  -1.3126655e+01   2.7420123e+01  -1.8960723e+01  -2.1877758e+01  -1.0209620e+01  -2.3336275e+00   2.9170343e+00  -2.6253309e+00  -1.4001765e+01  -2.0419240e+00   0.0000000e+00   0.0000000e+00   0.0000000e+00   0.0000000e+00
  -2.0419240e+00   3.5004412e+00   1.4585172e+00   1.5751985e+01  -1.3126655e+01  -5.5423652e+00  -5.2506618e+00   3.2087378e+00  -8.7511030e-01  -1.1668137e+01  -1.2834951e+01   2.5086495e+01  -1.9835834e+01  -2.1002647e+01  -1.0501324e+01  -2.6253309e+00   2.3336275e+00  -1.7502206e+00  -1.3126655e+01  -8.7511030e-01   0.0000000e+00   0.0000000e+00   0.0000000e+00   0.0000000e+00
  -1.4585172e+00   3.7921446e+00   1.1668137e+00   1.5168579e+01  -1.3126655e+01  -4.0838481e+00  -4.0838481e+00   4.0838481e+00  -2.6253309e+00  -1.4001765e+01  -1.2834951e+01   2.3336275e+01  -2.1294351e+01  -2.1002647e+01  -1.0793027e+01  -2.9170343e+00   1.7502206e+00  -2.0419240e+00  -1.2543248e+01  -2.9170343e-01   0.0000000e+00   0.0000000e+00   0.0000000e+00   0.0000000e+00
  -1.1668137e+00   3.2087378e+00   5.8340687e-01   1.4876875e+01  -1.3126655e+01  -2.9170343e+00  -4.0838481e+00   4.0838481e+00  -4.6672549e+00  -1.6043689e+01  -1.3126655e+01   2.2169461e+01  -2.2461164e+01  -2.1294351e+01  -1.0793027e+01  -3.2087378e+00   1.4585172e+00  -3.2087378e+00  -1.1668137e+01  -5.8340687e-01   0.0000000e+00   0.0000000e+00   0.0000000e+00   0.0000000e+00
  -5.8340687e-01   2.9170343e+00   0.0000000e+00   1.4585172e+01  -1.2543248e+01  -2.3336275e+00  -4.3755515e+00   3.5004412e+00  -6.4174756e+00  -1.6918799e+01  -1.3418358e+01   2.1877758e+01  -2.3044571e+01  -2.1294351e+01  -1.0501324e+01  -3.5004412e+00   1.7502206e+00  -4.9589584e+00  -1.1084730e+01  -8.7511030e-01   0.0000000e+00   0.0000000e+00   0.0000000e+00   0.0000000e+00
   0.0000000e+00   2.3336275e+00  -2.9170343e-01   1.3710061e+01  -1.1668137e+01  -2.3336275e+00  -4.9589584e+00   2.3336275e+00  -7.0008824e+00  -1.6335392e+01  -1.3126655e+01   2.2169461e+01  -2.2752868e+01  -2.1002647e+01  -9.6262133e+00  -3.7921446e+00   2.0419240e+00  -6.4174756e+00  -1.0501324e+01  -8.7511030e-01   0.0000000e+00   0.0000000e+00   0.0000000e+00   0.0000000e+00
   5.8340687e-01   2.3336275e+00  -2.9170343e-01   1.2834951e+01  -1.0209620e+01  -2.3336275e+00  -4.9589584e+00   1.7502206e+00  -6.7091790e+00  -1.5168579e+01  -1.2543248e+01   2.2752868e+01  -2.1586054e+01  -1.9835834e+01  -8.7511030e+00  -3.5004412e+00   2.9170343e+00  -6.7091790e+00  -1.0501324e+01  -5.8340687e-01   0.0000000e+00   0.0000000e+00   0.0000000e+00   0.0000000e+00
   1.1668137e+00   2.3336275e+00   0.0000000e+00   1.2834951e+01  -8.4593996e+00  -2.9170343e+00  -4.9589584e+00   2.0419240e+00  -5.2506618e+00  -1.4001765e+01  -1.0793027e+01   2.3336275e+01  -1.9835834e+01  -1.8377316e+01  -7.5842893e+00  -2.9170343e+00   4.0838481e+00  -5.5423652e+00  -1.0501324e+01   5.8340687e-01   0.0000000e+00   0.0000000e+00   0.0000000e+00   0.0000000e+00
   1.4585172e+00   2.3336275e+00   5.8340687e-01   1.3710061e+01  -6.7091790e+00  -3.5004412e+00  -4.0838481e+00   3.2087378e+00  -3.5004412e+00  -1.3126655e+01  -8.7511030e+00   2.4503088e+01  -1.7793909e+01  -1.6918799e+01  -6.7091790e+00  -1.1668137e+00   5.2506618e+00  -3.2087378e+00  -1.1084730e+01   2.0419240e+00   0.0000000e+00   0.0000000e+00   0.0000000e+00   0.0000000e+00
   5.8340687e-01   2.0419240e+00   5.8340687e-01   1.6335392e+01  -5.8340687e+00  -4.6672549e+00  -3.5004412e+00   5.2506618e+00  -1.4585172e+00  -1.2543248e+01  -6.4174756e+00   2.5961606e+01  -1.6335392e+01  -1.6335392e+01  -6.4174756e+00   5.8340687e-01   6.1257721e+00  -2.9170343e-01  -1.1376434e+01   3.5004412e+00   0.0000000e+00   0.0000000e+00   0.0000000e+00   0.0000000e+00
  -1.4585172e+00   1.1668137e+00   2.9170343e-01   1.9544130e+01  -5.5423652e+00  -6.4174756e+00  -2.9170343e+00   7.2925859e+00   0.0000000e+00  -1.1376434e+01  -4.3755515e+00   2.8295233e+01  -1.4876875e+01  -1.6043689e+01  -6.4174756e+00   2.6253309e+00   7.0008824e+00   2.6253309e+00  -1.1376434e+01   4.6672549e+00   0.0000000e+00   0.0000000e+00   0.0000000e+00   0.0000000e+00
  -4.0838481e+00   0.0000000e+00  -2.9170343e-01   2.1877758e+01  -6.4174756e+00  -8.1676962e+00  -2.9170343e+00   8.4593996e+00   1.1668137e+00  -9.6262133e+00  -3.5004412e+00   3.0045454e+01  -1.4293468e+01  -1.6335392e+01  -7.0008824e+00   4.0838481e+00   7.2925859e+00   4.6672549e+00  -1.1376434e+01   5.5423652e+00   0.0000000e+00   0.0000000e+00   0.0000000e+00   0.0000000e+00
  -6.7091790e+00  -1.1668137e+00  -8.7511030e-01   2.1877758e+01  -7.5842893e+00  -1.0209620e+01  -3.7921446e+00   8.7511030e+00   1.7502206e+00  -7.5842893e+00  -3.5004412e+00   3.0628861e+01  -1.4585172e+01  -1.6627096e+01  -7.5842893e+00   4.0838481e+00   7.0008824e+00   5.5423652e+00  -1.1668137e+01   5.5423652e+00   0.0000000e+00   0.0000000e+00   0.0000000e+00   0.0000000e+00
  -9.0428065e+00  -2.9170343e+00  -2.3336275e+00   1.9544130e+01  -9.9179168e+00  -1.2543248e+01  -5.5423652e+00   7.0008824e+00   1.7502206e+00  -7.0008824e+00  -4.6672549e+00   2.9753750e+01  -1.6043689e+01  -1.7502206e+01  -8.4593996e+00   2.6253309e+00   4.9589584e+00   4.6672549e+00  -1.2543248e+01   4.3755515e+00   0.0000000e+00   0.0000000e+00   0.0000000e+00   0.0000000e+00
  -1.0793027e+01  -4.9589584e+00  -3.7921446e+00   1.5751985e+01  -1.2251544e+01  -1.4293468e+01  -7.2925859e+00   4.9589584e+00   1.4585172e+00  -7.2925859e+00  -6.1257721e+00   2.7711826e+01  -1.8377316e+01  -1.8085613e+01  -9.0428065e+00   5.8340687e-01   2.6253309e+00   2.9170343e+00  -1.4001765e+01   3.2087378e+00   0.0000000e+00   0.0000000e+00   0.0000000e+00   0.0000000e+00
  -1.1959841e+01  -7.0008824e+00  -4.9589584e+00   1.2543248e+01  -1.4293468e+01  -1.5168579e+01  -8.7511030e+00   3.5004412e+00   1.1668137e+00  -8.1676962e+00  -7.5842893e+00   2.5961606e+01  -2.0710944e+01  -1.8085613e+01  -9.3345099e+00  -1.1668137e+00   2.9170343e-01   5.8340687e-01  -1.5460282e+01   2.0419240e+00   0.0000000e+00   0.0000000e+00   0.0000000e+00   0.0000000e+00
  -1.2834951e+01  -8.7511030e+00  -5.8340687e+00   1.1376434e+01  -1.5751985e+01  -1.5751985e+01  -9.0428065e+00   3.2087378e+00   5.8340687e-01  -8.7511030e+00  -8.1676962e+00   2.5378199e+01  -2.2461164e+01  -1.7502206e+01  -9.3345099e+00  -1.7502206e+00  -1.1668137e+00  -8.7511030e-01  -1.5751985e+01   1.4585172e+00   0.0000000e+00   0.0000000e+00   0.0000000e+00   0.0000000e+00
  -1.3710061e+01  -9.9179168e+00  -6.1257721e+00   1.1959841e+01  -1.6043689e+01  -1.5460282e+01  -8.7511030e+00   4.0838481e+00   5.8340687e-01  -9.0428065e+00  -7.8759927e+00   2.6545013e+01  -2.3044571e+01  -1.6335392e+01  -8.7511030e+00  -1.1668137e+00  -1.7502206e+00  -1.4585172e+00  -1.5168579e+01   1.7502206e+00   0.0000000e+00   0.0000000e+00   0.0000000e+00   0.0000000e+00
  -1.4585172e+01  -1.0209620e+01  -6.1257721e+00   1.4001765e+01  -1.5460282e+01  -1.4876875e+01  -8.1676962e+00   5.2506618e+00   1.1668137e+00  -8.1676962e+00  -6.7091790e+00   2.8878640e+01  -2.3044571e+01  -1.4293468e+01  -7.5842893e+00   2.9170343e-01  -1.1668137e+00  -5.8340687e-01  -1.4001765e+01   2.9170343e+00   0.0000000e+00   0.0000000e+00   0.0000000e+00   0.0000000e+00
  -1.4876875e+01  -9.9179168e+00  -5.8340687e+00   1.5460282e+01  -1.4876875e+01  -1.4585172e+01  -8.1676962e+00   5.8340687e+00   2.0419240e+00  -7.2925859e+00  -5.5423652e+00   3.0920564e+01  -2.2752868e+01  -1.2543248e+01  -6.4174756e+00   1.4585172e+00  -8.7511030e-01   5.8340687e-01  -1.2543248e+01   3.5004412e+00   0.0000000e+00   0.0000000e+00   0.0000000e+00   0.0000000e+00
  -1.5460282e+01  -9.6262133e+00  -5.5423652e+00   1.5168579e+01  -1.4876875e+01  -1.5460282e+01  -8.7511030e+00   5.2506618e+00   2.3336275e+00  -6.7091790e+00  -4.9589584e+00   3.1503971e+01  -2.2752868e+01  -1.1376434e+01  -5.8340687e+00   2.0419240e+00  -1.1668137e+00   1.7502206e+00  -1.2251544e+01   3.7921446e+00   0.0000000e+00   0.0000000e+00   0.0000000e+00   0.0000000e+00
  -1.5168579e+01  -9.6262133e+00  -5.8340687e+00   1.3418358e+01  -1.5168579e+01  -1.6335392e+01  -9.9179168e+00   4.0838481e+00   2.3336275e+00  -6.4174756e+00  -4.6672549e+00   3.0337157e+01  -2.3627978e+01  -1.1084730e+01  -4.9589584e+00   2.0419240e+00  -2.3336275e+00   2.6253309e+00  -1.2251544e+01   4.0838481e+00   0.0000000e+00   0.0000000e+00   0.0000000e+00   0.0000000e+00
  -1.4585172e+01  -1.0209620e+01  -6.1257721e+00   1.1959841e+01  -1.5751985e+01  -1.7502206e+01  -1.0793027e+01   3.2087378e+00   1.7502206e+00  -6.7091790e+00  -4.3755515e+00   2.8586937e+01  -2.4794792e+01  -1.1376434e+01  -4.0838481e+00   1.4585172e+00  -4.0838481e+00   2.6253309e+00  -1.2834951e+01   3.7921446e+00   0.0000000e+00   0.0000000e+00   0.0000000e+00   0.0000000e+00
  -1.4001765e+01  -1.0793027e+01  -7.0008824e+00   1.1084730e+01  -1.6918799e+01  -1.8669020e+01  -1.1376434e+01   2.3336275e+00   0.0000000e+00  -7.2925859e+00  -4.3755515e+00   2.6253309e+01  -2.6253309e+01  -1.2543248e+01  -3.2087378e+00   8.7511030e-01  -5.8340687e+00   2.0419240e+00  -1.3126655e+01   3.7921446e+00   0.0000000e+00   0.0000000e+00   0.0000000e+00   0.0000000e+00
  -1.3126655e+01  -1.1668137e+01  -7.5842893e+00   1.1376434e+01  -1.7793909e+01  -1.9252427e+01  -1.1376434e+01   1.7502206e+00  -2.3336275e+00  -8.1676962e+00  -4.3755515e+00   2.4211385e+01  -2.7711826e+01  -1.4001765e+01  -2.3336275e+00   2.9170343e-01  -7.2925859e+00   8.7511030e-01  -1.2834951e+01   3.5004412e+00   0.0000000e+00   0.0000000e+00   0.0000000e+00   0.0000000e+00
  -1.1959841e+01  -1.1959841e+01  -7.5842893e+00   1.2543248e+01  -1.8085613e+01  -1.8669020e+01  -1.0501324e+01   1.4585172e+00  -3.7921446e+00  -9.3345099e+00  -3.7921446e+00   2.2461164e+01  -2.8586937e+01  -1.4876875e+01  -8.7511030e-01   5.8340687e-01  -8.1676962e+00   0.0000000e+00  -1.1668137e+01   4.0838481e+00   0.0000000e+00   0.0000000e+00   0.0000000e+00   0.0000000e+00
  -1.0793027e+01  -1.0793027e+01  -6.1257721e+00   1.3418358e+01  -1.7502206e+01  -1.7210503e+01  -9.0428065e+00   1.7502206e+00  -4.3755515e+00  -9.9179168e+00  -2.6253309e+00   2.1586054e+01  -2.8586937e+01  -1.4585172e+01   8.7511030e-01   1.4585172e+00  -7.8759927e+00   2.9170343e-01  -9.9179168e+00   4.9589584e+00   0.0000000e+00   0.0000000e+00   0.0000000e+00   0.0000000e+00
  -1.0501324e+01  -9.3345099e+00  -4.3755515e+00   1.2834951e+01  -1.6627096e+01  -1.5460282e+01  -7.8759927e+00   1.4585172e+00  -4.0838481e+00  -1.0501324e+01  -1.7502206e+00   2.0710944e+01  -2.8295233e+01  -1.4001765e+01   2.3336275e+00   2.0419240e+00  -7.5842893e+00   8.7511030e-01  -8.4593996e+00   5.8340687e+00   0.0000000e+00   0.0000000e+00   0.0000000e+00   0.0000000e+00
  -9.9179168e+00  -7.2925859e+00  -1.7502206e+00   1.2251544e+01  -1.4585172e+01  -1.2834951e+01  -6.4174756e+00   2.3336275e+00  -2.9170343e+00  -9.3345099e+00   0.0000000e+00   2.0710944e+01  -2.7128419e+01  -1.2251544e+01   3.7921446e+00   3.5004412e+00  -6.7091790e+00   2.9170343e+00  -6.7091790e+00   7.5842893e+00   0.0000000e+00   0.0000000e+00   0.0000000e+00   0.0000000e+00
  -1.0209620e+01  -5.5423652e+00   8.7511030e-01   1.2251544e+01  -1.2834951e+01  -1.0209620e+01  -4.6672549e+00   3.2087378e+00  -1.4585172e+00  -7.8759927e+00   2.0419240e+00   2.1877758e+01  -2.5669902e+01  -1.0793027e+01   4.9589584e+00   4.9589584e+00  -5.5423652e+00   5.5423652e+00  -5.8340687e+00   9.3345099e+00   0.0000000e+00   0.0000000e+00   0.0000000e+00   0.0000000e+00
  -1.0209620e+01  -4.0838481e+00   2.9170343e+00   1.3710061e+01  -1.0793027e+01  -7.8759927e+00  -3.2087378e+00   4.9589584e+00   0.0000000e+00  -5.2506618e+00   4.0838481e+00   2.3919682e+01  -2.4211385e+01  -9.3345099e+00   5.5423652e+00   7.0008824e+00  -3.5004412e+00   8.4593996e+00  -4.6672549e+00   1.1084730e+01   0.0000000e+00   0.0000000e+00   0.0000000e+00   0.0000000e+00
  -1.0501324e+01  -4.0838481e+00   3.5004412e+00   1.5460282e+01  -9.9179168e+00  -6.7091790e+00  -2.9170343e+00   5.5423652e+00   2.9170343e-01  -4.0838481e+00   5.2506618e+00   2.5669902e+01  -2.3627978e+01  -9.6262133e+00   5.2506618e+00   8.1676962e+00  -2.3336275e+00   9.9179168e+00  -4.3755515e+00   1.1668137e+01   0.0000000e+00   0.0000000e+00   0.0000000e+00   0.0000000e+00
  -1.1376434e+01  -5.5423652e+00   2.6253309e+00   1.6043689e+01  -1.0501324e+01  -7.5842893e+00  -4.3755515e+00   4.6672549e+00  -8.7511030e-01  -4.9589584e+00   4.3755515e+00   2.5961606e+01  -2.4503088e+01  -1.1668137e+01   3.5004412e+00   7.2925859e+00  -2.3336275e+00   9.3345099e+00  -5.2506618e+00   1.0209620e+01   0.0000000e+00   0.0000000e+00   0.0000000e+00   0.0000000e+00
  -1.1959841e+01  -7.5842893e+00   5.8340687e-01   1.4585172e+01  -1.2251544e+01  -9.3345099e+00  -6.4174756e+00   2.3336275e+00  -3.5004412e+00  -7.0008824e+00   2.3336275e+00   2.4503088e+01  -2.6253309e+01  -1.4585172e+01   1.7502206e+00   4.9589584e+00  -3.5004412e+00   6.4174756e+00  -6.7091790e+00   7.8759927e+00   0.0000000e+00   0.0000000e+00   0.0000000e+00   0.0000000e+00
  -1.2251544e+01  -9.6262133e+00  -1.4585172e+00   1.1084730e+01  -1.4585172e+01  -1.1668137e+01  -9.3345099e+00  -1.1668137e+00  -6.1257721e+00  -9.9179168e+00  -8.7511030e-01   2.1586054e+01  -2.8878640e+01  -1.7793909e+01  -2.9170343e-01   1.1668137e+00  -5.5423652e+00   2.0419240e+00  -9.3345099e+00   4.9589584e+00   0.0000000e+00   0.0000000e+00   0.0000000e+00   0.0000000e+00
  -1.2251544e+01  -1.0793027e+01  -2.9170343e+00   7.0008824e+00  -1.6627096e+01  -1.3710061e+01  -1.1376434e+01  -4.0838481e+00  -8.1676962e+00  -1.1668137e+01  -3.7921446e+00   1.8669020e+01  -3.1212267e+01  -2.0419240e+01  -2.0419240e+00  -2.0419240e+00  -7.8759927e+00  -2.0419240e+00  -1.1959841e+01   2.6253309e+00   0.0000000e+00   0.0000000e+00   0.0000000e+00   0.0000000e+00
  -1.1959841e+01  -1.1376434e+01  -3.5004412e+00   4.0838481e+00  -1.8377316e+01  -1.4876875e+01  -1.2543248e+01  -5.5423652e+00  -9.0428065e+00  -1.2251544e+01  -5.8340687e+00   1.6335392e+01  -3.2962488e+01  -2.2461164e+01  -3.2087378e+00  -4.3755515e+00  -9.6262133e+00  -5.5423652e+00  -1.4293468e+01   1.4585172e+00   0.0000000e+00   0.0000000e+00   0.0000000e+00   0.0000000e+00
  -1.1959841e+01  -1.1376434e+01  -4.0838481e+00   3.5004412e+00  -1.9252427e+01  -1.5460282e+01  -1.3126655e+01  -5.8340687e+00  -9.0428065e+00  -1.2251544e+01  -6.7091790e+00   1.5460282e+01  -3.4129302e+01  -2.4211385e+01  -4.6672549e+00  -5.2506618e+00  -1.0501324e+01  -7.8759927e+00  -1.6335392e+01   8.7511030e-01   0.0000000e+00   0.0000000e+00   0.0000000e+00   0.0000000e+00
  -1.2251544e+01  -1.1084730e+01  -4.0838481e+00   5.2506618e+00  -1.9544130e+01  -1.5460282e+01  -1.2834951e+01  -4.9589584e+00  -8.4593996e+00  -1.1959841e+01  -7.0008824e+00   1.6043689e+01  -3.4129302e+01  -2.5378199e+01  -6.1257721e+00  -5.2506618e+00  -1.0209620e+01  -9.0428065e+00  -1.7502206e+01   8.7511030e-01   0.0000000e+00   0.0000000e+00   0.0000000e+00   0.0000000e+00
  -1.2834951e+01  -1.0501324e+01  -3.7921446e+00   7.5842893e+00  -1.9252427e+01  -1.5168579e+01  -1.2543248e+01  -3.5004412e+00  -7.5842893e+00  -1.2834951e+01  -7.0008824e+00   1.7793909e+01  -3.3837598e+01  -2.6836716e+01  -7.8759927e+00  -4.3755515e+00  -9.6262133e+00  -9.0428065e+00  -1.7793909e+01   1.1668137e+00   0.0000000e+00   0.0000000e+00   0.0000000e+00   0.0000000e+00
  -1.3418358e+01  -9.6262133e+00  -3.5004412e+00   9.3345099e+00  -1.8960723e+01  -1.4876875e+01  -1.2543248e+01  -2.3336275e+00  -6.7091790e+00  -1.4585172e+01  -7.0008824e+00   1.9252427e+01  -3.2962488e+01  -2.7711826e+01  -9.9179168e+00  -4.0838481e+00  -8.4593996e+00  -8.7511030e+00  -1.7793909e+01   1.4585172e+00   0.0000000e+00   0.0000000e+00   0.0000000e+00   0.0000000e+00
  -1.3418358e+01  -8.4593996e+00  -2.9170343e+00   9.6262133e+00  -1.8085613e+01  -1.4585172e+01  -1.2251544e+01  -1.7502206e+00  -5.5423652e+00  -1.6335392e+01  -7.0008824e+00   2.0710944e+01  -3.1795674e+01  -2.7711826e+01  -1.1376434e+01  -3.7921446e+00  -7.5842893e+00  -7.8759927e+00  -1.7502206e+01   1.7502206e+00   0.0000000e+00   0.0000000e+00   0.0000000e+00   0.0000000e+00
  -1.3126655e+01  -7.5842893e+00  -2.6253309e+00   8.1676962e+00  -1.7793909e+01  -1.4876875e+01  -1.2251544e+01  -1.4585172e+00  -5.2506618e+00  -1.7502206e+01  -7.2925859e+00   2.1002647e+01  -3.0920564e+01  -2.7711826e+01  -1.2543248e+01  -4.0838481e+00  -7.2925859e+00  -7.5842893e+00  -1.8085613e+01   1.7502206e+00   0.0000000e+00   0.0000000e+00   0.0000000e+00   0.0000000e+00
  -1.1959841e+01  -7.2925859e+00  -2.0419240e+00   6.4174756e+00  -1.7210503e+01  -1.4876875e+01  -1.2251544e+01  -1.4585172e+00  -5.2506618e+00  -1.7793909e+01  -7.5842893e+00   2.1002647e+01  -3.0628861e+01  -2.7711826e+01  -1.3418358e+01  -4.9589584e+00  -7.5842893e+00  -7.8759927e+00  -1.8669020e+01   1.7502206e+00   0.0000000e+00   0.0000000e+00   0.0000000e+00   0.0000000e+00
  -9.9179168e+00  -7.0008824e+00  -1.4585172e+00   6.1257721e+00  -1.6918799e+01  -1.4876875e+01  -1.1668137e+01  -1.1668137e+00  -5.5423652e+00  -1.7793909e+01  -7.5842893e+00   2.1877758e+01  -3.0045454e+01  -2.7711826e+01  -1.4001765e+01  -5.2506618e+00  -7.2925859e+00  -8.7511030e+00  -1.9252427e+01   2.0419240e+00   0.0000000e+00   0.0000000e+00   0.0000000e+00   0.0000000e+00
  -7.5842893e+00  -6.4174756e+00  -8.7511030e-01   7.5842893e+00  -1.5751985e+01  -1.4293468e+01  -1.0209620e+01   2.9170343e-01  -5.5423652e+00  -1.7793909e+01  -7.0008824e+00   2.3627978e+01  -2.9170343e+01  -2.7128419e+01  -1.3710061e+01  -4.6672549e+00  -6.4174756e+00  -9.0428065e+00  -1.9252427e+01   2.6253309e+00   0.0000000e+00   0.0000000e+00   0.0000000e+00   0.0000000e+00
  -5.5423652e+00  -5.5423652e+00  -5.8340687e-01   9.9179168e+00  -1.4585172e+01  -1.3418358e+01  -9.0428065e+00   1.7502206e+00  -5.2506618e+00  -1.7502206e+01  -6.1257721e+00   2.6253309e+01  -2.7711826e+01  -2.6253309e+01  -1.3418358e+01  -3.7921446e+00  -4.6672549e+00  -8.7511030e+00  -1.8669020e+01   3.5004412e+00   0.0000000e+00   0.0000000e+00   0.0000000e+00   0.0000000e+00
  -3.7921446e+00  -4.6672549e+00   2.9170343e-01   1.1959841e+01  -1.3126655e+01  -1.2543248e+01  -7.8759927e+00   3.2087378e+00  -4.0838481e+00  -1.7210503e+01  -4.9589584e+00   2.8295233e+01  -2.5961606e+01  -2.5086495e+01  -1.2834951e+01  -2.6253309e+00  -2.9170343e+00  -7.5842893e+00  -1.7793909e+01   4.3755515e+00   0.0000000e+00   0.0000000e+00   0.0000000e+00   0.0000000e+00
  -2.9170343e+00  -3.5004412e+00   8.7511030e-01   1.3126655e+01  -1.1376434e+01  -1.1959841e+01  -7.8759927e+00   3.5004412e+00  -2.6253309e+00  -1.5460282e+01  -3.7921446e+00   2.9753750e+01  -2.3919682e+01  -2.3336275e+01  -1.2251544e+01  -1.4585172e+00  -1.1668137e+00  -5.5423652e+00  -1.6918799e+01   4.9589584e+00   0.0000000e+00   0.0000000e+00   0.0000000e+00   0.0000000e+00
  -2.0419240e+00  -2.9170343e+00   1.4585172e+00   1.3418358e+01  -9.6262133e+00  -1.1376434e+01  -8.1676962e+00   3.5004412e+00  -8.7511030e-01  -1.3126655e+01  -2.3336275e+00   3.0045454e+01  -2.1877758e+01  -2.1294351e+01  -1.1084730e+01  -2.9170343e-01   2.9170343e-01  -2.9170343e+00  -1.6335392e+01   5.2506618e+00   0.0000000e+00   0.0000000e+00   0.0000000e+00   0.0000000e+00
  -1.7502206e+00  -2.9170343e+00   1.4585172e+00   1.3418358e+01  -8.1676962e+00  -1.0793027e+01  -8.7511030e+00   2.9170343e+00   2.9170343e-01  -1.0793027e+01  -1.1668137e+00   2.9753750e+01  -2.0419240e+01  -1.9835834e+01  -9.9179168e+00   5.8340687e-01   1.4585172e+00  -2.9170343e-01  -1.6043689e+01   5.2506618e+00   0.0000000e+00   0.0000000e+00   0.0000000e+00   0.0000000e+00
  -8.7511030e-01  -2.9170343e+00   1.4585172e+00   1.4585172e+01  -6.4174756e+00  -9.6262133e+00  -8.4593996e+00   2.9170343e+00   1.1668137e+00  -8.4593996e+00   0.0000000e+00   3.0045454e+01  -1.8669020e+01  -1.8085613e+01  -8.1676962e+00   2.0419240e+00   3.2087378e+00   2.3336275e+00  -1.4876875e+01   5.5423652e+00   0.0000000e+00   0.0000000e+00   0.0000000e+00   0.0000000e+00
   0.0000000e+00  -2.9170343e+00   1.1668137e+00   1.6627096e+01  -4.3755515e+00  -7.8759927e+00  -7.8759927e+00   2.9170343e+00   1.7502206e+00  -6.7091790e+00   8.7511030e-01   3.1212267e+01  -1.6627096e+01  -1.6627096e+01  -6.1257721e+00   3.5004412e+00   5.8340687e+00   4.3755515e+00  -1.3126655e+01   6.1257721e+00   0.0000000e+00   0.0000000e+00   0.0000000e+00   0.0000000e+00
   1.4585172e+00  -2.6253309e+00   5.8340687e-01   1.9252427e+01  -2.3336275e+00  -6.4174756e+00  -7.2925859e+00   2.9170343e+00   2.0419240e+00  -5.8340687e+00   8.7511030e-01   3.2670785e+01  -1.4876875e+01  -1.5460282e+01  -4.0838481e+00   4.6672549e+00   8.4593996e+00   5.2506618e+00  -1.0793027e+01   6.1257721e+00   0.0000000e+00   0.0000000e+00   0.0000000e+00   0.0000000e+00
   3.5004412e+00  -2.0419240e+00   8.7511030e-01   2.1294351e+01   0.0000000e+00  -4.0838481e+00  -6.1257721e+00   2.3336275e+00   2.6253309e+00  -4.9589584e+00   8.7511030e-01   3.4421005e+01  -1.2543248e+01  -1.3710061e+01  -1.7502206e+00   5.2506618e+00   1.1376434e+01   5.2506618e+00  -8.1676962e+00   6.4174756e+00   0.0000000e+00   0.0000000e+00   0.0000000e+00   0.0000000e+00
   5.5423652e+00  -1.1668137e+00   1.1668137e+00   2.1877758e+01   1.7502206e+00  -2.3336275e+00  -5.2506618e+00   8.7511030e-01   3.2087378e+00  -3.7921446e+00   2.9170343e-01   3.5004412e+01  -1.0793027e+01  -1.1959841e+01   2.9170343e-01   4.9589584e+00   1.3418358e+01   4.6672549e+00  -6.1257721e+00   6.4174756e+00   0.0000000e+00   0.0000000e+00   0.0000000e+00   0.0000000e+00
   7.0008824e+00  -5.8340687e-01   1.7502206e+00   2.1586054e+01   3.2087378e+00  -5.8340687e-01  -4.6672549e+00  -5.8340687e-01   3.7921446e+00  -2.9170343e+00  -5.8340687e-01   3.5004412e+01  -9.6262133e+00  -1.0209620e+01   2.0419240e+00   4.0838481e+00   1.4585172e+01   4.0838481e+00  -4.9589584e+00   6.4174756e+00   0.0000000e+00   0.0000000e+00   0.0000000e+00   0.0000000e+00
   7.5842893e+00  -2.9170343e-01   2.3336275e+00   2.1002647e+01   4.0838481e+00   5.8340687e-01  -3.7921446e+00  -1.1668137e+00   4.6672549e+00  -2.6253309e+00  -8.7511030e-01   3.4421005e+01  -8.4593996e+00  -8.7511030e+00   2.9170343e+00   3.7921446e+00   1.5168579e+01   4.0838481e+00  -4.6672549e+00   7.0008824e+00   0.0000000e+00   0.0000000e+00   0.0000000e+00   0.0000000e+00
   7.0008824e+00  -5.8340687e-01   2.6253309e+00   2.1877758e+01   4.3755515e+00   1.7502206e+00  -2.6253309e+00  -5.8340687e-01   5.5423652e+00  -2.3336275e+00  -5.8340687e-01   3.4421005e+01  -7.2925859e+00  -8.1676962e+00   3.2087378e+00   4.0838481e+00   1.5460282e+01   4.9589584e+00  -4.3755515e+00   7.8759927e+00   0.0000000e+00   0.0000000e+00   0.0000000e+00   0.0000000e+00
   6.1257721e+00  -5.8340687e-01   2.9170343e+00   2.3919682e+01   4.3755515e+00   2.6253309e+00  -1.1668137e+00   1.1668137e+00   6.7091790e+00  -2.3336275e+00   5.8340687e-01   3.5004412e+01  -5.8340687e+00  -7.8759927e+00   3.2087378e+00   5.5423652e+00   1.5751985e+01   6.7091790e+00  -4.0838481e+00   9.0428065e+00   0.0000000e+00   0.0000000e+00   0.0000000e+00   0.0000000e+00
   5.2506618e+00  -8.7511030e-01   2.9170343e+00   2.5961606e+01   4.0838481e+00   2.9170343e+00   0.0000000e+00   3.2087378e+00   7.5842893e+00  -1.7502206e+00   1.4585172e+00   3.6171226e+01  -4.9589584e+00  -8.4593996e+00   2.3336275e+00   7.0008824e+00   1.6043689e+01   8.7511030e+00  -3.5004412e+00   1.0209620e+01   0.0000000e+00   0.0000000e+00   0.0000000e+00   0.0000000e+00
   3.7921446e+00  -1.1668137e+00   2.6253309e+00   2.6545013e+01   2.9170343e+00   2.3336275e+00   0.0000000e+00   3.5004412e+00   7.8759927e+00  -1.1668137e+00   1.7502206e+00   3.6171226e+01  -4.6672549e+00  -9.9179168e+00   1.1668137e+00   7.8759927e+00   1.5751985e+01   9.6262133e+00  -3.5004412e+00   1.0209620e+01   0.0000000e+00   0.0000000e+00   0.0000000e+00   0.0000000e+00
   3.2087378e+00  -1.4585172e+00   2.9170343e+00   2.5086495e+01   2.0419240e+00   2.0419240e+00  -5.8340687e-01   3.2087378e+00   7.5842893e+00   2.9170343e-01   1.4585172e+00   3.5587819e+01  -4.9589584e+00  -1.1084730e+01   0.0000000e+00   7.5842893e+00   1.5168579e+01   9.9179168e+00  -3.5004412e+00   9.9179168e+00   0.0000000e+00   0.0000000e+00   0.0000000e+00   0.0000000e+00
   2.0419240e+00  -2.0419240e+00   2.9170343e+00   2.1877758e+01   5.8340687e-01   8.7511030e-01  -2.0419240e+00   1.4585172e+00   6.7091790e+00   8.7511030e-01   2.9170343e-01   3.4129302e+01  -5.8340687e+00  -1.2251544e+01  -1.1668137e+00   6.4174756e+00   1.3418358e+01   9.3345099e+00  -4.3755515e+00   8.7511030e+00   0.0000000e+00   0.0000000e+00   0.0000000e+00   0.0000000e+00
   8.7511030e-01  -2.6253309e+00   2.6253309e+00   1.8669020e+01  -5.8340687e-01   0.0000000e+00  -3.7921446e+00  -2.9170343e-01   5.8340687e+00   5.8340687e-01  -1.1668137e+00   3.2379081e+01  -7.5842893e+00  -1.3126655e+01  -2.0419240e+00   4.9589584e+00   1.1084730e+01   7.8759927e+00  -5.8340687e+00   7.2925859e+00   0.0000000e+00   0.0000000e+00   0.0000000e+00   0.0000000e+00
  -5.8340687e-01  -3.5004412e+00   2.6253309e+00   1.6918799e+01  -1.1668137e+00  -5.8340687e-01  -4.9589584e+00  -1.4585172e+00   4.6672549e+00  -1.1668137e+00  -2.3336275e+00   3.1503971e+01  -8.7511030e+00  -1.4001765e+01  -2.9170343e+00   3.7921446e+00   9.3345099e+00   6.4174756e+00  -7.0008824e+00   6.4174756e+00   0.0000000e+00   0.0000000e+00   0.0000000e+00   0.0000000e+00
  -2.3336275e+00  -3.7921446e+00   2.6253309e+00   1.7210503e+01  -1.1668137e+00  -8.7511030e-01  -5.5423652e+00  -1.7502206e+00   4.0838481e+00  -3.2087378e+00  -2.9170343e+00   3.1795674e+01  -9.3345099e+00  -1.4293468e+01  -3.5004412e+00   3.7921446e+00   8.7511030e+00   5.5423652e+00  -7.8759927e+00   6.1257721e+00   0.0000000e+00   0.0000000e+00   0.0000000e+00   0.0000000e+00
  -3.7921446e+00  -3.7921446e+00   2.3336275e+00   1.8669020e+01  -1.1668137e+00  -1.4585172e+00  -5.8340687e+00  -1.7502206e+00   3.5004412e+00  -5.2506618e+00  -3.2087378e+00   3.2962488e+01  -9.6262133e+00  -1.5168579e+01  -4.3755515e+00   4.0838481e+00   8.4593996e+00   4.9589584e+00  -8.1676962e+00   5.8340687e+00   0.0000000e+00   0.0000000e+00   0.0000000e+00   0.0000000e+00
  -4.3755515e+00  -2.9170343e+00   2.6253309e+00   2.0419240e+01  -2.9170343e-01  -1.7502206e+00  -5.8340687e+00  -5.8340687e-01   4.0838481e+00  -5.8340687e+00  -2.9170343e+00   3.4129302e+01  -9.3345099e+00  -1.5460282e+01  -5.2506618e+00   4.9589584e+00   9.0428065e+00   5.5423652e+00  -7.8759927e+00   6.4174756e+00   0.0000000e+00   0.0000000e+00   0.0000000e+00   0.0000000e+00
  -4.3755515e+00  -1.7502206e+00   3.2087378e+00   2.1294351e+01   5.8340687e-01  -2.0419240e+00  -5.5423652e+00   5.8340687e-01   4.3755515e+00  -5.5423652e+00  -2.3336275e+00   3.4712709e+01  -9.0428065e+00  -1.5751985e+01  -6.1257721e+00   5.8340687e+00   9.6262133e+00   6.7091790e+00  -7.8759927e+00   7.2925859e+00   0.0000000e+00   0.0000000e+00   0.0000000e+00   0.0000000e+00
  -3.5004412e+00  -2.9170343e-01   3.7921446e+00   2.0710944e+01   1.1668137e+00  -2.3336275e+00  -5.5423652e+00   1.7502206e+00   4.9589584e+00  -4.6672549e+00  -2.0419240e+00   3.4129302e+01  -9.3345099e+00  -1.5751985e+01  -6.7091790e+00   6.4174756e+00   9.6262133e+00   8.1676962e+00  -7.8759927e+00   8.4593996e+00   0.0000000e+00   0.0000000e+00   0.0000000e+00   0.0000000e+00
  -2.9170343e+00   2.9170343e-01   4.3755515e+00   1.8960723e+01   1.1668137e+00  -2.9170343e+00  -5.8340687e+00   2.3336275e+00   4.3755515e+00  -4.3755515e+00  -2.0419240e+00   3.2087378e+01  -1.0793027e+01  -1.6043689e+01  -7.0008824e+00   6.4174756e+00   8.7511030e+00   9.0428065e+00  -8.4593996e+00   9.0428065e+00   0.0000000e+00   0.0000000e+00   0.0000000e+00   0.0000000e+00
  -2.6253309e+00   0.0000000e+00   3.7921446e+00   1.7210503e+01   5.8340687e-01  -4.0838481e+00  -6.4174756e+00   2.0419240e+00   2.9170343e+00  -5.2506618e+00  -2.3336275e+00   2.9753750e+01  -1.3126655e+01  -1.6918799e+01  -7.5842893e+00   6.1257721e+00   7.0008824e+00   9.0428065e+00  -9.3345099e+00   9.0428065e+00   0.0000000e+00   0.0000000e+00   0.0000000e+00   0.0000000e+00
  -2.6253309e+00  -8.7511030e-01   2.9170343e+00   1.6043689e+01  -2.9170343e-01  -4.9589584e+00  -7.2925859e+00   1.7502206e+00   5.8340687e-01  -7.0008824e+00  -2.9170343e+00   2.7711826e+01  -1.6043689e+01  -1.7793909e+01  -7.5842893e+00   5.8340687e+00   5.2506618e+00   7.5842893e+00  -1.0209620e+01   8.7511030e+00   0.0000000e+00   0.0000000e+00   0.0000000e+00   0.0000000e+00
  -2.6253309e+00  -1.7502206e+00   2.3336275e+00   1.5460282e+01  -1.4585172e+00  -5.8340687e+00  -7.2925859e+00   1.4585172e+00  -1.7502206e+00  -8.4593996e+00  -3.2087378e+00   2.6545013e+01  -1.8085613e+01  -1.8669020e+01  -7.2925859e+00   5.2506618e+00   4.0838481e+00   5.5423652e+00  -1.0209620e+01   8.1676962e+00   0.0000000e+00   0.0000000e+00   0.0000000e+00   0.0000000e+00
  -2.6253309e+00  -2.6253309e+00   1.4585172e+00   1.3710061e+01  -2.6253309e+00  -6.4174756e+00  -7.5842893e+00   8.7511030e-01  -4.0838481e+00  -9.9179168e+00  -3.7921446e+00   2.5669902e+01  -2.0127537e+01  -1.9252427e+01  -6.7091790e+00   4.3755515e+00   2.9170343e+00   3.2087378e+00  -9.9179168e+00   7.5842893e+00   0.0000000e+00   0.0000000e+00   0.0000000e+00   0.0000000e+00
  -2.0419240e+00  -2.3336275e+00   1.1668137e+00   1.1668137e+01  -3.2087378e+00  -6.1257721e+00  -7.2925859e+00   8.7511030e-01  -4.6672549e+00  -1.0209620e+01  -4.0838481e+00   2.5378199e+01  -2.0710944e+01  -1.8669020e+01  -5.5423652e+00   3.7921446e+00   2.6253309e+00   1.4585172e+00  -9.0428065e+00   7.5842893e+00   0.0000000e+00   0.0000000e+00   0.0000000e+00   0.0000000e+00
  -1.4585172e+00  -1.7502206e+00   1.1668137e+00   9.3345099e+00  -3.2087378e+00  -5.8340687e+00  -6.7091790e+00   8.7511030e-01  -4.6672549e+00  -1.0501324e+01  -4.0838481e+00   2.5086495e+01  -2.0710944e+01  -1.7502206e+01  -4.0838481e+00   2.9170343e+00   2.6253309e+00   5.8340687e-01  -8.7511030e+00   7.8759927e+00   0.0000000e+00   0.0000000e+00   0.0000000e+00   0.0000000e+00
  -5.8340687e-01  -8.7511030e-01   1.4585172e+00   7.8759927e+00  -2.9170343e+00  -4.3755515e+00  -6.1257721e+00   1.4585172e+00  -3.5004412e+00  -9.9179168e+00  -3.2087378e+00   2.5378199e+01  -1.9544130e+01  -1.5751985e+01  -2.0419240e+00   2.6253309e+00   2.9170343e+00   1.1668137e+00  -8.1676962e+00   8.7511030e+00   0.0000000e+00   0.0000000e+00   0.0000000e+00   0.0000000e+00
  -2.9170343e-01  -5.8340687e-01   1.4585172e+00   7.8759927e+00  -2.3336275e+00  -3.2087378e+00  -5.8340687e+00   1.4585172e+00  -2.3336275e+00  -9.0428065e+00  -2.6253309e+00   2.5961606e+01  -1.8669020e+01  -1.4585172e+01  -2.9170343e-01   2.6253309e+00   3.7921446e+00   2.0419240e+00  -7.8759927e+00   9.3345099e+00   0.0000000e+00   0.0000000e+00   0.0000000e+00   0.0000000e+00
  -5.8340687e-01  -2.9170343e-01   1.1668137e+00   9.9179168e+00  -1.4585172e+00  -1.7502206e+00  -5.5423652e+00   2.0419240e+00  -1.1668137e+00  -7.0008824e+00  -1.7502206e+00   2.7420123e+01  -1.7502206e+01  -1.3710061e+01   8.7511030e-01   3.5004412e+00   5.2506618e+00   3.7921446e+00  -7.2925859e+00   9.9179168e+00   0.0000000e+00   0.0000000e+00   0.0000000e+00   0.0000000e+00
  -1.1668137e+00  -5.8340687e-01   5.8340687e-01   1.2543248e+01  -8.7511030e-01  -8.7511030e-01  -5.2506618e+00   2.0419240e+00  -8.7511030e-01  -4.9589584e+00  -8.7511030e-01   2.8586937e+01  -1.6043689e+01  -1.3418358e+01   1.4585172e+00   4.0838481e+00   6.7091790e+00   4.9589584e+00  -6.1257721e+00   9.9179168e+00   0.0000000e+00   0.0000000e+00   0.0000000e+00   0.0000000e+00
  -1.7502206e+00  -2.9170343e-01   5.8340687e-01   1.4585172e+01   0.0000000e+00  -2.9170343e-01  -4.9589584e+00   2.0419240e+00  -5.8340687e-01  -3.2087378e+00  -2.9170343e-01   2.9753750e+01  -1.4876875e+01  -1.3126655e+01   2.0419240e+00   4.3755515e+00   7.8759927e+00   6.1257721e+00  -4.6672549e+00   9.6262133e+00   0.0000000e+00   0.0000000e+00   0.0000000e+00   0.0000000e+00
  -1.7502206e+00   0.0000000e+00   5.8340687e-01   1.5460282e+01   5.8340687e-01   0.0000000e+00  -4.9589584e+00   1.4585172e+00  -2.9170343e-01  -2.0419240e+00  -2.9170343e-01   2.9462047e+01  -1.4293468e+01  -1.2834951e+01   2.3336275e+00   3.7921446e+00   8.4593996e+00   6.4174756e+00  -3.5004412e+00   9.0428065e+00   0.0000000e+00   0.0000000e+00   0.0000000e+00   0.0000000e+00
  -1.4585172e+00   5.8340687e-01   8.7511030e-01   1.4585172e+01   5.8340687e-01  -2.9170343e-01  -4.9589584e+00   0.0000000e+00  -2.9170343e-01  -2.3336275e+00  -1.4585172e+00   2.8295233e+01  -1.4001765e+01  -1.2834951e+01   2.3336275e+00   2.6253309e+00   7.8759927e+00   5.8340687e+00  -3.2087378e+00   8.1676962e+00   0.0000000e+00   0.0000000e+00   0.0000000e+00   0.0000000e+00
  -2.9170343e-01   1.4585172e+00   1.1668137e+00   1.3418358e+01   2.9170343e-01  -5.8340687e-01  -4.9589584e+00  -1.1668137e+00   0.0000000e+00  -3.2087378e+00  -2.6253309e+00   2.6545013e+01  -1.4293468e+01  -1.2543248e+01   2.6253309e+00   1.4585172e+00   7.0008824e+00   4.9589584e+00  -3.2087378e+00   7.5842893e+00   0.0000000e+00   0.0000000e+00   0.0000000e+00   0.0000000e+00
   1.1668137e+00   2.3336275e+00   1.7502206e+00   1.3418358e+01   2.9170343e-01  -2.9170343e-01  -4.6672549e+00  -1.7502206e+00   2.9170343e-01  -3.7921446e+00  -3.5004412e+00   2.5378199e+01  -1.4585172e+01  -1.1959841e+01   2.6253309e+00   8.7511030e-01   6.4174756e+00   4.3755515e+00  -3.2087378e+00   7.2925859e+00   0.0000000e+00   0.0000000e+00   0.0000000e+00   0.0000000e+00
   2.6253309e+00   3.2087378e+00   2.3336275e+00   1.5460282e+01   8.7511030e-01   2.9170343e-01  -3.5004412e+00  -1.4585172e+00   5.8340687e-01  -3.5004412e+00  -3.7921446e+00   2.5961606e+01  -1.4293468e+01  -1.1376434e+01   2.9170343e+00   1.4585172e+00   6.4174756e+00   4.6672549e+00  -2.9170343e+00   7.5842893e+00   0.0000000e+00   0.0000000e+00   0.0000000e+00   0.0000000e+00
   4.0838481e+00   4.9589584e+00   3.2087378e+00   1.9544130e+01   2.0419240e+00   1.4585172e+00  -1.7502206e+00   0.0000000e+00   1.4585172e+00  -2.6253309e+00  -2.9170343e+00   2.7711826e+01  -1.2834951e+01  -9.9179168e+00   3.2087378e+00   3.5004412e+00   7.5842893e+00   6.1257721e+00  -1.4585172e+00   8.7511030e+00   0.0000000e+00   0.0000000e+00   0.0000000e+00   0.0000000e+00
   5.2506618e+00   6.7091790e+00   4.0838481e+00   2.3627978e+01   3.2087378e+00   2.3336275e+00  -2.9170343e-01   1.1668137e+00   2.3336275e+00  -1.7502206e+00  -1.7502206e+00   3.0045454e+01  -1.0793027e+01  -8.7511030e+00   3.5004412e+00   5.2506618e+00   9.3345099e+00   8.1676962e+00   0.0000000e+00   9.9179168e+00   0.0000000e+00   0.0000000e+00   0.0000000e+00   0.0000000e+00
   7.0008824e+00   9.0428065e+00   5.5423652e+00   2.7128419e+01   5.2506618e+00   3.2087378e+00   1.1668137e+00   2.6253309e+00   4.0838481e+00  -8.7511030e-01   0.0000000e+00   3.2962488e+01  -8.4593996e+00  -6.7091790e+00   4.3755515e+00   7.5842893e+00   1.1376434e+01   1.1084730e+01   2.0419240e+00   1.1376434e+01   0.0000000e+00   0.0000000e+00   0.0000000e+00   0.0000000e+00
   7.8759927e+00   1.0209620e+01   6.1257721e+00   2.7711826e+01   6.4174756e+00   3.2087378e+00   1.4585172e+00   2.9170343e+00   5.2506618e+00  -1.1668137e+00   8.7511030e-01   3.4712709e+01  -7.2925859e+00  -5.8340687e+00   4.6672549e+00   8.1676962e+00   1.1959841e+01   1.3418358e+01   2.3336275e+00   1.1959841e+01   0.0000000e+00   0.0000000e+00   0.0000000e+00   0.0000000e+00
   8.7511030e+00   1.0501324e+01   6.1257721e+00   2.6545013e+01   7.0008824e+00   2.3336275e+00   8.7511030e-01   2.9170343e+00   5.8340687e+00  -1.7502206e+00   1.1668137e+00   3.5587819e+01  -6.7091790e+00  -5.5423652e+00   4.6672549e+00   8.1676962e+00   1.1959841e+01   1.4585172e+01   1.7502206e+00   1.2251544e+01   0.0000000e+00   0.0000000e+00   0.0000000e+00   0.0000000e+00
   8.7511030e+00   9.6262133e+00   5.2506618e+00   2.4211385e+01   6.7091790e+00   8.7511030e-01  -2.9170343e-01   2.3336275e+00   5.5423652e+00  -2.9170343e+00   2.9170343e-01   3.5587819e+01  -7.5842893e+00  -6.4174756e+00   4.0838481e+00   7.2925859e+00   1.1084730e+01   1.4293468e+01   0.0000000e+00   1.1668137e+01   0.0000000e+00   0.0000000e+00   0.0000000e+00   0.0000000e+00
   8.1676962e+00   7.5842893e+00   3.7921446e+00   2.2169461e+01   5.8340687e+00  -8.7511030e-01  -1.7502206e+00   1.4585172e+00   4.0838481e+00  -4.3755515e+00  -1.1668137e+00   3.5296116e+01  -9.0428065e+00  -8.1676962e+00   2.6253309e+00   5.8340687e+00   9.9179168e+00   1.2543248e+01  -2.0419240e+00   1.0793027e+01   0.0000000e+00   0.0000000e+00   0.0000000e+00   0.0000000e+00
   7.2925859e+00   5.5423652e+00   2.6253309e+00   2.1002647e+01   5.2506618e+00  -2.3336275e+00  -2.9170343e+00   5.8340687e-01   2.6253309e+00  -5.5423652e+00  -2.3336275e+00   3.5587819e+01  -1.0209620e+01  -9.6262133e+00   1.4585172e+00   4.9589584e+00   9.6262133e+00   1.0209620e+01  -3.7921446e+00   9.9179168e+00   0.0000000e+00   0.0000000e+00   0.0000000e+00   0.0000000e+00
   6.4174756e+00   3.2087378e+00   1.1668137e+00   1.9835834e+01   4.6672549e+00  -3.7921446e+00  -4.3755515e+00  -5.8340687e-01   1.1668137e+00  -7.0008824e+00  -3.7921446e+00   3.5296116e+01  -1.1376434e+01  -1.1668137e+01   0.0000000e+00   3.5004412e+00   9.0428065e+00   7.0008824e+00  -5.2506618e+00   8.4593996e+00   0.0000000e+00   0.0000000e+00   0.0000000e+00   0.0000000e+00
   5.5423652e+00   1.1668137e+00   2.9170343e-01   1.8085613e+01   4.3755515e+00  -5.2506618e+00  -6.1257721e+00  -2.0419240e+00   8.7511030e-01  -8.1676962e+00  -5.2506618e+00   3.5004412e+01  -1.2251544e+01  -1.3126655e+01  -1.4585172e+00   2.0419240e+00   8.7511030e+00   4.3755515e+00  -6.7091790e+00   6.7091790e+00   0.0000000e+00   0.0000000e+00   0.0000000e+00   0.0000000e+00
   5.2506618e+00   2.9170343e-01   2.9170343e-01   1.6335392e+01   4.3755515e+00  -6.1257721e+00  -7.2925859e+00  -3.2087378e+00   1.7502206e+00  -7.8759927e+00  -5.8340687e+00   3.4129302e+01  -1.2543248e+01  -1.3710061e+01  -2.6253309e+00   1.1668137e+00   8.4593996e+00   2.9170343e+00  -8.4593996e+00   5.8340687e+00   0.0000000e+00   0.0000000e+00   0.0000000e+00   0.0000000e+00
   5.5423652e+00  -2.9170343e-01   8.7511030e-01   1.5168579e+01   4.6672549e+00  -6.4174756e+00  -7.8759927e+00  -2.9170343e+00   3.2087378e+00  -6.1257721e+00  -5.5423652e+00   3.3254191e+01  -1.2251544e+01  -1.3710061e+01  -3.2087378e+00   5.8340687e-01   8.1676962e+00   2.6253309e+00  -1.0209620e+01   5.2506618e+00   0.0000000e+00   0.0000000e+00   0.0000000e+00   0.0000000e+00
   5.5423652e+00  -5.8340687e-01   1.4585172e+00   1.4876875e+01   4.6672549e+00  -6.4174756e+00  -8.4593996e+00  -2.3336275e+00   4.0838481e+00  -3.5004412e+00  -4.9589584e+00   3.2379081e+01  -1.1668137e+01  -1.3710061e+01  -4.0838481e+00   5.8340687e-01   8.1676962e+00   2.9170343e+00  -1.1959841e+01   5.2506618e+00   0.0000000e+00   0.0000000e+00   0.0000000e+00   0.0000000e+00
   6.1257721e+00  -5.8340687e-01   2.0419240e+00   1.6043689e+01   4.6672549e+00  -6.1257721e+00  -8.7511030e+00  -5.8340687e-01   4.9589584e+00  -1.4585172e+00  -3.7921446e+00   3.2670785e+01  -1.0793027e+01  -1.4001765e+01  -4.3755515e+00   1.4585172e+00   8.4593996e+00   3.5004412e+00  -1.2834951e+01   5.8340687e+00   0.0000000e+00   0.0000000e+00   0.0000000e+00   0.0000000e+00
   5.5423652e+00  -1.1668137e+00   1.7502206e+00   1.7210503e+01   3.5004412e+00  -6.4174756e+00  -9.6262133e+00   0.0000000e+00   4.6672549e+00  -1.4585172e+00  -3.5004412e+00   3.2962488e+01  -1.0501324e+01  -1.4876875e+01  -5.2506618e+00   2.0419240e+00   8.1676962e+00   2.9170343e+00  -1.3710061e+01   5.8340687e+00   0.0000000e+00   0.0000000e+00   0.0000000e+00   0.0000000e+00
   4.6672549e+00  -2.3336275e+00   1.1668137e+00   1.7210503e+01   1.4585172e+00  -7.2925859e+00  -1.1376434e+01  -8.7511030e-01   3.7921446e+00  -3.7921446e+00  -4.0838481e+00   3.2670785e+01  -1.1084730e+01  -1.6627096e+01  -6.4174756e+00   1.4585172e+00   7.0008824e+00   5.8340687e-01  -1.4585172e+01   4.9589584e+00   0.0000000e+00   0.0000000e+00   0.0000000e+00   0.0000000e+00
   3.7921446e+00  -3.2087378e+00   5.8340687e-01   1.6335392e+01  -5.8340687e-01  -8.7511030e+00  -1.3126655e+01  -2.3336275e+00   3.2087378e+00  -6.1257721e+00  -5.2506618e+00   3.2087378e+01  -1.1668137e+01  -1.7793909e+01  -7.2925859e+00   5.8340687e-01   5.5423652e+00  -1.7502206e+00  -1.5751985e+01   3.5004412e+00   0.0000000e+00   0.0000000e+00   0.0000000e+00   0.0000000e+00
   3.2087378e+00  -3.7921446e+00   2.9170343e-01   1.4293468e+01  -2.6253309e+00  -9.9179168e+00  -1.4585172e+01  -4.3755515e+00   3.2087378e+00  -7.8759927e+00  -6.7091790e+00   3.0920564e+01  -1.2834951e+01  -1.8377316e+01  -7.8759927e+00  -1.4585172e+00   3.5004412e+00  -4.6672549e+00  -1.7502206e+01   2.3336275e+00   0.0000000e+00   0.0000000e+00   0.0000000e+00   0.0000000e+00
   3.7921446e+00  -3.5004412e+00   8.7511030e-01   1.3126655e+01  -3.7921446e+00  -1.0501324e+01  -1.5168579e+01  -4.9589584e+00   4.0838481e+00  -7.0008824e+00  -7.2925859e+00   3.0337157e+01  -1.2834951e+01  -1.7793909e+01  -7.5842893e+00  -2.3336275e+00   2.3336275e+00  -6.1257721e+00  -1.8669020e+01   2.0419240e+00   0.0000000e+00   0.0000000e+00   0.0000000e+00   0.0000000e+00
   4.9589584e+00  -2.3336275e+00   2.0419240e+00   1.3710061e+01  -3.7921446e+00  -9.9179168e+00  -1.4001765e+01  -3.7921446e+00   5.5423652e+00  -4.3755515e+00  -6.7091790e+00   3.0920564e+01  -1.1959841e+01  -1.6043689e+01  -6.7091790e+00  -2.0419240e+00   2.0419240e+00  -5.5423652e+00  -1.8960723e+01   2.9170343e+00   0.0000000e+00   0.0000000e+00   0.0000000e+00   0.0000000e+00
   4.9589584e+00  -1.4585172e+00   3.2087378e+00   1.6335392e+01  -3.7921446e+00  -9.3345099e+00  -1.2834951e+01  -1.4585172e+00   7.0008824e+00  -1.7502206e+00  -5.2506618e+00   3.2087378e+01  -1.1084730e+01  -1.5168579e+01  -6.1257721e+00  -5.8340687e-01   2.3336275e+00  -4.0838481e+00  -1.9252427e+01   4.3755515e+00   0.0000000e+00   0.0000000e+00   0.0000000e+00   0.0000000e+00
   4.6672549e+00  -2.9170343e-01   4.6672549e+00   1.9835834e+01  -3.2087378e+00  -8.1676962e+00  -1.1084730e+01   1.4585172e+00   8.4593996e+00  -2.9170343e-01  -3.5004412e+00   3.4421005e+01  -9.9179168e+00  -1.4001765e+01  -5.8340687e+00   2.0419240e+00   3.7921446e+00  -1.4585172e+00  -1.8377316e+01   6.4174756e+00   0.0000000e+00   0.0000000e+00   0.0000000e+00   0.0000000e+00
   3.2087378e+00   0.0000000e+00   5.5423652e+00   2.2752868e+01  -3.2087378e+00  -7.5842893e+00  -1.0209620e+01   3.5004412e+00   9.6262133e+00   0.0000000e+00  -2.0419240e+00   3.5879522e+01  -9.0428065e+00  -1.3710061e+01  -6.1257721e+00   4.0838481e+00   4.9589584e+00   8.7511030e-01  -1.7210503e+01   7.8759927e+00   0.0000000e+00   0.0000000e+00   0.0000000e+00   0.0000000e+00
   1.1668137e+00  -2.9170343e-01   5.5423652e+00   2.3044571e+01  -3.7921446e+00  -7.8759927e+00  -1.0793027e+01   4.0838481e+00   9.6262133e+00  -1.1668137e+00  -2.0419240e+00   3.5587819e+01  -9.6262133e+00  -1.4585172e+01  -7.2925859e+00   4.9589584e+00   4.9589584e+00   2.0419240e+00  -1.6918799e+01   8.1676962e+00   0.0000000e+00   0.0000000e+00   0.0000000e+00   0.0000000e+00
  -5.8340687e-01  -8.7511030e-01   4.9589584e+00   2.1002647e+01  -4.6672549e+00  -8.7511030e+00  -1.1668137e+01   3.5004412e+00   9.0428065e+00  -2.6253309e+00  -3.2087378e+00   3.3545895e+01  -1.1084730e+01  -1.5751985e+01  -8.4593996e+00   4.3755515e+00   4.0838481e+00   2.0419240e+00  -1.7210503e+01   7.2925859e+00   0.0000000e+00   0.0000000e+00   0.0000000e+00   0.0000000e+00
  -1.1668137e+00  -2.0419240e+00   4.0838481e+00   1.6918799e+01  -5.8340687e+00  -1.0209620e+01  -1.3126655e+01   2.0419240e+00   7.0008824e+00  -4.3755515e+00  -4.9589584e+00   3.0045454e+01  -1.3418358e+01  -1.7502206e+01  -9.9179168e+00   2.3336275e+00   2.6253309e+00   2.9170343e-01  -1.8085613e+01   5.8340687e+00   0.0000000e+00   0.0000000e+00   0.0000000e+00   0.0000000e+00
  -5.8340687e-01  -2.3336275e+00   3.5004412e+00   1.3710061e+01  -6.1257721e+00  -1.0793027e+01  -1.3710061e+01   8.7511030e-01   4.6672549e+00  -5.5423652e+00  -6.7091790e+00   2.7128419e+01  -1.5751985e+01  -1.8960723e+01  -1.0209620e+01   8.7511030e-01   1.4585172e+00  -1.4585172e+00  -1.8960723e+01   4.9589584e+00   0.0000000e+00   0.0000000e+00   0.0000000e+00   0.0000000e+00
   0.0000000e+00  -3.2087378e+00   2.3336275e+00   1.1668137e+01  -6.4174756e+00  -1.1376434e+01  -1.4001765e+01  -2.9170343e-01   1.1668137e+00  -7.8759927e+00  -8.4593996e+00   2.4794792e+01  -1.8377316e+01  -2.1002647e+01  -1.1084730e+01  -5.8340687e-01   2.9170343e-01  -4.3755515e+00  -1.9835834e+01   3.5004412e+00   0.0000000e+00   0.0000000e+00   0.0000000e+00   0.0000000e+00
   8.7511030e-01  -3.2087378e+00   2.0419240e+00   1.1668137e+01  -5.8340687e+00  -1.0793027e+01  -1.3710061e+01  -8.7511030e-01  -1.4585172e+00  -9.9179168e+00  -9.6262133e+00   2.4503088e+01  -2.0127537e+01  -2.2752868e+01  -1.1084730e+01  -1.1668137e+00   5.8340687e-01  -6.4174756e+00  -2.0127537e+01   2.9170343e+00   0.0000000e+00   0.0000000e+00   0.0000000e+00   0.0000000e+00
   1.7502206e+00  -2.6253309e+00   2.0419240e+00   1.3126655e+01  -4.6672549e+00  -9.9179168e+00  -1.2834951e+01  -5.8340687e-01  -3.2087378e+00  -1.1668137e+01  -1.0209620e+01   2.5961606e+01  -2.0710944e+01  -2.3627978e+01  -1.1084730e+01  -1.1668137e+00   1.4585172e+00  -7.5842893e+00  -1.9544130e+01   2.9170343e+00   0.0000000e+00   0.0000000e+00   0.0000000e+00   0.0000000e+00
   2.6253309e+00  -1.7502206e+00   2.3336275e+00   1.4585172e+01  -3.2087378e+00  -9.0428065e+00  -1.2251544e+01  -5.8340687e-01  -4.0838481e+00  -1.2251544e+01  -1.0501324e+01   2.7128419e+01  -2.1002647e+01  -2.3919682e+01  -1.1084730e+01  -8.7511030e-01   2.3336275e+00  -7.8759927e+00  -1.8960723e+01   2.9170343e+00   0.0000000e+00   0.0000000e+00   0.0000000e+00   0.0000000e+00
   4.0838481e+00  -5.8340687e-01   2.9170343e+00   1.5460282e+01  -1.7502206e+00  -8.4593996e+00  -1.1668137e+01  -2.9170343e-01  -3.7921446e+00  -1.1668137e+01  -1.0501324e+01   2.8295233e+01  -2.0419240e+01  -2.3919682e+01  -1.1084730e+01  -5.8340687e-01   2.9170343e+00  -7.0008824e+00  -1.8960723e+01   3.2087378e+00   0.0000000e+00   0.0000000e+00   0.0000000e+00   0.0000000e+00
   5.2506618e+00   2.9170343e-01   2.6253309e+00   1.4876875e+01  -8.7511030e-01  -8.7511030e+00  -1.1668137e+01  -5.8340687e-01  -3.7921446e+00  -1.1376434e+01  -1.1084730e+01   2.8295233e+01  -2.0419240e+01  -2.4211385e+01  -1.1376434e+01  -1.1668137e+00   2.6253309e+00  -6.4174756e+00  -1.9544130e+01   3.2087378e+00   0.0000000e+00   0.0000000e+00   0.0000000e+00   0.0000000e+00
   6.7091790e+00   8.7511030e-01   2.6253309e+00   1.4585172e+01  -8.7511030e-01  -9.3345099e+00  -1.1668137e+01  -5.8340687e-01  -4.0838481e+00  -1.1959841e+01  -1.1668137e+01   2.7711826e+01  -2.0710944e+01  -2.4794792e+01  -1.1668137e+01  -2.0419240e+00   1.7502206e+00  -6.1257721e+00  -2.0419240e+01   3.5004412e+00   0.0000000e+00   0.0000000e+00   0.0000000e+00   0.0000000e+00
   7.8759927e+00   8.7511030e-01   2.3336275e+00   1.5168579e+01  -1.4585172e+00  -1.0209620e+01  -1.1376434e+01  -8.7511030e-01  -4.9589584e+00  -1.3710061e+01  -1.2543248e+01   2.7711826e+01  -2.1294351e+01  -2.5669902e+01  -1.1959841e+01  -2.6253309e+00   8.7511030e-01  -6.1257721e+00  -2.1294351e+01   3.7921446e+00   0.0000000e+00   0.0000000e+00   0.0000000e+00   0.0000000e+00
   8.7511030e+00   2.9170343e-01   1.7502206e+00   1.6043689e+01  -2.6253309e+00  -1.1084730e+01  -1.1376434e+01  -1.1668137e+00  -6.4174756e+00  -1.6043689e+01  -1.3418358e+01   2.7420123e+01  -2.2461164e+01  -2.6545013e+01  -1.2834951e+01  -3.5004412e+00   0.0000000e+00  -7.5842893e+00  -2.1586054e+01   3.5004412e+00   0.0000000e+00   0.0000000e+00   0.0000000e+00   0.0000000e+00
   9.0428065e+00  -5.8340687e-01   1.7502206e+00   1.6918799e+01  -3.7921446e+00  -1.1668137e+01  -1.1376434e+01  -1.4585172e+00  -8.1676962e+00  -1.7793909e+01  -1.4293468e+01   2.7420123e+01  -2.3336275e+01  -2.7711826e+01  -1.3418358e+01  -4.0838481e+00  -8.7511030e-01  -9.6262133e+00  -2.1586054e+01   3.2087378e+00   0.0000000e+00   0.0000000e+00   0.0000000e+00   0.0000000e+00
   8.1676962e+00  -1.1668137e+00   1.7502206e+00   1.6627096e+01  -4.9589584e+00  -1.1959841e+01  -1.1084730e+01  -1.7502206e+00  -9.3345099e+00  -1.8377316e+01  -1.4876875e+01   2.7128419e+01  -2.3627978e+01  -2.8003530e+01  -1.3418358e+01  -4.6672549e+00  -1.7502206e+00  -1.1376434e+01  -2.0710944e+01   3.5004412e+00   0.0000000e+00   0.0000000e+00   0.0000000e+00   0.0000000e+00
   6.1257721e+00  -1.4585172e+00   2.3336275e+00   1.4876875e+01  -6.1257721e+00  -1.2251544e+01  -1.1084730e+01  -2.3336275e+00  -9.9179168e+00  -1.7793909e+01  -1.5168579e+01   2.5961606e+01  -2.3627978e+01  -2.8295233e+01  -1.3418358e+01  -5.2506618e+00  -2.9170343e+00  -1.3126655e+01  -2.0419240e+01   3.5004412e+00   0.0000000e+00   0.0000000e+00   0.0000000e+00   0.0000000e+00
   3.5004412e+00  -8.7511030e-01   3.2087378e+00   1.2543248e+01  -6.7091790e+00  -1.1959841e+01  -1.0209620e+01  -1.7502206e+00  -9.3345099e+00  -1.5751985e+01  -1.4585172e+01   2.4503088e+01  -2.3336275e+01  -2.7711826e+01  -1.2834951e+01  -5.2506618e+00  -3.7921446e+00  -1.3710061e+01  -2.0127537e+01   4.0838481e+00   0.0000000e+00   0.0000000e+00   0.0000000e+00   0.0000000e+00
   5.8340687e-01  -2.9170343e-01   4.0838481e+00   1.0793027e+01  -7.0008824e+00  -1.1084730e+01  -9.0428065e+00  -5.8340687e-01  -8.1676962e+00  -1.3710061e+01  -1.3418358e+01   2.3336275e+01  -2.2169461e+01  -2.7128419e+01  -1.1959841e+01  -4.6672549e+00  -4.0838481e+00  -1.3418358e+01  -1.9544130e+01   5.2506618e+00   0.0000000e+00   0.0000000e+00   0.0000000e+00   0.0000000e+00
  -2.0419240e+00   2.9170343e-01   4.9589584e+00   1.0209620e+01  -7.2925859e+00  -1.0209620e+01  -7.5842893e+00   1.1668137e+00  -7.0008824e+00  -1.1959841e+01  -1.1959841e+01   2.2752868e+01  -2.1002647e+01  -2.6836716e+01  -1.1376434e+01  -3.2087378e+00  -3.7921446e+00  -1.2251544e+01  -1.9252427e+01   6.1257721e+00   0.0000000e+00   0.0000000e+00   0.0000000e+00   0.0000000e+00
  -3.5004412e+00   1.4585172e+00   6.4174756e+00   1.1959841e+01  -6.1257721e+00  -8.4593996e+00  -5.5423652e+00   4.0838481e+00  -5.2506618e+00  -1.0209620e+01  -9.6262133e+00   2.3627978e+01  -1.8960723e+01  -2.6253309e+01  -1.0501324e+01  -1.1668137e+00  -2.0419240e+00  -1.0209620e+01  -1.7793909e+01   7.8759927e+00   0.0000000e+00   0.0000000e+00   0.0000000e+00   0.0000000e+00
  -4.3755515e+00   2.3336275e+00   7.0008824e+00   1.4001765e+01  -5.2506618e+00  -7.0008824e+00  -3.7921446e+00   6.4174756e+00  -4.0838481e+00  -8.7511030e+00  -8.1676962e+00   2.5086495e+01  -1.6918799e+01  -2.6253309e+01  -1.0209620e+01   8.7511030e-01  -5.8340687e-01  -8.1676962e+00  -1.6627096e+01   8.7511030e+00   0.0000000e+00   0.0000000e+00   0.0000000e+00   0.0000000e+00
  -3.7921446e+00   3.5004412e+00   8.1676962e+00   1.5460282e+01  -4.0838481e+00  -5.5423652e+00  -2.3336275e+00   8.1676962e+00  -2.6253309e+00  -7.0008824e+00  -7.2925859e+00   2.6836716e+01  -1.4585172e+01  -2.5961606e+01  -9.9179168e+00   2.0419240e+00   1.4585172e+00  -6.1257721e+00  -1.5168579e+01   9.3345099e+00   0.0000000e+00   0.0000000e+00   0.0000000e+00   0.0000000e+00
  -2.3336275e+00   4.9589584e+00   9.0428065e+00   1.5460282e+01  -3.2087378e+00  -4.6672549e+00  -1.7502206e+00   8.7511030e+00  -1.7502206e+00  -5.8340687e+00  -7.0008824e+00   2.7711826e+01  -1.2834951e+01  -2.5961606e+01  -9.6262133e+00   2.3336275e+00   2.6253309e+00  -4.9589584e+00  -1.4585172e+01   9.3345099e+00   0.0000000e+00   0.0000000e+00   0.0000000e+00   0.0000000e+00
  -2.9170343e-01   5.5423652e+00   9.3345099e+00   1.3710061e+01  -2.6253309e+00  -4.0838481e+00  -2.0419240e+00   7.8759927e+00  -1.7502206e+00  -6.4174756e+00  -8.1676962e+00   2.7711826e+01  -1.1959841e+01  -2.6253309e+01  -9.6262133e+00   1.1668137e+00   3.2087378e+00  -4.9589584e+00  -1.4876875e+01   8.4593996e+00   0.0000000e+00   0.0000000e+00   0.0000000e+00   0.0000000e+00
   1.4585172e+00   5.8340687e+00   9.0428065e+00   1.1959841e+01  -2.9170343e+00  -4.0838481e+00  -2.6253309e+00   6.4174756e+00  -2.3336275e+00  -8.4593996e+00  -9.6262133e+00   2.6836716e+01  -1.2251544e+01  -2.6836716e+01  -9.9179168e+00  -8.7511030e-01   2.9170343e+00  -6.1257721e+00  -1.5751985e+01   7.0008824e+00   0.0000000e+00   0.0000000e+00   0.0000000e+00   0.0000000e+00
   2.9170343e+00   5.5423652e+00   8.4593996e+00   1.1668137e+01  -2.9170343e+00  -4.0838481e+00  -2.9170343e+00   4.9589584e+00  -2.9170343e+00  -1.0501324e+01  -1.1084730e+01   2.6253309e+01  -1.2251544e+01  -2.7128419e+01  -1.0209620e+01  -2.6253309e+00   2.9170343e+00  -7.5842893e+00  -1.6627096e+01   5.5423652e+00   0.0000000e+00   0.0000000e+00   0.0000000e+00   0.0000000e+00
   3.2087378e+00   4.9589584e+00   7.5842893e+00   1.2834951e+01  -2.9170343e+00  -3.7921446e+00  -3.5004412e+00   4.0838481e+00  -3.7921446e+00  -1.2543248e+01  -1.1959841e+01   2.6545013e+01  -1.2543248e+01  -2.7420123e+01  -1.0793027e+01  -4.3755515e+00   3.5004412e+00  -9.3345099e+00  -1.7210503e+01   4.3755515e+00   0.0000000e+00   0.0000000e+00   0.0000000e+00   0.0000000e+00
   3.2087378e+00   5.2506618e+00   7.2925859e+00   1.5460282e+01  -2.0419240e+00  -2.9170343e+00  -3.2087378e+00   4.0838481e+00  -3.2087378e+00  -1.2543248e+01  -1.1668137e+01   2.8295233e+01  -1.1376434e+01  -2.6253309e+01  -1.0501324e+01  -4.6672549e+00   5.2506618e+00  -9.3345099e+00  -1.6335392e+01   4.0838481e+00   0.0000000e+00   0.0000000e+00   0.0000000e+00   0.0000000e+00
   3.7921446e+00   6.4174756e+00   7.8759927e+00   1.8377316e+01   0.0000000e+00  -8.7511030e-01  -2.3336275e+00   4.9589584e+00  -1.4585172e+00  -1.1084730e+01  -1.0209620e+01   3.0628861e+01  -9.6262133e+00  -2.3627978e+01  -9.6262133e+00  -3.7921446e+00   7.5842893e+00  -7.8759927e+00  -1.4585172e+01   4.9589584e+00   0.0000000e+00   0.0000000e+00   0.0000000e+00   0.0000000e+00
   4.3755515e+00   7.5842893e+00   8.7511030e+00   2.0127537e+01   1.7502206e+00   5.8340687e-01  -2.0419240e+00   5.2506618e+00   2.9170343e-01  -9.6262133e+00  -8.7511030e+00   3.1795674e+01  -7.8759927e+00  -2.1294351e+01  -8.7511030e+00  -3.5004412e+00   9.3345099e+00  -5.8340687e+00  -1.3126655e+01   5.5423652e+00   0.0000000e+00   0.0000000e+00   0.0000000e+00   0.0000000e+00
   5.5423652e+00   8.7511030e+00   9.9179168e+00   2.0419240e+01   3.7921446e+00   2.0419240e+00  -1.7502206e+00   5.2506618e+00   1.7502206e+00  -8.7511030e+00  -7.2925859e+00   3.2087378e+01  -7.0008824e+00  -1.8669020e+01  -7.5842893e+00  -2.9170343e+00   1.0793027e+01  -3.7921446e+00  -1.1668137e+01   6.4174756e+00   0.0000000e+00   0.0000000e+00   0.0000000e+00   0.0000000e+00
   6.4174756e+00   9.6262133e+00   1.0501324e+01   1.9544130e+01   4.9589584e+00   2.6253309e+00  -1.7502206e+00   4.9589584e+00   2.3336275e+00  -8.7511030e+00  -6.4174756e+00   3.0920564e+01  -7.0008824e+00  -1.6918799e+01  -6.1257721e+00  -3.2087378e+00   1.0793027e+01  -2.9170343e+00  -1.0793027e+01   6.7091790e+00   0.0000000e+00   0.0000000e+00   0.0000000e+00   0.0000000e+00
   7.2925859e+00   9.6262133e+00   1.1084730e+01   1.8960723e+01   5.5423652e+00   2.9170343e+00  -1.7502206e+00   4.3755515e+00   2.0419240e+00  -9.0428065e+00  -5.8340687e+00   2.9462047e+01  -7.5842893e+00  -1.6043689e+01  -4.9589584e+00  -3.5004412e+00   1.0501324e+01  -3.2087378e+00  -1.0209620e+01   6.4174756e+00   0.0000000e+00   0.0000000e+00   0.0000000e+00   0.0000000e+00
   7.5842893e+00   9.3345099e+00   1.1084730e+01   1.9252427e+01   5.8340687e+00   2.9170343e+00  -1.7502206e+00   3.7921446e+00   8.7511030e-01  -8.7511030e+00  -5.5423652e+00   2.8878640e+01  -8.1676962e+00  -1.5460282e+01  -3.5004412e+00  -3.5004412e+00   1.0501324e+01  -4.0838481e+00  -9.3345099e+00   6.1257721e+00   0.0000000e+00   0.0000000e+00   0.0000000e+00   0.0000000e+00
   8.4593996e+00   9.6262133e+00   1.1376434e+01   2.0127537e+01   6.4174756e+00   3.2087378e+00  -1.4585172e+00   3.5004412e+00   2.9170343e-01  -7.8759927e+00  -5.2506618e+00   2.8878640e+01  -8.1676962e+00  -1.4876875e+01  -2.0419240e+00  -3.2087378e+00   1.1084730e+01  -4.6672549e+00  -7.8759927e+00   6.1257721e+00   0.0000000e+00   0.0000000e+00   0.0000000e+00   0.0000000e+00
   9.6262133e+00   1.0209620e+01   1.1959841e+01   2.0710944e+01   7.0008824e+00   4.0838481e+00  -8.7511030e-01   3.5004412e+00   2.9170343e-01  -6.4174756e+00  -4.6672549e+00   2.9462047e+01  -7.2925859e+00  -1.3710061e+01  -5.8340687e-01  -2.6253309e+00   1.1959841e+01  -4.9589584e+00  -5.8340687e+00   6.4174756e+00   0.0000000e+00   0.0000000e+00   0.0000000e+00   0.0000000e+00
   1.1084730e+01   1.0793027e+01   1.2251544e+01   2.0710944e+01   7.5842893e+00   4.9589584e+00  -5.8340687e-01   3.2087378e+00   5.8340687e-01  -5.5423652e+00  -4.0838481e+00   3.0045454e+01  -6.1257721e+00  -1.2251544e+01   8.7511030e-01  -2.3336275e+00   1.2543248e+01  -4.6672549e+00  -4.6672549e+00   6.4174756e+00   0.0000000e+00   0.0000000e+00   0.0000000e+00   0.0000000e+00
   1.2834951e+01   1.2251544e+01   1.2834951e+01   2.0419240e+01   8.1676962e+00   6.4174756e+00   0.0000000e+00   3.5004412e+00   1.4585172e+00  -4.9589584e+00  -3.2087378e+00   3.0920564e+01  -4.6672549e+00  -1.0209620e+01   2.3336275e+00  -1.4585172e+00   1.3126655e+01  -3.5004412e+00  -3.5004412e+00   7.2925859e+00   0.0000000e+00   0.0000000e+00   0.0000000e+00   0.0000000e+00
   1.3418358e+01   1.2834951e+01   1.2834951e+01   2.0710944e+01   8.4593996e+00   7.2925859e+00   0.0000000e+00   3.7921446e+00   1.4585172e+00  -4.9589584e+00  -2.9170343e+00   3.1503971e+01  -3.5004412e+00  -8.7511030e+00   2.9170343e+00  -1.1668137e+00   1.3126655e+01  -2.0419240e+00  -3.5004412e+00   7.2925859e+00   0.0000000e+00   0.0000000e+00   0.0000000e+00   0.0000000e+00
   1.3126655e+01   1.3126655e+01   1.2543248e+01   2.2169461e+01   8.4593996e+00   8.1676962e+00   5.8340687e-01   4.9589584e+00   1.4585172e+00  -4.3755515e+00  -1.7502206e+00   3.2670785e+01  -2.6253309e+00  -7.2925859e+00   3.2087378e+00  -2.9170343e-01   1.3418358e+01  -2.9170343e-01  -3.5004412e+00   7.5842893e+00   0.0000000e+00   0.0000000e+00   0.0000000e+00   0.0000000e+00
   1.2543248e+01   1.2543248e+01   1.1376434e+01   2.4503088e+01   8.1676962e+00   8.4593996e+00   5.8340687e-01   5.8340687e+00   8.7511030e-01  -3.2087378e+00  -8.7511030e-01   3.4421005e+01  -1.7502206e+00  -6.4174756e+00   2.9170343e+00   5.8340687e-01   1.3710061e+01   1.1668137e+00  -3.2087378e+00   7.5842893e+00   0.0000000e+00   0.0000000e+00   0.0000000e+00   0.0000000e+00
   1.2251544e+01   1.1668137e+01   9.9179168e+00   2.6836716e+01   7.8759927e+00   8.4593996e+00   2.9170343e-01   6.1257721e+00   5.8340687e-01  -1.7502206e+00  -2.9170343e-01   3.5587819e+01  -8.7511030e-01  -6.1257721e+00   2.3336275e+00   1.1668137e+00   1.4293468e+01   2.0419240e+00  -2.6253309e+00   7.0008824e+00   0.0000000e+00   0.0000000e+00   0.0000000e+00   0.0000000e+00
   1.2251544e+01   9.9179168e+00   8.1676962e+00   2.7420123e+01   7.0008824e+00   7.8759927e+00  -1.1668137e+00   5.5423652e+00   5.8340687e-01  -1.1668137e+00  -8.7511030e-01   3.5587819e+01  -8.7511030e-01  -6.4174756e+00   1.7502206e+00   8.7511030e-01   1.4001765e+01   1.7502206e+00  -2.6253309e+00   5.8340687e+00   0.0000000e+00   0.0000000e+00   0.0000000e+00   0.0000000e+00
   1.2543248e+01   8.1676962e+00   6.4174756e+00   2.5669902e+01   5.8340687e+00   6.7091790e+00  -3.2087378e+00   3.5004412e+00   8.7511030e-01  -2.3336275e+00  -2.0419240e+00   3.4129302e+01  -1.1668137e+00  -6.7091790e+00   8.7511030e-01  -8.7511030e-01   1.3126655e+01   2.9170343e-01  -3.2087378e+00   4.0838481e+00   0.0000000e+00   0.0000000e+00   0.0000000e+00   0.0000000e+00
   1.2834951e+01   6.4174756e+00   4.9589584e+00   2.2461164e+01   4.3755515e+00   5.2506618e+00  -5.8340687e+00   8.7511030e-01   1.4585172e+00  -4.6672549e+00  -4.0838481e+00   3.1503971e+01  -2.0419240e+00  -7.0008824e+00   2.9170343e-01  -2.9170343e+00   1.1376434e+01  -2.3336275e+00  -4.9589584e+00   2.0419240e+00   0.0000000e+00   0.0000000e+00   0.0000000e+00   0.0000000e+00
   1.3418358e+01   5.5423652e+00   4.3755515e+00   2.0127537e+01   3.7921446e+00   4.3755515e+00  -7.2925859e+00  -8.7511030e-01   2.3336275e+00  -7.0008824e+00  -5.2506618e+00   2.9170343e+01  -2.3336275e+00  -6.4174756e+00   2.9170343e-01  -4.6672549e+00   9.9179168e+00  -4.3755515e+00  -6.4174756e+00   5.8340687e-01   0.0000000e+00   0.0000000e+00   0.0000000e+00   0.0000000e+00
   1.3418358e+01   4.9589584e+00   3.7921446e+00   1.8960723e+01   3.5004412e+00   3.5004412e+00  -8.4593996e+00  -1.7502206e+00   2.9170343e+00  -8.7511030e+00  -6.1257721e+00   2.7711826e+01  -2.6253309e+00  -5.5423652e+00   0.0000000e+00  -5.2506618e+00   9.3345099e+00  -6.1257721e+00  -8.1676962e+00  -2.9170343e-01   0.0000000e+00   0.0000000e+00   0.0000000e+00   0.0000000e+00
   1.3126655e+01   5.2506618e+00   4.0838481e+00   2.0419240e+01   4.6672549e+00   3.7921446e+00  -8.1676962e+00  -8.7511030e-01   3.7921446e+00  -8.7511030e+00  -5.8340687e+00   2.8295233e+01  -2.0419240e+00  -4.0838481e+00   2.9170343e-01  -4.6672549e+00   1.0209620e+01  -6.4174756e+00  -8.4593996e+00   0.0000000e+00   0.0000000e+00   0.0000000e+00   0.0000000e+00   0.0000000e+00
   1.2543248e+01   5.5423652e+00   4.3755515e+00   2.2461164e+01   5.5423652e+00   3.5004412e+00  -7.8759927e+00   2.9170343e-01   4.3755515e+00  -7.5842893e+00  -4.9589584e+00   2.8878640e+01  -1.1668137e+00  -3.5004412e+00  -2.9170343e-01  -3.2087378e+00   1.1668137e+01  -6.4174756e+00  -8.4593996e+00   5.8340687e-01   0.0000000e+00   0.0000000e+00   0.0000000e+00   0.0000000e+00
   1.1084730e+01   5.2506618e+00   3.7921446e+00   2.3336275e+01   5.5423652e+00   2.6253309e+00  -8.4593996e+00   8.7511030e-01   3.7921446e+00  -6.1257721e+00  -4.6672549e+00   2.8586937e+01  -1.1668137e+00  -3.7921446e+00  -2.0419240e+00  -2.3336275e+00   1.2543248e+01  -6.1257721e+00  -9.0428065e+00   5.8340687e-01   0.0000000e+00   0.0000000e+00   0.0000000e+00   0.0000000e+00
   9.6262133e+00   4.9589584e+00   3.2087378e+00   2.2461164e+01   5.2506618e+00   1.1668137e+00  -9.9179168e+00   5.8340687e-01   2.9170343e+00  -5.2506618e+00  -4.9589584e+00   2.7128419e+01  -1.4585172e+00  -4.9589584e+00  -3.5004412e+00  -2.3336275e+00   1.2543248e+01  -5.8340687e+00  -1.0209620e+01   2.9170343e-01   0.0000000e+00   0.0000000e+00   0.0000000e+00   0.0000000e+00
   8.4593996e+00   4.3755515e+00   2.6253309e+00   2.0710944e+01   4.6672549e+00  -8.7511030e-01  -1.1959841e+01   0.0000000e+00   1.1668137e+00  -4.9589584e+00  -5.5423652e+00   2.5378199e+01  -2.6253309e+00  -6.7091790e+00  -4.6672549e+00  -2.6253309e+00   1.1668137e+01  -5.8340687e+00  -1.1959841e+01  -2.9170343e-01   0.0000000e+00   0.0000000e+00   0.0000000e+00   0.0000000e+00
   7.2925859e+00   3.5004412e+00   1.4585172e+00   1.8377316e+01   3.7921446e+00  -2.9170343e+00  -1.4293468e+01  -1.1668137e+00  -1.4585172e+00  -5.2506618e+00  -6.1257721e+00   2.3044571e+01  -4.3755515e+00  -9.0428065e+00  -5.5423652e+00  -3.2087378e+00   1.0209620e+01  -6.7091790e+00  -1.4001765e+01  -1.1668137e+00   0.0000000e+00   0.0000000e+00   0.0000000e+00   0.0000000e+00
   5.8340687e+00   2.0419240e+00   0.0000000e+00   1.7210503e+01   2.6253309e+00  -4.9589584e+00  -1.6335392e+01  -2.3336275e+00  -4.6672549e+00  -5.8340687e+00  -6.7091790e+00   2.1877758e+01  -6.7091790e+00  -1.1668137e+01  -5.8340687e+00  -3.7921446e+00   8.4593996e+00  -8.1676962e+00  -1.5751985e+01  -2.0419240e+00   0.0000000e+00   0.0000000e+00   0.0000000e+00   0.0000000e+00
   4.6672549e+00   8.7511030e-01  -8.7511030e-01   1.7502206e+01   1.4585172e+00  -6.4174756e+00  -1.7502206e+01  -2.9170343e+00  -7.5842893e+00  -6.4174756e+00  -6.1257721e+00   2.2169461e+01  -8.7511030e+00  -1.4001765e+01  -5.8340687e+00  -3.5004412e+00   7.0008824e+00  -9.6262133e+00  -1.6627096e+01  -2.3336275e+00   0.0000000e+00   0.0000000e+00   0.0000000e+00   0.0000000e+00
   3.5004412e+00  -2.9170343e-01  -1.1668137e+00   1.8377316e+01  -2.9170343e-01  -7.2925859e+00  -1.8085613e+01  -2.6253309e+00  -9.3345099e+00  -7.2925859e+00  -5.2506618e+00   2.3044571e+01  -1.0501324e+01  -1.6043689e+01  -5.2506618e+00  -2.6253309e+00   6.1257721e+00  -1.1084730e+01  -1.6918799e+01  -2.3336275e+00   0.0000000e+00   0.0000000e+00   0.0000000e+00   0.0000000e+00
   2.3336275e+00  -8.7511030e-01  -2.9170343e-01   1.8669020e+01  -2.0419240e+00  -7.8759927e+00  -1.7793909e+01  -1.7502206e+00  -1.0209620e+01  -7.5842893e+00  -3.5004412e+00   2.4211385e+01  -1.1668137e+01  -1.7210503e+01  -4.6672549e+00  -1.4585172e+00   5.2506618e+00  -1.1376434e+01  -1.6043689e+01  -1.4585172e+00   0.0000000e+00   0.0000000e+00   0.0000000e+00   0.0000000e+00
   1.1668137e+00  -1.4585172e+00   1.1668137e+00   1.7502206e+01  -4.6672549e+00  -8.7511030e+00  -1.7793909e+01  -8.7511030e-01  -1.0501324e+01  -8.1676962e+00  -1.7502206e+00   2.4211385e+01  -1.2834951e+01  -1.8377316e+01  -4.0838481e+00   0.0000000e+00   3.7921446e+00  -1.1084730e+01  -1.5460282e+01  -2.9170343e-01   0.0000000e+00   0.0000000e+00   0.0000000e+00   0.0000000e+00
  -2.9170343e-01  -2.0419240e+00   2.9170343e+00   1.4585172e+01  -7.8759927e+00  -9.9179168e+00  -1.7793909e+01   0.0000000e+00  -1.0209620e+01  -8.4593996e+00   0.0000000e+00   2.2752868e+01  -1.4293468e+01  -1.9252427e+01  -3.5004412e+00   1.1668137e+00   1.7502206e+00  -1.0209620e+01  -1.4876875e+01   8.7511030e-01   0.0000000e+00   0.0000000e+00   0.0000000e+00   0.0000000e+00
  -2.3336275e+00  -2.6253309e+00   4.0838481e+00   1.0793027e+01  -1.0793027e+01  -1.1376434e+01  -1.7793909e+01   8.7511030e-01  -1.0501324e+01  -8.1676962e+00   1.1668137e+00   2.0710944e+01  -1.6043689e+01  -2.0419240e+01  -3.2087378e+00   2.0419240e+00  -1.1668137e+00  -9.0428065e+00  -1.5168579e+01   2.0419240e+00   0.0000000e+00   0.0000000e+00   0.0000000e+00   0.0000000e+00
  -4.3755515e+00  -3.5004412e+00   4.6672549e+00   7.8759927e+00  -1.3418358e+01  -1.3126655e+01  -1.7793909e+01   1.7502206e+00  -1.1084730e+01  -7.8759927e+00   2.0419240e+00   1.8669020e+01  -1.8085613e+01  -2.1877758e+01  -2.6253309e+00   2.9170343e+00  -4.3755515e+00  -8.4593996e+00  -1.5460282e+01   2.9170343e+00   0.0000000e+00   0.0000000e+00   0.0000000e+00   0.0000000e+00
  -6.4174756e+00  -4.6672549e+00   4.0838481e+00   6.4174756e+00  -1.5168579e+01  -1.4293468e+01  -1.7793909e+01   2.6253309e+00  -1.2251544e+01  -7.0008824e+00   2.9170343e+00   1.7793909e+01  -2.0127537e+01  -2.3336275e+01  -2.3336275e+00   3.7921446e+00  -7.2925859e+00  -8.4593996e+00  -1.5460282e+01   3.7921446e+00   0.0000000e+00   0.0000000e+00   0.0000000e+00   0.0000000e+00
  -8.7511030e+00  -6.1257721e+00   2.9170343e+00   5.5423652e+00  -1.6335392e+01  -1.5751985e+01  -1.8085613e+01   2.9170343e+00  -1.4293468e+01  -7.0008824e+00   2.6253309e+00   1.6918799e+01  -2.2169461e+01  -2.5086495e+01  -2.3336275e+00   3.7921446e+00  -1.0209620e+01  -9.6262133e+00  -1.5460282e+01   3.5004412e+00   0.0000000e+00   0.0000000e+00   0.0000000e+00   0.0000000e+00
  -1.0501324e+01  -7.2925859e+00   1.4585172e+00   4.6672549e+00  -1.6918799e+01  -1.6627096e+01  -1.8377316e+01   2.6253309e+00  -1.6335392e+01  -7.0008824e+00   2.0419240e+00   1.6043689e+01  -2.4211385e+01  -2.6253309e+01  -2.6253309e+00   3.5004412e+00  -1.2543248e+01  -1.1959841e+01  -1.5168579e+01   3.2087378e+00   0.0000000e+00   0.0000000e+00   0.0000000e+00   0.0000000e+00
  -1.1376434e+01  -7.8759927e+00   5.8340687e-01   2.9170343e+00  -1.7210503e+01  -1.7502206e+01  -1.8960723e+01   1.7502206e+00  -1.8085613e+01  -7.2925859e+00   8.7511030e-01   1.5168579e+01  -2.5961606e+01  -2.6836716e+01  -3.2087378e+00   2.0419240e+00  -1.4876875e+01  -1.4876875e+01  -1.5460282e+01   2.3336275e+00   0.0000000e+00   0.0000000e+00   0.0000000e+00   0.0000000e+00
  -1.1376434e+01  -7.5842893e+00   8.7511030e-01   8.7511030e-01  -1.7502206e+01  -1.7793909e+01  -1.9544130e+01   5.8340687e-01  -1.8377316e+01  -7.2925859e+00  -2.9170343e-01   1.4293468e+01  -2.6836716e+01  -2.6545013e+01  -3.7921446e+00   8.7511030e-01  -1.6918799e+01  -1.7210503e+01  -1.6335392e+01   1.7502206e+00   0.0000000e+00   0.0000000e+00   0.0000000e+00   0.0000000e+00
  -1.0793027e+01  -7.0008824e+00   1.4585172e+00  -5.8340687e-01  -1.7793909e+01  -1.7502206e+01  -1.9835834e+01   2.9170343e-01  -1.7793909e+01  -6.7091790e+00  -5.8340687e-01   1.3710061e+01  -2.7128419e+01  -2.5961606e+01  -4.6672549e+00   2.9170343e-01  -1.7793909e+01  -1.8377316e+01  -1.7502206e+01   1.7502206e+00   0.0000000e+00   0.0000000e+00   0.0000000e+00   0.0000000e+00
  -9.3345099e+00  -6.1257721e+00   2.9170343e+00   2.9170343e-01  -1.7502206e+01  -1.6918799e+01  -1.9252427e+01   1.1668137e+00  -1.5460282e+01  -6.1257721e+00  -2.9170343e-01   1.4876875e+01  -2.6253309e+01  -2.5378199e+01  -5.5423652e+00   8.7511030e-01  -1.7502206e+01  -1.7502206e+01  -1.8377316e+01   2.3336275e+00   0.0000000e+00   0.0000000e+00   0.0000000e+00   0.0000000e+00
  -7.5842893e+00  -5.5423652e+00   4.3755515e+00   2.9170343e+00  -1.6627096e+01  -1.5751985e+01  -1.8377316e+01   2.6253309e+00  -1.2543248e+01  -5.5423652e+00   2.9170343e-01   1.6918799e+01  -2.4794792e+01  -2.4794792e+01  -6.1257721e+00   2.0419240e+00  -1.5751985e+01  -1.5751985e+01  -1.8377316e+01   3.5004412e+00   0.0000000e+00   0.0000000e+00   0.0000000e+00   0.0000000e+00
  -6.7091790e+00  -5.8340687e+00   4.6672549e+00   6.1257721e+00  -1.5751985e+01  -1.4876875e+01  -1.8085613e+01   4.0838481e+00  -9.9179168e+00  -5.8340687e+00   5.8340687e-01   1.9252427e+01  -2.3044571e+01  -2.5086495e+01  -7.5842893e+00   3.2087378e+00  -1.4001765e+01  -1.4001765e+01  -1.8377316e+01   4.0838481e+00   0.0000000e+00   0.0000000e+00   0.0000000e+00   0.0000000e+00
  -6.7091790e+00  -6.1257721e+00   3.7921446e+00   8.1676962e+00  -1.5168579e+01  -1.4585172e+01  -1.8669020e+01   4.3755515e+00  -8.1676962e+00  -6.4174756e+00   0.0000000e+00   2.0419240e+01  -2.1877758e+01  -2.6253309e+01  -9.0428065e+00   3.7921446e+00  -1.1959841e+01  -1.2834951e+01  -1.8085613e+01   4.0838481e+00   0.0000000e+00   0.0000000e+00   0.0000000e+00   0.0000000e+00
  -8.1676962e+00  -7.2925859e+00   2.0419240e+00   7.2925859e+00  -1.5168579e+01  -1.5460282e+01  -2.0127537e+01   2.9170343e+00  -8.1676962e+00  -6.7091790e+00  -1.7502206e+00   1.9544130e+01  -2.1877758e+01  -2.7711826e+01  -1.1376434e+01   2.6253309e+00  -1.1668137e+01  -1.3126655e+01  -1.8669020e+01   2.6253309e+00   0.0000000e+00   0.0000000e+00   0.0000000e+00   0.0000000e+00
  -1.0501324e+01  -8.4593996e+00  -2.9170343e-01   3.7921446e+00  -1.5751985e+01  -1.6627096e+01  -2.2169461e+01   5.8340687e-01  -9.0428065e+00  -7.0008824e+00  -4.3755515e+00   1.6918799e+01  -2.2752868e+01  -2.9462047e+01  -1.3710061e+01   2.9170343e-01  -1.2251544e+01  -1.4876875e+01  -1.9835834e+01   8.7511030e-01   0.0000000e+00   0.0000000e+00   0.0000000e+00   0.0000000e+00
  -1.2543248e+01  -9.0428065e+00  -2.0419240e+00   0.0000000e+00  -1.6043689e+01  -1.7210503e+01  -2.3336275e+01  -1.7502206e+00  -1.0209620e+01  -7.2925859e+00  -6.4174756e+00   1.3710061e+01  -2.3627978e+01  -3.0628861e+01  -1.4876875e+01  -1.7502206e+00  -1.3126655e+01  -1.6627096e+01  -2.1002647e+01  -8.7511030e-01   0.0000000e+00   0.0000000e+00   0.0000000e+00   0.0000000e+00
  -1.4001765e+01  -9.9179168e+00  -3.2087378e+00  -3.2087378e+00  -1.6918799e+01  -1.7502206e+01  -2.3919682e+01  -3.2087378e+00  -1.1668137e+01  -8.1676962e+00  -8.1676962e+00   1.1084730e+01  -2.4503088e+01  -3.1795674e+01  -1.6043689e+01  -3.5004412e+00  -1.4001765e+01  -1.8669020e+01  -2.1877758e+01  -2.3336275e+00   0.0000000e+00   0.0000000e+00   0.0000000e+00   0.0000000e+00
  -1.4001765e+01  -9.6262133e+00  -3.2087378e+00  -2.9170343e+00  -1.6335392e+01  -1.6335392e+01  -2.3044571e+01  -2.9170343e+00  -1.1668137e+01  -8.7511030e+00  -8.4593996e+00   1.0793027e+01  -2.4211385e+01  -3.1503971e+01  -1.5751985e+01  -3.2087378e+00  -1.3126655e+01  -1.8960723e+01  -2.1586054e+01  -2.6253309e+00   0.0000000e+00   0.0000000e+00   0.0000000e+00   0.0000000e+00
  -1.4001765e+01  -9.0428065e+00  -2.6253309e+00  -8.7511030e-01  -1.6335392e+01  -1.5168579e+01  -2.1586054e+01  -2.0419240e+00  -1.1376434e+01  -9.6262133e+00  -8.1676962e+00   1.1668137e+01  -2.3627978e+01  -3.1503971e+01  -1.5460282e+01  -2.0419240e+00  -1.1959841e+01  -1.8960723e+01  -2.0419240e+01  -2.3336275e+00   0.0000000e+00   0.0000000e+00   0.0000000e+00   0.0000000e+00
  -1.3418358e+01  -7.8759927e+00  -1.4585172e+00   2.0419240e+00  -1.5751985e+01  -1.3710061e+01  -1.9835834e+01  -5.8340687e-01  -1.0501324e+01  -9.6262133e+00  -6.7091790e+00   1.4001765e+01  -2.2169461e+01  -3.0920564e+01  -1.4876875e+01  -2.9170343e-01  -9.9179168e+00  -1.7502206e+01  -1.8669020e+01  -1.7502206e+00   0.0000000e+00   0.0000000e+00   0.0000000e+00   0.0000000e+00
  -1.3126655e+01  -6.4174756e+00  -2.9170343e-01   4.0838481e+00  -1.5460282e+01  -1.2834951e+01  -1.8085613e+01   8.7511030e-01  -9.3345099e+00  -8.4593996e+00  -5.5423652e+00   1.6043689e+01  -2.0710944e+01  -3.0337157e+01  -1.4293468e+01   1.1668137e+00  -8.4593996e+00  -1.5460282e+01  -1.6918799e+01  -8.7511030e-01   0.0000000e+00   0.0000000e+00   0.0000000e+00   0.0000000e+00
  -1.3126655e+01  -5.8340687e+00   5.8340687e-01   4.3755515e+00  -1.5751985e+01  -1.3126655e+01  -1.7502206e+01   1.4585172e+00  -8.7511030e+00  -7.5842893e+00  -4.6672549e+00   1.6918799e+01  -2.0127537e+01  -3.0337157e+01  -1.4293468e+01   1.7502206e+00  -8.1676962e+00  -1.3710061e+01  -1.6335392e+01  -8.7511030e-01   0.0000000e+00   0.0000000e+00   0.0000000e+00   0.0000000e+00
  -1.2834951e+01  -5.2506618e+00   8.7511030e-01   3.5004412e+00  -1.5751985e+01  -1.3710061e+01  -1.7502206e+01   1.4585172e+00  -8.4593996e+00  -7.2925859e+00  -4.6672549e+00   1.6627096e+01  -2.0127537e+01  -3.0337157e+01  -1.4585172e+01   1.1668137e+00  -8.7511030e+00  -1.2543248e+01  -1.6335392e+01  -1.1668137e+00   0.0000000e+00   0.0000000e+00   0.0000000e+00   0.0000000e+00
  -1.1668137e+01  -5.5423652e+00   5.8340687e-01   3.2087378e+00  -1.5751985e+01  -1.4293468e+01  -1.7502206e+01   1.4585172e+00  -8.7511030e+00  -8.4593996e+00  -4.9589584e+00   1.6043689e+01  -2.0419240e+01  -3.0337157e+01  -1.5168579e+01   2.9170343e-01  -9.3345099e+00  -1.1959841e+01  -1.6627096e+01  -1.7502206e+00   0.0000000e+00   0.0000000e+00   0.0000000e+00   0.0000000e+00
  -9.9179168e+00  -6.4174756e+00  -2.9170343e-01   3.7921446e+00  -1.5460282e+01  -1.5168579e+01  -1.8085613e+01   8.7511030e-01  -9.6262133e+00  -1.1084730e+01  -5.8340687e+00   1.5460282e+01  -2.1294351e+01  -3.1212267e+01  -1.5751985e+01  -1.4585172e+00  -1.0209620e+01  -1.3126655e+01  -1.7210503e+01  -3.2087378e+00   0.0000000e+00   0.0000000e+00   0.0000000e+00   0.0000000e+00
  -8.1676962e+00  -7.2925859e+00  -8.7511030e-01   5.2506618e+00  -1.5168579e+01  -1.5460282e+01  -1.8377316e+01   5.8340687e-01  -1.0209620e+01  -1.3418358e+01  -6.7091790e+00   1.5751985e+01  -2.1586054e+01  -3.1795674e+01  -1.6043689e+01  -2.9170343e+00  -1.0209620e+01  -1.4876875e+01  -1.7210503e+01  -4.3755515e+00   0.0000000e+00   0.0000000e+00   0.0000000e+00   0.0000000e+00
  -6.4174756e+00  -8.4593996e+00  -1.7502206e+00   6.4174756e+00  -1.5168579e+01  -1.6335392e+01  -1.8960723e+01  -5.8340687e-01  -1.1376434e+01  -1.5460282e+01  -8.1676962e+00   1.6335392e+01  -2.2169461e+01  -3.2962488e+01  -1.6043689e+01  -4.6672549e+00  -1.0501324e+01  -1.7793909e+01  -1.7210503e+01  -5.8340687e+00   0.0000000e+00   0.0000000e+00   0.0000000e+00   0.0000000e+00
  -5.2506618e+00  -9.3345099e+00  -2.3336275e+00   6.4174756e+00  -1.4876875e+01  -1.6627096e+01  -1.9835834e+01  -1.4585172e+00  -1.1376434e+01  -1.5460282e+01  -9.3345099e+00   1.6918799e+01  -2.2169461e+01  -3.3545895e+01  -1.5751985e+01  -6.7091790e+00  -1.0501324e+01  -2.0127537e+01  -1.7502206e+01  -7.2925859e+00   0.0000000e+00   0.0000000e+00   0.0000000e+00   0.0000000e+00
  -4.9589584e+00  -9.9179168e+00  -2.3336275e+00   4.9589584e+00  -1.5168579e+01  -1.7210503e+01  -2.0710944e+01  -2.6253309e+00  -1.0793027e+01  -1.4585172e+01  -1.0209620e+01   1.7210503e+01  -2.2169461e+01  -3.3837598e+01  -1.5460282e+01  -8.4593996e+00  -1.1084730e+01  -2.2169461e+01  -1.8085613e+01  -8.1676962e+00   0.0000000e+00   0.0000000e+00   0.0000000e+00   0.0000000e+00
  -4.6672549e+00  -9.6262133e+00  -2.0419240e+00   3.5004412e+00  -1.4876875e+01  -1.6918799e+01  -2.1294351e+01  -2.6253309e+00  -9.6262133e+00  -1.2543248e+01  -9.9179168e+00   1.7793909e+01  -2.1586054e+01  -3.3837598e+01  -1.4876875e+01  -9.3345099e+00  -1.1376434e+01  -2.2461164e+01  -1.8669020e+01  -8.1676962e+00   0.0000000e+00   0.0000000e+00   0.0000000e+00   0.0000000e+00
  -5.2506618e+00  -9.3345099e+00  -1.4585172e+00   2.9170343e+00  -1.4585172e+01  -1.6627096e+01  -2.1877758e+01  -2.0419240e+00  -9.0428065e+00  -1.1084730e+01  -9.6262133e+00   1.8669020e+01  -2.1294351e+01  -3.3837598e+01  -1.4876875e+01  -9.9179168e+00  -1.1376434e+01  -2.1877758e+01  -1.9252427e+01  -7.5842893e+00   0.0000000e+00   0.0000000e+00   0.0000000e+00   0.0000000e+00
  -5.8340687e+00  -8.1676962e+00  -5.8340687e-01   4.9589584e+00  -1.3710061e+01  -1.4876875e+01  -2.1294351e+01   0.0000000e+00  -8.7511030e+00  -9.6262133e+00  -8.1676962e+00   2.0710944e+01  -2.0419240e+01  -3.3545895e+01  -1.4585172e+01  -9.0428065e+00  -1.0501324e+01  -1.9835834e+01  -1.8669020e+01  -6.1257721e+00   0.0000000e+00   0.0000000e+00   0.0000000e+00   0.0000000e+00
  -6.1257721e+00  -7.0008824e+00   5.8340687e-01   8.1676962e+00  -1.2834951e+01  -1.3126655e+01  -2.0710944e+01   1.7502206e+00  -9.0428065e+00  -8.7511030e+00  -7.0008824e+00   2.3044571e+01  -1.9835834e+01  -3.3545895e+01  -1.4876875e+01  -7.8759927e+00  -9.0428065e+00  -1.7793909e+01  -1.7793909e+01  -4.9589584e+00   0.0000000e+00   0.0000000e+00   0.0000000e+00   0.0000000e+00
  -5.8340687e+00  -6.1257721e+00   2.0419240e+00   1.1376434e+01  -1.1959841e+01  -1.1376434e+01  -1.9835834e+01   2.9170343e+00  -1.0209620e+01  -7.8759927e+00  -6.1257721e+00   2.5378199e+01  -1.9252427e+01  -3.3837598e+01  -1.5168579e+01  -6.7091790e+00  -7.5842893e+00  -1.6043689e+01  -1.6627096e+01  -4.3755515e+00   0.0000000e+00   0.0000000e+00   0.0000000e+00   0.0000000e+00
  -4.9589584e+00  -5.2506618e+00   3.2087378e+00   1.2543248e+01  -1.1668137e+01  -1.0209620e+01  -1.9544130e+01   2.9170343e+00  -1.1668137e+01  -7.5842893e+00  -6.7091790e+00   2.6253309e+01  -1.9544130e+01  -3.4421005e+01  -1.5751985e+01  -6.7091790e+00  -6.4174756e+00  -1.5460282e+01  -1.6043689e+01  -4.6672549e+00   0.0000000e+00   0.0000000e+00   0.0000000e+00   0.0000000e+00
  -3.5004412e+00  -4.6672549e+00   4.3755515e+00   1.1668137e+01  -1.1084730e+01  -9.3345099e+00  -1.8960723e+01   1.7502206e+00  -1.2834951e+01  -7.2925859e+00  -7.8759927e+00   2.5669902e+01  -1.9835834e+01  -3.4712709e+01  -1.6335392e+01  -7.5842893e+00  -5.8340687e+00  -1.5460282e+01  -1.6043689e+01  -5.5423652e+00   0.0000000e+00   0.0000000e+00   0.0000000e+00   0.0000000e+00
  -1.7502206e+00  -4.3755515e+00   4.9589584e+00   9.6262133e+00  -1.0793027e+01  -8.4593996e+00  -1.8669020e+01   2.9170343e-01  -1.4001765e+01  -7.8759927e+00  -9.6262133e+00   2.3919682e+01  -2.0127537e+01  -3.5004412e+01  -1.6918799e+01  -8.7511030e+00  -5.8340687e+00  -1.6043689e+01  -1.6627096e+01  -6.4174756e+00   0.0000000e+00   0.0000000e+00   0.0000000e+00   0.0000000e+00
  -5.8340687e-01  -4.6672549e+00   4.6672549e+00   7.5842893e+00  -9.9179168e+00  -7.5842893e+00  -1.8377316e+01  -1.1668137e+00  -1.5460282e+01  -9.3345099e+00  -1.1959841e+01   2.1586054e+01  -2.1002647e+01  -3.5879522e+01  -1.7793909e+01  -1.0501324e+01  -6.4174756e+00  -1.6627096e+01  -1.8085613e+01  -7.5842893e+00   0.0000000e+00   0.0000000e+00   0.0000000e+00   0.0000000e+00
   8.7511030e-01  -4.3755515e+00   3.7921446e+00   7.8759927e+00  -8.1676962e+00  -6.1257721e+00  -1.7210503e+01  -1.1668137e+00  -1.6627096e+01  -1.0501324e+01  -1.3126655e+01   1.9835834e+01  -2.1294351e+01  -3.6171226e+01  -1.8669020e+01  -1.0793027e+01  -6.1257721e+00  -1.6627096e+01  -1.8669020e+01  -8.1676962e+00   0.0000000e+00   0.0000000e+00   0.0000000e+00   0.0000000e+00
   1.7502206e+00  -3.7921446e+00   3.5004412e+00   1.0793027e+01  -5.2506618e+00  -4.0838481e+00  -1.5460282e+01   0.0000000e+00  -1.6918799e+01  -1.1084730e+01  -1.3126655e+01   1.9544130e+01  -2.0710944e+01  -3.5879522e+01  -1.9252427e+01  -1.0209620e+01  -4.9589584e+00  -1.5460282e+01  -1.8377316e+01  -7.8759927e+00   0.0000000e+00   0.0000000e+00   0.0000000e+00   0.0000000e+00
   2.6253309e+00  -3.2087378e+00   2.9170343e+00   1.4293468e+01  -2.3336275e+00  -2.3336275e+00  -1.4001765e+01   1.4585172e+00  -1.6627096e+01  -1.1376434e+01  -1.3126655e+01   2.0127537e+01  -1.9835834e+01  -3.5879522e+01  -1.9835834e+01  -9.3345099e+00  -3.2087378e+00  -1.3418358e+01  -1.7793909e+01  -7.2925859e+00   0.0000000e+00   0.0000000e+00   0.0000000e+00   0.0000000e+00
