nt = 4200
nc = 24
channels = F7 T3 T5 Fp1 F3 C3 P3 O1 F8 T4 T6 Fp2 F4 C4 P4 O2 Fz Cz Pz Oz TR SOn Occ RAp
ne = 20
type = N
fsmp = 600.0000000000
orig.file = s7_bl1
orig.nt = 286880
orig.sample_range = 157474 161673
orig.fsmp = 600
orig.subject = 7
orig.run = 28
   3.1053476e+01   1.5046530e+01   1.3445835e+01   6.7869452e+01   3.4254865e+01   2.2729864e+01   2.0488891e+01  -4.8020839e+00   3.5855560e+01   4.8340978e+01   1.3445835e+01   8.5156954e+01   3.8096532e+01   4.0017366e+01   2.5611114e+01  -3.5215282e+00   3.5535421e+01   3.4895143e+01   2.7531948e+01   1.3125696e+01   0.0000000e+00   0.0000000e+00   0.0000000e+00   0.0000000e+00
   2.9452781e+01   1.3445835e+01   1.4726391e+01   6.6268758e+01   3.3294448e+01   2.2089586e+01   2.0488891e+01  -2.8812503e+00   3.3614587e+01   4.7380561e+01   1.4086113e+01   8.3236121e+01   3.6815977e+01   3.9377088e+01   2.4970836e+01  -1.9208336e+00   3.3614587e+01   3.3294448e+01   2.6571531e+01   1.4086113e+01   0.0000000e+00   0.0000000e+00   0.0000000e+00   0.0000000e+00
   2.7211809e+01   1.1525001e+01   1.5366668e+01   6.4347924e+01   3.1693754e+01   2.1129169e+01   2.0168752e+01  -1.6006946e+00   3.1693754e+01   4.7060422e+01   1.4726391e+01   8.0995148e+01   3.5535421e+01   3.8096532e+01   2.4330558e+01  -3.2013893e-01   3.2013893e+01   3.1373615e+01   2.5290975e+01   1.4406252e+01   0.0000000e+00   0.0000000e+00   0.0000000e+00   0.0000000e+00
   2.5290975e+01   9.9243067e+00   1.5686807e+01   6.2427091e+01   3.0413198e+01   2.0168752e+01   1.9848613e+01  -6.4027785e-01   3.0413198e+01   4.7060422e+01   1.5686807e+01   7.9714593e+01   3.4895143e+01   3.7456254e+01   2.4010419e+01   9.6041678e-01   3.0733337e+01   3.0093059e+01   2.4010419e+01   1.4726391e+01   0.0000000e+00   0.0000000e+00   0.0000000e+00   0.0000000e+00
   2.3050003e+01   8.9638899e+00   1.5686807e+01   6.0506257e+01   2.9132642e+01   1.9208336e+01   1.9208336e+01  -6.4027785e-01   2.9772920e+01   4.7380561e+01   1.6647224e+01   7.8754176e+01   3.4254865e+01   3.6175699e+01   2.3370142e+01   2.2409725e+00   2.9772920e+01   2.8812503e+01   2.2729864e+01   1.5046530e+01   0.0000000e+00   0.0000000e+00   0.0000000e+00   0.0000000e+00
   2.1129169e+01   8.6437510e+00   1.4726391e+01   5.8585424e+01   2.7211809e+01   1.7607641e+01   1.8247919e+01  -1.2805557e+00   2.8812503e+01   4.7060422e+01   1.7287502e+01   7.8113898e+01   3.3294448e+01   3.4895143e+01   2.2409725e+01   2.5611114e+00   2.8172226e+01   2.7852087e+01   2.1449308e+01   1.4726391e+01   0.0000000e+00   0.0000000e+00   0.0000000e+00   0.0000000e+00
   1.9848613e+01   8.3236121e+00   1.3445835e+01   5.6664590e+01   2.5290975e+01   1.6006946e+01   1.7287502e+01  -1.9208336e+00   2.7531948e+01   4.6420144e+01   1.6967363e+01   7.7153481e+01   3.1693754e+01   3.3614587e+01   2.1129169e+01   2.5611114e+00   2.6251392e+01   2.6891670e+01   1.9848613e+01   1.3765974e+01   0.0000000e+00   0.0000000e+00   0.0000000e+00   0.0000000e+00
   1.8888197e+01   8.9638899e+00   1.2485418e+01   5.6024312e+01   2.4330558e+01   1.4726391e+01   1.6967363e+01  -2.2409725e+00   2.7211809e+01   4.5779866e+01   1.6647224e+01   7.6193065e+01   3.0413198e+01   3.3294448e+01   1.9848613e+01   2.5611114e+00   2.4650697e+01   2.6251392e+01   1.8888197e+01   1.3125696e+01   0.0000000e+00   0.0000000e+00   0.0000000e+00   0.0000000e+00
   1.8568058e+01   8.9638899e+00   1.1845140e+01   5.5384034e+01   2.3370142e+01   1.3765974e+01   1.6647224e+01  -2.2409725e+00   2.6891670e+01   4.5459728e+01   1.6006946e+01   7.5552787e+01   2.9452781e+01   3.2974309e+01   1.8888197e+01   2.2409725e+00   2.3370142e+01   2.6251392e+01   1.8247919e+01   1.1845140e+01   0.0000000e+00   0.0000000e+00   0.0000000e+00   0.0000000e+00
   1.8247919e+01   8.6437510e+00   1.0884724e+01   5.5063895e+01   2.3050003e+01   1.2805557e+01   1.6327085e+01  -2.5611114e+00   2.7211809e+01   4.5139589e+01   1.5686807e+01   7.4912509e+01   2.9132642e+01   3.3294448e+01   1.7927780e+01   1.9208336e+00   2.2729864e+01   2.6571531e+01   1.6967363e+01   1.0884724e+01   0.0000000e+00   0.0000000e+00   0.0000000e+00   0.0000000e+00
   1.7287502e+01   7.6833342e+00   9.9243067e+00   5.4103479e+01   2.2089586e+01   1.1845140e+01   1.5046530e+01  -3.2013893e+00   2.7531948e+01   4.5139589e+01   1.6006946e+01   7.4592370e+01   2.9132642e+01   3.2974309e+01   1.6647224e+01   1.2805557e+00   2.2089586e+01   2.6571531e+01   1.5366668e+01   9.9243067e+00   0.0000000e+00   0.0000000e+00   0.0000000e+00   0.0000000e+00
   1.5686807e+01   6.4027785e+00   8.6437510e+00   5.3143062e+01   2.1129169e+01   1.0564585e+01   1.3445835e+01  -4.1618060e+00   2.7211809e+01   4.5139589e+01   1.6006946e+01   7.3952092e+01   2.9132642e+01   3.2654171e+01   1.5686807e+01   0.0000000e+00   2.1449308e+01   2.6571531e+01   1.3765974e+01   8.9638899e+00   0.0000000e+00   0.0000000e+00   0.0000000e+00   0.0000000e+00
   1.3765974e+01   5.1222228e+00   7.0430564e+00   5.2182645e+01   2.0168752e+01   9.2840289e+00   1.1525001e+01  -4.8020839e+00   2.6891670e+01   4.5139589e+01   1.6006946e+01   7.3311814e+01   2.8812503e+01   3.2013893e+01   1.4406252e+01  -9.6041678e-01   2.0809030e+01   2.5931253e+01   1.2165279e+01   7.6833342e+00   0.0000000e+00   0.0000000e+00   0.0000000e+00   0.0000000e+00
   1.2485418e+01   4.8020839e+00   6.4027785e+00   5.1862506e+01   2.0168752e+01   8.3236121e+00   1.0884724e+01  -4.4819450e+00   2.6571531e+01   4.5459728e+01   1.6327085e+01   7.2991675e+01   2.8492364e+01   3.2013893e+01   1.4406252e+01  -1.2805557e+00   2.0488891e+01   2.5931253e+01   1.1525001e+01   7.3631953e+00   0.0000000e+00   0.0000000e+00   0.0000000e+00   0.0000000e+00
   1.2165279e+01   5.4423618e+00   7.0430564e+00   5.2822923e+01   2.0809030e+01   8.6437510e+00   1.1204862e+01  -3.2013893e+00   2.6891670e+01   4.7060422e+01   1.7287502e+01   7.3631953e+01   2.8812503e+01   3.2974309e+01   1.5366668e+01  -3.2013893e-01   2.1129169e+01   2.6571531e+01   1.2165279e+01   8.0034732e+00   0.0000000e+00   0.0000000e+00   0.0000000e+00   0.0000000e+00
   1.3445835e+01   7.0430564e+00   8.0034732e+00   5.4103479e+01   2.2409725e+01   9.6041678e+00   1.2485418e+01  -9.6041678e-01   2.7852087e+01   4.8981256e+01   1.8888197e+01   7.4592370e+01   2.9772920e+01   3.4575004e+01   1.6967363e+01   9.6041678e-01   2.2409725e+01   2.7852087e+01   1.3125696e+01   8.6437510e+00   0.0000000e+00   0.0000000e+00   0.0000000e+00   0.0000000e+00
   1.5046530e+01   8.3236121e+00   9.2840289e+00   5.5063895e+01   2.3690281e+01   1.0244446e+01   1.3445835e+01   6.4027785e-01   2.8492364e+01   5.0581950e+01   2.0168752e+01   7.5232648e+01   3.0413198e+01   3.5855560e+01   1.8247919e+01   2.5611114e+00   2.3370142e+01   2.8492364e+01   1.3765974e+01   9.6041678e+00   0.0000000e+00   0.0000000e+00   0.0000000e+00   0.0000000e+00
   1.6006946e+01   8.9638899e+00   9.9243067e+00   5.4743756e+01   2.4010419e+01   1.0564585e+01   1.3765974e+01   1.2805557e+00   2.8492364e+01   5.1542367e+01   2.1129169e+01   7.5232648e+01   3.0413198e+01   3.5855560e+01   1.8568058e+01   3.5215282e+00   2.3690281e+01   2.8172226e+01   1.3445835e+01   1.0244446e+01   0.0000000e+00   0.0000000e+00   0.0000000e+00   0.0000000e+00
   1.6327085e+01   8.6437510e+00   9.9243067e+00   5.3783340e+01   2.3370142e+01   9.6041678e+00   1.3125696e+01   6.4027785e-01   2.7211809e+01   5.1222228e+01   2.1449308e+01   7.3952092e+01   2.9452781e+01   3.4575004e+01   1.7927780e+01   3.8416671e+00   2.2729864e+01   2.6891670e+01   1.1525001e+01   9.9243067e+00   0.0000000e+00   0.0000000e+00   0.0000000e+00   0.0000000e+00
   1.6006946e+01   7.6833342e+00   9.2840289e+00   5.2502784e+01   2.2089586e+01   8.3236121e+00   1.1845140e+01  -3.2013893e-01   2.5290975e+01   5.0581950e+01   2.1129169e+01   7.2351397e+01   2.7852087e+01   3.2334032e+01   1.6647224e+01   4.1618060e+00   2.1769447e+01   2.4650697e+01   9.6041678e+00   9.6041678e+00   0.0000000e+00   0.0000000e+00   0.0000000e+00   0.0000000e+00
   1.4726391e+01   6.0826396e+00   7.6833342e+00   5.0581950e+01   2.0168752e+01   6.0826396e+00   1.0244446e+01  -1.9208336e+00   2.2409725e+01   4.8981256e+01   1.9528475e+01   6.9790286e+01   2.5290975e+01   2.9132642e+01   1.4726391e+01   3.5215282e+00   1.9528475e+01   2.1449308e+01   7.3631953e+00   8.3236121e+00   0.0000000e+00   0.0000000e+00   0.0000000e+00   0.0000000e+00
   1.4086113e+01   4.4819450e+00   5.7625007e+00   4.8661117e+01   1.8247919e+01   4.4819450e+00   8.6437510e+00  -3.5215282e+00   1.9528475e+01   4.7380561e+01   1.7607641e+01   6.7549313e+01   2.2409725e+01   2.6251392e+01   1.2805557e+01   2.5611114e+00   1.6967363e+01   1.8247919e+01   5.1222228e+00   7.0430564e+00   0.0000000e+00   0.0000000e+00   0.0000000e+00   0.0000000e+00
   1.3765974e+01   2.8812503e+00   4.1618060e+00   4.7380561e+01   1.6327085e+01   2.8812503e+00   7.3631953e+00  -5.1222228e+00   1.7607641e+01   4.6100005e+01   1.6006946e+01   6.5948619e+01   2.0168752e+01   2.4010419e+01   1.1204862e+01   1.6006946e+00   1.4726391e+01   1.6006946e+01   3.8416671e+00   5.7625007e+00   0.0000000e+00   0.0000000e+00   0.0000000e+00   0.0000000e+00
   1.3125696e+01   9.6041678e-01   2.2409725e+00   4.5459728e+01   1.3765974e+01   9.6041678e-01   5.7625007e+00  -7.3631953e+00   1.6006946e+01   4.5139589e+01   1.4406252e+01   6.4347924e+01   1.8247919e+01   2.1769447e+01   9.6041678e+00  -3.2013893e-01   1.2485418e+01   1.3445835e+01   2.5611114e+00   3.8416671e+00   0.0000000e+00   0.0000000e+00   0.0000000e+00   0.0000000e+00
   1.2485418e+01  -3.2013893e-01   6.4027785e-01   4.3859033e+01   1.1525001e+01  -6.4027785e-01   4.1618060e+00  -9.2840289e+00   1.5046530e+01   4.3859033e+01   1.3765974e+01   6.3387507e+01   1.7287502e+01   2.0168752e+01   8.3236121e+00  -2.2409725e+00   1.0884724e+01   1.1525001e+01   1.2805557e+00   2.2409725e+00   0.0000000e+00   0.0000000e+00   0.0000000e+00   0.0000000e+00
   1.0884724e+01  -2.2409725e+00  -1.2805557e+00   4.1938199e+01   8.9638899e+00  -2.8812503e+00   2.2409725e+00  -1.1845140e+01   1.3765974e+01   4.2258338e+01   1.2805557e+01   6.2106952e+01   1.6327085e+01   1.8247919e+01   6.7229175e+00  -4.4819450e+00   9.2840289e+00   9.6041678e+00   0.0000000e+00   3.2013893e-01   0.0000000e+00   0.0000000e+00   0.0000000e+00   0.0000000e+00
   9.6041678e+00  -3.2013893e+00  -2.2409725e+00   4.0977783e+01   7.0430564e+00  -4.4819450e+00   6.4027785e-01  -1.3765974e+01   1.3445835e+01   4.0337505e+01   1.2165279e+01   6.1466674e+01   1.5686807e+01   1.6967363e+01   5.7625007e+00  -6.0826396e+00   8.3236121e+00   8.6437510e+00  -3.2013893e-01  -6.4027785e-01   0.0000000e+00   0.0000000e+00   0.0000000e+00   0.0000000e+00
   8.9638899e+00  -3.2013893e+00  -2.5611114e+00   4.0657644e+01   6.0826396e+00  -4.8020839e+00   6.4027785e-01  -1.3765974e+01   1.4086113e+01   3.9377088e+01   1.1525001e+01   6.0826396e+01   1.5686807e+01   1.6647224e+01   5.7625007e+00  -6.4027785e+00   8.3236121e+00   8.9638899e+00   6.4027785e-01  -9.6041678e-01   0.0000000e+00   0.0000000e+00   0.0000000e+00   0.0000000e+00
   8.6437510e+00  -2.2409725e+00  -2.8812503e+00   4.0657644e+01   5.4423618e+00  -4.8020839e+00   9.6041678e-01  -1.3445835e+01   1.4406252e+01   3.8096532e+01   1.0884724e+01   6.0186118e+01   1.5366668e+01   1.6647224e+01   6.4027785e+00  -6.4027785e+00   8.3236121e+00   9.9243067e+00   2.2409725e+00  -9.6041678e-01   0.0000000e+00   0.0000000e+00   0.0000000e+00   0.0000000e+00
   8.9638899e+00  -3.2013893e-01  -2.5611114e+00   4.1297922e+01   5.7625007e+00  -3.8416671e+00   2.5611114e+00  -1.1525001e+01   1.5686807e+01   3.8096532e+01   1.0564585e+01   5.9865979e+01   1.5686807e+01   1.7927780e+01   8.0034732e+00  -5.1222228e+00   9.2840289e+00   1.2165279e+01   4.8020839e+00   3.2013893e-01   0.0000000e+00   0.0000000e+00   0.0000000e+00   0.0000000e+00
   1.0244446e+01   2.5611114e+00  -1.2805557e+00   4.2258338e+01   7.3631953e+00  -1.9208336e+00   4.8020839e+00  -8.3236121e+00   1.7287502e+01   3.9377088e+01   1.1525001e+01   6.0506257e+01   1.6967363e+01   2.0168752e+01   1.0564585e+01  -3.2013893e+00   1.1204862e+01   1.5046530e+01   7.6833342e+00   2.5611114e+00   0.0000000e+00   0.0000000e+00   0.0000000e+00   0.0000000e+00
   1.1525001e+01   4.8020839e+00   0.0000000e+00   4.3859033e+01   8.9638899e+00   3.2013893e-01   7.0430564e+00  -5.1222228e+00   1.9208336e+01   4.0977783e+01   1.3445835e+01   6.1786813e+01   1.8888197e+01   2.3050003e+01   1.3445835e+01  -9.6041678e-01   1.3445835e+01   1.8247919e+01   1.0884724e+01   5.4423618e+00   0.0000000e+00   0.0000000e+00   0.0000000e+00   0.0000000e+00
   1.3445835e+01   5.7625007e+00   1.6006946e+00   4.5779866e+01   1.1204862e+01   2.5611114e+00   9.6041678e+00  -1.9208336e+00   2.1449308e+01   4.2898616e+01   1.6006946e+01   6.4027785e+01   2.1769447e+01   2.5931253e+01   1.6647224e+01   1.6006946e+00   1.6327085e+01   2.1449308e+01   1.3765974e+01   8.6437510e+00   0.0000000e+00   0.0000000e+00   0.0000000e+00   0.0000000e+00
   1.5686807e+01   5.1222228e+00   2.8812503e+00   4.7700700e+01   1.3765974e+01   4.8020839e+00   1.1845140e+01   0.0000000e+00   2.3050003e+01   4.4179172e+01   1.8568058e+01   6.6268758e+01   2.4650697e+01   2.8492364e+01   1.9208336e+01   4.1618060e+00   1.8568058e+01   2.4330558e+01   1.6327085e+01   1.1845140e+01   0.0000000e+00   0.0000000e+00   0.0000000e+00   0.0000000e+00
   1.7607641e+01   3.5215282e+00   3.5215282e+00   4.9301395e+01   1.6006946e+01   6.7229175e+00   1.3445835e+01   1.6006946e+00   2.4650697e+01   4.5139589e+01   2.0168752e+01   6.8829869e+01   2.7211809e+01   3.0733337e+01   2.1449308e+01   6.4027785e+00   2.0809030e+01   2.6571531e+01   1.8888197e+01   1.4406252e+01   0.0000000e+00   0.0000000e+00   0.0000000e+00   0.0000000e+00
   1.9528475e+01   2.2409725e+00   3.8416671e+00   5.0902089e+01   1.8247919e+01   8.9638899e+00   1.4726391e+01   2.8812503e+00   2.5931253e+01   4.6100005e+01   2.1449308e+01   7.1070842e+01   2.9132642e+01   3.2654171e+01   2.3050003e+01   8.0034732e+00   2.2729864e+01   2.8172226e+01   2.1129169e+01   1.6006946e+01   0.0000000e+00   0.0000000e+00   0.0000000e+00   0.0000000e+00
   2.1449308e+01   2.2409725e+00   4.1618060e+00   5.2182645e+01   2.0488891e+01   1.0884724e+01   1.5686807e+01   3.8416671e+00   2.7531948e+01   4.7380561e+01   2.2409725e+01   7.3311814e+01   3.1053476e+01   3.4575004e+01   2.4970836e+01   9.2840289e+00   2.4010419e+01   2.9452781e+01   2.3370142e+01   1.7607641e+01   0.0000000e+00   0.0000000e+00   0.0000000e+00   0.0000000e+00
   2.2089586e+01   2.2409725e+00   4.1618060e+00   5.2502784e+01   2.1449308e+01   1.2485418e+01   1.6006946e+01   4.1618060e+00   2.8812503e+01   4.8340978e+01   2.3050003e+01   7.4912509e+01   3.2654171e+01   3.5855560e+01   2.5931253e+01   9.9243067e+00   2.4970836e+01   2.9772920e+01   2.4650697e+01   1.8568058e+01   0.0000000e+00   0.0000000e+00   0.0000000e+00   0.0000000e+00
   2.2089586e+01   1.9208336e+00   4.1618060e+00   5.2182645e+01   2.1449308e+01   1.3445835e+01   1.5686807e+01   4.1618060e+00   2.9452781e+01   4.8981256e+01   2.3690281e+01   7.5552787e+01   3.3294448e+01   3.6815977e+01   2.6571531e+01   1.0244446e+01   2.5290975e+01   2.9772920e+01   2.5290975e+01   1.8888197e+01   0.0000000e+00   0.0000000e+00   0.0000000e+00   0.0000000e+00
   2.2409725e+01   1.2805557e+00   4.4819450e+00   5.2182645e+01   2.1769447e+01   1.4086113e+01   1.5366668e+01   3.8416671e+00   3.0413198e+01   4.9621534e+01   2.4330558e+01   7.6513203e+01   3.4254865e+01   3.7776393e+01   2.6891670e+01   1.0884724e+01   2.5931253e+01   2.9772920e+01   2.5931253e+01   1.9528475e+01   0.0000000e+00   0.0000000e+00   0.0000000e+00   0.0000000e+00
   2.2409725e+01   3.2013893e-01   4.8020839e+00   5.2502784e+01   2.1769447e+01   1.4726391e+01   1.5366668e+01   2.8812503e+00   3.1053476e+01   5.0261811e+01   2.4970836e+01   7.7153481e+01   3.4895143e+01   3.8096532e+01   2.7211809e+01   1.0884724e+01   2.6571531e+01   2.9772920e+01   2.5931253e+01   1.9528475e+01   0.0000000e+00   0.0000000e+00   0.0000000e+00   0.0000000e+00
   2.2729864e+01   0.0000000e+00   5.1222228e+00   5.3143062e+01   2.2409725e+01   1.5046530e+01   1.5686807e+01   2.2409725e+00   3.1373615e+01   5.0261811e+01   2.4970836e+01   7.8113898e+01   3.5535421e+01   3.8736810e+01   2.7531948e+01   1.0564585e+01   2.7211809e+01   2.9772920e+01   2.6251392e+01   1.9208336e+01   0.0000000e+00   0.0000000e+00   0.0000000e+00   0.0000000e+00
   2.3690281e+01   9.6041678e-01   5.7625007e+00   5.4423618e+01   2.3690281e+01   1.5686807e+01   1.6967363e+01   2.2409725e+00   3.2013893e+01   5.0581950e+01   2.4650697e+01   7.8754176e+01   3.6175699e+01   3.9697227e+01   2.8172226e+01   1.0244446e+01   2.8172226e+01   3.0733337e+01   2.6571531e+01   1.9208336e+01   0.0000000e+00   0.0000000e+00   0.0000000e+00   0.0000000e+00
   2.4010419e+01   2.2409725e+00   5.7625007e+00   5.5063895e+01   2.4650697e+01   1.5686807e+01   1.8568058e+01   2.5611114e+00   3.2013893e+01   5.0261811e+01   2.3690281e+01   7.8754176e+01   3.6175699e+01   4.0337505e+01   2.8172226e+01   9.6041678e+00   2.8812503e+01   3.1373615e+01   2.6891670e+01   1.8888197e+01   0.0000000e+00   0.0000000e+00   0.0000000e+00   0.0000000e+00
   2.3690281e+01   3.8416671e+00   6.4027785e+00   5.4743756e+01   2.5290975e+01   1.5686807e+01   1.9848613e+01   3.2013893e+00   3.1693754e+01   4.9621534e+01   2.2729864e+01   7.7793759e+01   3.5855560e+01   4.0657644e+01   2.7852087e+01   9.6041678e+00   2.8812503e+01   3.2013893e+01   2.6571531e+01   1.8568058e+01   0.0000000e+00   0.0000000e+00   0.0000000e+00   0.0000000e+00
   2.2409725e+01   4.4819450e+00   6.4027785e+00   5.3463201e+01   2.4650697e+01   1.4726391e+01   1.9848613e+01   3.2013893e+00   3.0093059e+01   4.8340978e+01   2.1769447e+01   7.5872926e+01   3.4895143e+01   3.9697227e+01   2.6571531e+01   9.2840289e+00   2.8172226e+01   3.2013893e+01   2.5290975e+01   1.8247919e+01   0.0000000e+00   0.0000000e+00   0.0000000e+00   0.0000000e+00
   2.0809030e+01   4.1618060e+00   6.4027785e+00   5.2182645e+01   2.3690281e+01   1.3445835e+01   1.9848613e+01   3.2013893e+00   2.8172226e+01   4.7060422e+01   2.0809030e+01   7.3952092e+01   3.3614587e+01   3.8416671e+01   2.4970836e+01   9.2840289e+00   2.7211809e+01   3.1693754e+01   2.3690281e+01   1.7607641e+01   0.0000000e+00   0.0000000e+00   0.0000000e+00   0.0000000e+00
   1.9528475e+01   3.5215282e+00   6.0826396e+00   5.1542367e+01   2.3050003e+01   1.2165279e+01   1.9208336e+01   2.5611114e+00   2.6251392e+01   4.6420144e+01   2.0168752e+01   7.2351397e+01   3.2334032e+01   3.6815977e+01   2.3370142e+01   9.6041678e+00   2.6251392e+01   3.1693754e+01   2.2409725e+01   1.6967363e+01   0.0000000e+00   0.0000000e+00   0.0000000e+00   0.0000000e+00
   1.9208336e+01   3.2013893e+00   6.0826396e+00   5.1862506e+01   2.2729864e+01   1.1845140e+01   1.8888197e+01   2.5611114e+00   2.5290975e+01   4.6740283e+01   1.9208336e+01   7.1711120e+01   3.1693754e+01   3.5855560e+01   2.2409725e+01   9.9243067e+00   2.5931253e+01   3.2654171e+01   2.1129169e+01   1.6647224e+01   0.0000000e+00   0.0000000e+00   0.0000000e+00   0.0000000e+00
   1.9848613e+01   3.2013893e+00   6.0826396e+00   5.2502784e+01   2.3050003e+01   1.1525001e+01   1.8888197e+01   2.2409725e+00   2.4970836e+01   4.8020839e+01   1.7927780e+01   7.2031258e+01   3.1373615e+01   3.4895143e+01   2.1449308e+01   9.6041678e+00   2.5611114e+01   3.3614587e+01   2.0488891e+01   1.6006946e+01   0.0000000e+00   0.0000000e+00   0.0000000e+00   0.0000000e+00
   2.1129169e+01   3.8416671e+00   6.0826396e+00   5.3783340e+01   2.4010419e+01   1.1845140e+01   1.8888197e+01   2.5611114e+00   2.4970836e+01   5.0581950e+01   1.6967363e+01   7.2671536e+01   3.1053476e+01   3.4575004e+01   2.1129169e+01   9.2840289e+00   2.5290975e+01   3.4895143e+01   2.0168752e+01   1.5686807e+01   0.0000000e+00   0.0000000e+00   0.0000000e+00   0.0000000e+00
   2.2089586e+01   3.8416671e+00   5.7625007e+00   5.4103479e+01   2.3690281e+01   1.1525001e+01   1.8247919e+01   1.9208336e+00   2.4970836e+01   5.2502784e+01   1.6006946e+01   7.2991675e+01   3.0413198e+01   3.3294448e+01   1.9848613e+01   8.3236121e+00   2.4330558e+01   3.5535421e+01   1.9528475e+01   1.4726391e+01   0.0000000e+00   0.0000000e+00   0.0000000e+00   0.0000000e+00
   2.2729864e+01   3.5215282e+00   5.7625007e+00   5.3463201e+01   2.3050003e+01   1.0884724e+01   1.6647224e+01   1.6006946e+00   2.4970836e+01   5.2822923e+01   1.5686807e+01   7.2671536e+01   2.9452781e+01   3.2013893e+01   1.8568058e+01   7.6833342e+00   2.3050003e+01   3.5535421e+01   1.8568058e+01   1.4086113e+01   0.0000000e+00   0.0000000e+00   0.0000000e+00   0.0000000e+00
   2.2409725e+01   2.5611114e+00   4.8020839e+00   5.1862506e+01   2.1449308e+01   8.9638899e+00   1.4406252e+01   0.0000000e+00   2.4330558e+01   5.0581950e+01   1.5686807e+01   7.1070842e+01   2.7852087e+01   3.0093059e+01   1.6647224e+01   6.7229175e+00   2.1129169e+01   3.4575004e+01   1.6647224e+01   1.3125696e+01   0.0000000e+00   0.0000000e+00   0.0000000e+00   0.0000000e+00
   2.1769447e+01   1.6006946e+00   3.8416671e+00   5.0581950e+01   1.9528475e+01   7.0430564e+00   1.2165279e+01  -9.6041678e-01   2.3690281e+01   4.6420144e+01   1.6327085e+01   6.9790286e+01   2.5931253e+01   2.8492364e+01   1.5046530e+01   6.0826396e+00   1.9208336e+01   3.2974309e+01   1.5046530e+01   1.2165279e+01   0.0000000e+00   0.0000000e+00   0.0000000e+00   0.0000000e+00
   2.1449308e+01   6.4027785e-01   3.5215282e+00   5.0261811e+01   1.8247919e+01   6.0826396e+00   1.0884724e+01  -1.6006946e+00   2.3370142e+01   4.1938199e+01   1.7287502e+01   6.8829869e+01   2.4970836e+01   2.7531948e+01   1.4406252e+01   5.4423618e+00   1.7927780e+01   3.1693754e+01   1.3765974e+01   1.1525001e+01   0.0000000e+00   0.0000000e+00   0.0000000e+00   0.0000000e+00
   2.1129169e+01  -3.2013893e-01   3.5215282e+00   5.0261811e+01   1.7287502e+01   5.1222228e+00   1.0564585e+01  -1.6006946e+00   2.3050003e+01   3.8736810e+01   1.7927780e+01   6.8189591e+01   2.4010419e+01   2.7531948e+01   1.4406252e+01   4.4819450e+00   1.6967363e+01   3.0413198e+01   1.3125696e+01   1.1204862e+01   0.0000000e+00   0.0000000e+00   0.0000000e+00   0.0000000e+00
   2.1129169e+01  -9.6041678e-01   3.2013893e+00   5.0902089e+01   1.6647224e+01   5.1222228e+00   1.0564585e+01  -1.2805557e+00   2.2729864e+01   3.7136115e+01   1.8568058e+01   6.7869452e+01   2.3050003e+01   2.7852087e+01   1.4726391e+01   3.8416671e+00   1.6327085e+01   2.9132642e+01   1.2805557e+01   1.0884724e+01   0.0000000e+00   0.0000000e+00   0.0000000e+00   0.0000000e+00
   2.1129169e+01  -1.6006946e+00   3.5215282e+00   5.0902089e+01   1.6006946e+01   5.1222228e+00   1.1204862e+01  -6.4027785e-01   2.2409725e+01   3.6495838e+01   1.9208336e+01   6.7549313e+01   2.2089586e+01   2.8492364e+01   1.5686807e+01   3.2013893e+00   1.5686807e+01   2.8172226e+01   1.2805557e+01   1.1204862e+01   0.0000000e+00   0.0000000e+00   0.0000000e+00   0.0000000e+00
   2.0809030e+01  -2.2409725e+00   3.5215282e+00   5.0261811e+01   1.4406252e+01   5.1222228e+00   1.1845140e+01   0.0000000e+00   2.1449308e+01   3.5855560e+01   2.0168752e+01   6.6909036e+01   2.1449308e+01   2.9132642e+01   1.6327085e+01   3.2013893e+00   1.4726391e+01   2.6571531e+01   1.2485418e+01   1.1845140e+01   0.0000000e+00   0.0000000e+00   0.0000000e+00   0.0000000e+00
   1.9208336e+01  -4.1618060e+00   3.2013893e+00   4.8340978e+01   1.1845140e+01   3.8416671e+00   1.0884724e+01  -3.2013893e-01   1.9208336e+01   3.4254865e+01   2.0168752e+01   6.5628480e+01   2.0168752e+01   2.8812503e+01   1.6327085e+01   2.8812503e+00   1.3125696e+01   2.4330558e+01   1.0884724e+01   1.1845140e+01   0.0000000e+00   0.0000000e+00   0.0000000e+00   0.0000000e+00
   1.7607641e+01  -5.7625007e+00   2.8812503e+00   4.6420144e+01   9.2840289e+00   2.5611114e+00   1.0244446e+01  -6.4027785e-01   1.7287502e+01   3.2974309e+01   2.0168752e+01   6.4347924e+01   1.9208336e+01   2.8492364e+01   1.6327085e+01   2.5611114e+00   1.1845140e+01   2.2089586e+01   9.9243067e+00   1.1525001e+01   0.0000000e+00   0.0000000e+00   0.0000000e+00   0.0000000e+00
   1.5686807e+01  -7.0430564e+00   2.5611114e+00   4.4819450e+01   7.0430564e+00   1.2805557e+00   9.6041678e+00  -9.6041678e-01   1.5366668e+01   3.2013893e+01   1.9528475e+01   6.3707646e+01   1.8247919e+01   2.8172226e+01   1.6006946e+01   2.2409725e+00   1.1204862e+01   2.0168752e+01   8.6437510e+00   1.0884724e+01   0.0000000e+00   0.0000000e+00   0.0000000e+00   0.0000000e+00
   1.4726391e+01  -7.0430564e+00   2.5611114e+00   4.4179172e+01   5.7625007e+00   9.6041678e-01   9.2840289e+00  -9.6041678e-01   1.4086113e+01   3.2654171e+01   1.8888197e+01   6.3707646e+01   1.7927780e+01   2.8172226e+01   1.6006946e+01   1.9208336e+00   1.1204862e+01   1.9208336e+01   8.3236121e+00   1.0564585e+01   0.0000000e+00   0.0000000e+00   0.0000000e+00   0.0000000e+00
   1.4726391e+01  -5.4423618e+00   3.8416671e+00   4.5459728e+01   6.4027785e+00   1.9208336e+00   1.0564585e+01   6.4027785e-01   1.4406252e+01   3.5535421e+01   1.9208336e+01   6.4988202e+01   1.8888197e+01   2.9772920e+01   1.6967363e+01   2.8812503e+00   1.2485418e+01   1.9848613e+01   8.9638899e+00   1.0884724e+01   0.0000000e+00   0.0000000e+00   0.0000000e+00   0.0000000e+00
   1.5686807e+01  -2.8812503e+00   5.4423618e+00   4.7060422e+01   8.0034732e+00   3.5215282e+00   1.1845140e+01   2.2409725e+00   1.5366668e+01   3.9056949e+01   2.0168752e+01   6.6268758e+01   2.0168752e+01   3.1373615e+01   1.8247919e+01   4.1618060e+00   1.4086113e+01   2.1129169e+01   9.9243067e+00   1.1845140e+01   0.0000000e+00   0.0000000e+00   0.0000000e+00   0.0000000e+00
   1.6327085e+01  -6.4027785e-01   7.0430564e+00   4.8020839e+01   9.6041678e+00   4.8020839e+00   1.3125696e+01   3.5215282e+00   1.6006946e+01   4.1938199e+01   2.1129169e+01   6.7229175e+01   2.1449308e+01   3.2654171e+01   1.9208336e+01   5.1222228e+00   1.5366668e+01   2.2409725e+01   1.0564585e+01   1.2485418e+01   0.0000000e+00   0.0000000e+00   0.0000000e+00   0.0000000e+00
   1.6327085e+01   0.0000000e+00   7.6833342e+00   4.7700700e+01   9.9243067e+00   4.4819450e+00   1.2805557e+01   3.2013893e+00   1.5686807e+01   4.2258338e+01   2.1129169e+01   6.6268758e+01   2.1449308e+01   3.2334032e+01   1.8568058e+01   4.8020839e+00   1.5366668e+01   2.2729864e+01   9.6041678e+00   1.2165279e+01   0.0000000e+00   0.0000000e+00   0.0000000e+00   0.0000000e+00
   1.5366668e+01   0.0000000e+00   7.3631953e+00   4.6100005e+01   9.6041678e+00   3.2013893e+00   1.1845140e+01   2.2409725e+00   1.4406252e+01   4.0977783e+01   2.0168752e+01   6.4668063e+01   2.0488891e+01   3.0733337e+01   1.6967363e+01   3.8416671e+00   1.4406252e+01   2.2409725e+01   7.6833342e+00   1.0884724e+01   0.0000000e+00   0.0000000e+00   0.0000000e+00   0.0000000e+00
   1.4086113e+01  -6.4027785e-01   6.4027785e+00   4.4179172e+01   8.6437510e+00   1.2805557e+00   1.0564585e+01   9.6041678e-01   1.2485418e+01   3.8416671e+01   1.8888197e+01   6.2427091e+01   1.8888197e+01   2.9132642e+01   1.4726391e+01   2.5611114e+00   1.2805557e+01   2.1769447e+01   5.4423618e+00   9.2840289e+00   0.0000000e+00   0.0000000e+00   0.0000000e+00   0.0000000e+00
   1.2805557e+01  -1.2805557e+00   5.7625007e+00   4.2258338e+01   8.0034732e+00   0.0000000e+00   9.2840289e+00  -3.2013893e-01   1.0564585e+01   3.5855560e+01   1.6967363e+01   6.0186118e+01   1.6967363e+01   2.7531948e+01   1.3125696e+01   1.2805557e+00   1.0884724e+01   2.1129169e+01   4.1618060e+00   7.6833342e+00   0.0000000e+00   0.0000000e+00   0.0000000e+00   0.0000000e+00
   1.2165279e+01  -9.6041678e-01   5.4423618e+00   4.0977783e+01   8.0034732e+00  -3.2013893e-01   8.9638899e+00  -3.2013893e-01   9.6041678e+00   3.3934726e+01   1.5686807e+01   5.8905562e+01   1.5686807e+01   2.6891670e+01   1.2485418e+01   9.6041678e-01   9.9243067e+00   2.0809030e+01   3.5215282e+00   6.7229175e+00   0.0000000e+00   0.0000000e+00   0.0000000e+00   0.0000000e+00
   1.2485418e+01   0.0000000e+00   5.7625007e+00   4.0337505e+01   8.9638899e+00   6.4027785e-01   9.2840289e+00   3.2013893e-01   9.2840289e+00   3.3294448e+01   1.5366668e+01   5.8265285e+01   1.5366668e+01   2.7211809e+01   1.2805557e+01   1.2805557e+00   9.9243067e+00   2.1129169e+01   3.8416671e+00   6.7229175e+00   0.0000000e+00   0.0000000e+00   0.0000000e+00   0.0000000e+00
   1.2485418e+01   9.6041678e-01   5.7625007e+00   3.9697227e+01   9.6041678e+00   1.2805557e+00   9.6041678e+00   6.4027785e-01   9.6041678e+00   3.3294448e+01   1.5366668e+01   5.7945146e+01   1.4726391e+01   2.7852087e+01   1.3445835e+01   1.9208336e+00   9.9243067e+00   2.1129169e+01   4.1618060e+00   6.7229175e+00   0.0000000e+00   0.0000000e+00   0.0000000e+00   0.0000000e+00
   1.2485418e+01   1.6006946e+00   5.7625007e+00   3.9377088e+01   1.0244446e+01   1.9208336e+00   9.6041678e+00   1.2805557e+00   9.6041678e+00   3.3614587e+01   1.5686807e+01   5.7625007e+01   1.4726391e+01   2.8172226e+01   1.3765974e+01   2.2409725e+00   9.9243067e+00   2.0809030e+01   4.1618060e+00   7.0430564e+00   0.0000000e+00   0.0000000e+00   0.0000000e+00   0.0000000e+00
   1.2805557e+01   1.9208336e+00   6.0826396e+00   3.9377088e+01   1.0884724e+01   2.5611114e+00   9.9243067e+00   1.9208336e+00   9.9243067e+00   3.4575004e+01   1.6006946e+01   5.7945146e+01   1.4726391e+01   2.8812503e+01   1.4406252e+01   3.2013893e+00   1.0564585e+01   2.0488891e+01   4.4819450e+00   8.0034732e+00   0.0000000e+00   0.0000000e+00   0.0000000e+00   0.0000000e+00
   1.3445835e+01   1.9208336e+00   6.4027785e+00   3.9377088e+01   1.1525001e+01   2.8812503e+00   9.9243067e+00   2.8812503e+00   1.0244446e+01   3.4895143e+01   1.6327085e+01   5.8585424e+01   1.4406252e+01   2.9132642e+01   1.5046530e+01   3.8416671e+00   1.1204862e+01   1.9848613e+01   5.1222228e+00   8.6437510e+00   0.0000000e+00   0.0000000e+00   0.0000000e+00   0.0000000e+00
   1.4406252e+01   1.9208336e+00   7.0430564e+00   4.0337505e+01   1.2485418e+01   3.5215282e+00   1.0564585e+01   3.8416671e+00   1.0564585e+01   3.5215282e+01   1.6327085e+01   5.8905562e+01   1.4726391e+01   2.9452781e+01   1.6006946e+01   4.1618060e+00   1.2165279e+01   1.9528475e+01   6.4027785e+00   9.6041678e+00   0.0000000e+00   0.0000000e+00   0.0000000e+00   0.0000000e+00
   1.6647224e+01   2.8812503e+00   8.0034732e+00   4.1938199e+01   1.4726391e+01   4.8020839e+00   1.2165279e+01   5.4423618e+00   1.1525001e+01   3.6175699e+01   1.6647224e+01   6.0186118e+01   1.5686807e+01   3.0413198e+01   1.7287502e+01   4.4819450e+00   1.3445835e+01   1.9208336e+01   8.3236121e+00   1.0564585e+01   0.0000000e+00   0.0000000e+00   0.0000000e+00   0.0000000e+00
   1.8888197e+01   3.8416671e+00   8.3236121e+00   4.3859033e+01   1.6327085e+01   5.7625007e+00   1.3445835e+01   6.4027785e+00   1.3125696e+01   3.7136115e+01   1.7287502e+01   6.0826396e+01   1.6647224e+01   3.1373615e+01   1.8568058e+01   4.8020839e+00   1.5046530e+01   1.8888197e+01   1.0244446e+01   1.1204862e+01   0.0000000e+00   0.0000000e+00   0.0000000e+00   0.0000000e+00
   2.0168752e+01   4.1618060e+00   8.3236121e+00   4.4819450e+01   1.7927780e+01   6.4027785e+00   1.4726391e+01   6.7229175e+00   1.4726391e+01   3.7776393e+01   1.7607641e+01   6.1146535e+01   1.7607641e+01   3.1693754e+01   1.9208336e+01   4.4819450e+00   1.6327085e+01   1.7927780e+01   1.1525001e+01   1.1845140e+01   0.0000000e+00   0.0000000e+00   0.0000000e+00   0.0000000e+00
   2.1769447e+01   4.4819450e+00   8.9638899e+00   4.6420144e+01   1.9208336e+01   7.3631953e+00   1.6327085e+01   7.0430564e+00   1.6967363e+01   3.8736810e+01   1.8888197e+01   6.1786813e+01   1.8888197e+01   3.2013893e+01   2.0168752e+01   5.1222228e+00   1.7927780e+01   1.7607641e+01   1.2805557e+01   1.2805557e+01   0.0000000e+00   0.0000000e+00   0.0000000e+00   0.0000000e+00
   2.2729864e+01   4.1618060e+00   9.2840289e+00   4.7380561e+01   1.9848613e+01   7.3631953e+00   1.7287502e+01   7.3631953e+00   1.8247919e+01   3.9377088e+01   1.9528475e+01   6.1786813e+01   1.9848613e+01   3.2334032e+01   2.1129169e+01   5.7625007e+00   1.9208336e+01   1.7287502e+01   1.3765974e+01   1.3765974e+01   0.0000000e+00   0.0000000e+00   0.0000000e+00   0.0000000e+00
   2.3690281e+01   4.1618060e+00   9.9243067e+00   4.8020839e+01   2.0488891e+01   7.6833342e+00   1.8247919e+01   8.0034732e+00   1.9208336e+01   3.9697227e+01   2.0168752e+01   6.1146535e+01   2.0168752e+01   3.2334032e+01   2.1769447e+01   6.7229175e+00   2.0168752e+01   1.7287502e+01   1.4726391e+01   1.5046530e+01   0.0000000e+00   0.0000000e+00   0.0000000e+00   0.0000000e+00
   2.4010419e+01   4.1618060e+00   1.0244446e+01   4.8661117e+01   2.0809030e+01   7.6833342e+00   1.8888197e+01   8.3236121e+00   1.9528475e+01   3.9697227e+01   1.9848613e+01   6.0506257e+01   2.0168752e+01   3.1693754e+01   2.2409725e+01   7.3631953e+00   2.0488891e+01   1.7287502e+01   1.5686807e+01   1.5686807e+01   0.0000000e+00   0.0000000e+00   0.0000000e+00   0.0000000e+00
   2.4330558e+01   4.4819450e+00   9.9243067e+00   4.8661117e+01   2.0809030e+01   8.0034732e+00   1.9208336e+01   8.3236121e+00   1.9528475e+01   3.9377088e+01   1.9208336e+01   5.9865979e+01   1.9848613e+01   3.1373615e+01   2.3370142e+01   7.3631953e+00   2.0488891e+01   1.7287502e+01   1.6327085e+01   1.5686807e+01   0.0000000e+00   0.0000000e+00   0.0000000e+00   0.0000000e+00
   2.4650697e+01   5.1222228e+00   9.2840289e+00   4.8661117e+01   2.0809030e+01   8.6437510e+00   1.9528475e+01   8.0034732e+00   1.9848613e+01   3.9377088e+01   1.8247919e+01   6.0186118e+01   1.9848613e+01   3.1053476e+01   2.4330558e+01   7.0430564e+00   2.0488891e+01   1.7607641e+01   1.7287502e+01   1.5366668e+01   0.0000000e+00   0.0000000e+00   0.0000000e+00   0.0000000e+00
   2.4010419e+01   5.1222228e+00   8.6437510e+00   4.8020839e+01   2.0488891e+01   8.6437510e+00   1.9208336e+01   7.3631953e+00   1.9848613e+01   3.9377088e+01   1.7607641e+01   6.0506257e+01   1.9848613e+01   3.0413198e+01   2.4970836e+01   6.4027785e+00   2.0168752e+01   1.7607641e+01   1.7287502e+01   1.5046530e+01   0.0000000e+00   0.0000000e+00   0.0000000e+00   0.0000000e+00
   2.3050003e+01   4.4819450e+00   8.0034732e+00   4.7380561e+01   2.0168752e+01   8.9638899e+00   1.8568058e+01   6.4027785e+00   1.9848613e+01   3.9377088e+01   1.7607641e+01   6.1146535e+01   2.0168752e+01   3.0093059e+01   2.5290975e+01   5.7625007e+00   2.0168752e+01   1.8247919e+01   1.6967363e+01   1.4726391e+01   0.0000000e+00   0.0000000e+00   0.0000000e+00   0.0000000e+00
   2.1769447e+01   4.1618060e+00   7.3631953e+00   4.6420144e+01   1.9528475e+01   8.9638899e+00   1.7607641e+01   5.4423618e+00   1.9848613e+01   3.9377088e+01   1.7607641e+01   6.1466674e+01   2.0488891e+01   2.9452781e+01   2.5290975e+01   5.1222228e+00   2.0168752e+01   1.8888197e+01   1.6647224e+01   1.4726391e+01   0.0000000e+00   0.0000000e+00   0.0000000e+00   0.0000000e+00
   2.0488891e+01   3.5215282e+00   7.0430564e+00   4.5459728e+01   1.9208336e+01   8.9638899e+00   1.6967363e+01   4.8020839e+00   1.9528475e+01   3.9056949e+01   1.7607641e+01   6.1466674e+01   2.0488891e+01   2.8812503e+01   2.4970836e+01   4.4819450e+00   1.9848613e+01   1.9848613e+01   1.6647224e+01   1.4406252e+01   0.0000000e+00   0.0000000e+00   0.0000000e+00   0.0000000e+00
   2.0168752e+01   4.8020839e+00   7.3631953e+00   4.5779866e+01   1.9528475e+01   9.9243067e+00   1.6967363e+01   5.1222228e+00   1.9528475e+01   3.9056949e+01   1.7287502e+01   6.1466674e+01   2.0488891e+01   2.8812503e+01   2.4970836e+01   4.4819450e+00   2.0168752e+01   2.1129169e+01   1.7287502e+01   1.4406252e+01   0.0000000e+00   0.0000000e+00   0.0000000e+00   0.0000000e+00
   2.0168752e+01   6.7229175e+00   8.0034732e+00   4.6100005e+01   1.9848613e+01   1.0564585e+01   1.7287502e+01   5.7625007e+00   1.9528475e+01   3.9377088e+01   1.6967363e+01   6.1466674e+01   2.0488891e+01   2.9132642e+01   2.4970836e+01   4.4819450e+00   2.0168752e+01   2.2729864e+01   1.8247919e+01   1.5046530e+01   0.0000000e+00   0.0000000e+00   0.0000000e+00   0.0000000e+00
   2.0168752e+01   8.3236121e+00   8.3236121e+00   4.6100005e+01   1.9528475e+01   1.0884724e+01   1.7607641e+01   6.0826396e+00   1.9208336e+01   3.9377088e+01   1.6006946e+01   6.1146535e+01   2.0168752e+01   2.9132642e+01   2.4650697e+01   4.8020839e+00   1.9848613e+01   2.3690281e+01   1.8568058e+01   1.5046530e+01   0.0000000e+00   0.0000000e+00   0.0000000e+00   0.0000000e+00
   2.0488891e+01   9.2840289e+00   9.2840289e+00   4.5459728e+01   1.9528475e+01   1.1204862e+01   1.7607641e+01   6.7229175e+00   1.8888197e+01   3.9697227e+01   1.5686807e+01   6.0826396e+01   2.0168752e+01   2.9132642e+01   2.4330558e+01   5.4423618e+00   1.9848613e+01   2.4650697e+01   1.8888197e+01   1.5686807e+01   0.0000000e+00   0.0000000e+00   0.0000000e+00   0.0000000e+00
   1.9848613e+01   7.6833342e+00   9.2840289e+00   4.3859033e+01   1.8568058e+01   1.0884724e+01   1.7287502e+01   6.4027785e+00   1.8247919e+01   3.9377088e+01   1.5366668e+01   5.9865979e+01   1.9848613e+01   2.8812503e+01   2.3690281e+01   5.7625007e+00   1.9528475e+01   2.4650697e+01   1.8568058e+01   1.5686807e+01   0.0000000e+00   0.0000000e+00   0.0000000e+00   0.0000000e+00
   1.9208336e+01   5.1222228e+00   9.2840289e+00   4.2258338e+01   1.7287502e+01   1.0564585e+01   1.6647224e+01   6.0826396e+00   1.7287502e+01   3.9056949e+01   1.5046530e+01   5.8905562e+01   1.9848613e+01   2.7852087e+01   2.2729864e+01   6.0826396e+00   1.9208336e+01   2.4330558e+01   1.7927780e+01   1.6006946e+01   0.0000000e+00   0.0000000e+00   0.0000000e+00   0.0000000e+00
   1.8888197e+01   2.8812503e+00   9.9243067e+00   4.1618060e+01   1.6967363e+01   1.1204862e+01   1.6967363e+01   6.0826396e+00   1.7287502e+01   3.9056949e+01   1.5366668e+01   5.8585424e+01   2.0488891e+01   2.7852087e+01   2.2409725e+01   7.3631953e+00   1.9528475e+01   2.4330558e+01   1.8247919e+01   1.6967363e+01   0.0000000e+00   0.0000000e+00   0.0000000e+00   0.0000000e+00
   1.9848613e+01   2.5611114e+00   1.1204862e+01   4.2578477e+01   1.7927780e+01   1.2485418e+01   1.8568058e+01   7.0430564e+00   1.7927780e+01   3.9697227e+01   1.6647224e+01   5.9225701e+01   2.1769447e+01   2.8812503e+01   2.3370142e+01   9.6041678e+00   2.0809030e+01   2.5290975e+01   1.9848613e+01   1.8568058e+01   0.0000000e+00   0.0000000e+00   0.0000000e+00   0.0000000e+00
   2.0809030e+01   3.2013893e+00   1.2485418e+01   4.3218755e+01   1.8568058e+01   1.3445835e+01   1.9208336e+01   7.6833342e+00   1.8568058e+01   4.0017366e+01   1.7287502e+01   5.9545840e+01   2.2409725e+01   2.9452781e+01   2.3690281e+01   1.1204862e+01   2.1129169e+01   2.5290975e+01   2.0809030e+01   1.9208336e+01   0.0000000e+00   0.0000000e+00   0.0000000e+00   0.0000000e+00
   2.1129169e+01   4.4819450e+00   1.3125696e+01   4.3538894e+01   1.8568058e+01   1.3765974e+01   1.9528475e+01   8.3236121e+00   1.8888197e+01   4.0337505e+01   1.8247919e+01   5.9865979e+01   2.2409725e+01   3.0093059e+01   2.3690281e+01   1.2805557e+01   2.1449308e+01   2.5290975e+01   2.1129169e+01   1.9848613e+01   0.0000000e+00   0.0000000e+00   0.0000000e+00   0.0000000e+00
   2.0809030e+01   4.8020839e+00   1.3125696e+01   4.2898616e+01   1.7607641e+01   1.2805557e+01   1.8568058e+01   8.0034732e+00   1.8888197e+01   4.0657644e+01   1.8888197e+01   5.9865979e+01   2.1769447e+01   3.0093059e+01   2.3050003e+01   1.3445835e+01   2.0488891e+01   2.4330558e+01   2.0488891e+01   1.9528475e+01   0.0000000e+00   0.0000000e+00   0.0000000e+00   0.0000000e+00
   1.9208336e+01   2.8812503e+00   1.2165279e+01   4.1297922e+01   1.5366668e+01   1.0564585e+01   1.6327085e+01   7.0430564e+00   1.7607641e+01   4.0017366e+01   1.8568058e+01   5.8905562e+01   2.0488891e+01   2.8492364e+01   2.1129169e+01   1.2165279e+01   1.8568058e+01   2.2729864e+01   1.8247919e+01   1.8247919e+01   0.0000000e+00   0.0000000e+00   0.0000000e+00   0.0000000e+00
   1.7287502e+01   9.6041678e-01   1.1525001e+01   4.0337505e+01   1.3125696e+01   8.3236121e+00   1.3765974e+01   6.4027785e+00   1.6647224e+01   3.9697227e+01   1.8247919e+01   5.7945146e+01   1.9208336e+01   2.6891670e+01   1.9208336e+01   1.0884724e+01   1.6967363e+01   2.1129169e+01   1.6006946e+01   1.6967363e+01   0.0000000e+00   0.0000000e+00   0.0000000e+00   0.0000000e+00
   1.5686807e+01  -9.6041678e-01   1.0884724e+01   3.9697227e+01   1.1525001e+01   6.0826396e+00   1.1845140e+01   5.7625007e+00   1.5366668e+01   3.8736810e+01   1.7607641e+01   5.7304868e+01   1.7927780e+01   2.5290975e+01   1.7607641e+01   8.9638899e+00   1.5366668e+01   1.9848613e+01   1.3765974e+01   1.5686807e+01   0.0000000e+00   0.0000000e+00   0.0000000e+00   0.0000000e+00
   1.4406252e+01  -1.2805557e+00   1.0564585e+01   4.0017366e+01   1.0244446e+01   4.4819450e+00   1.0564585e+01   5.7625007e+00   1.4726391e+01   3.8096532e+01   1.6967363e+01   5.6664590e+01   1.6647224e+01   2.4330558e+01   1.6327085e+01   7.3631953e+00   1.4086113e+01   1.9208336e+01   1.1845140e+01   1.4086113e+01   0.0000000e+00   0.0000000e+00   0.0000000e+00   0.0000000e+00
   1.3765974e+01  -9.6041678e-01   9.9243067e+00   4.0657644e+01   9.6041678e+00   2.8812503e+00   9.2840289e+00   5.7625007e+00   1.4086113e+01   3.7456254e+01   1.6006946e+01   5.6024312e+01   1.5046530e+01   2.3690281e+01   1.5686807e+01   5.1222228e+00   1.3125696e+01   1.8888197e+01   1.0564585e+01   1.2485418e+01   0.0000000e+00   0.0000000e+00   0.0000000e+00   0.0000000e+00
   1.2805557e+01  -3.2013893e-01   8.9638899e+00   4.0337505e+01   8.3236121e+00   9.6041678e-01   8.0034732e+00   5.4423618e+00   1.3765974e+01   3.6495838e+01   1.5046530e+01   5.4743756e+01   1.3445835e+01   2.3370142e+01   1.4726391e+01   2.8812503e+00   1.1845140e+01   1.8247919e+01   8.9638899e+00   1.0244446e+01   0.0000000e+00   0.0000000e+00   0.0000000e+00   0.0000000e+00
   1.1845140e+01   0.0000000e+00   7.6833342e+00   4.0017366e+01   7.6833342e+00  -9.6041678e-01   6.7229175e+00   4.8020839e+00   1.4086113e+01   3.6175699e+01   1.4726391e+01   5.4423618e+01   1.2805557e+01   2.3690281e+01   1.4086113e+01   1.2805557e+00   1.1204862e+01   1.8247919e+01   7.6833342e+00   8.6437510e+00   0.0000000e+00   0.0000000e+00   0.0000000e+00   0.0000000e+00
   1.0884724e+01  -3.2013893e-01   6.7229175e+00   3.9377088e+01   7.0430564e+00  -2.2409725e+00   5.7625007e+00   4.1618060e+00   1.4406252e+01   3.5535421e+01   1.5046530e+01   5.4103479e+01   1.2805557e+01   2.4010419e+01   1.3765974e+01   0.0000000e+00   1.1204862e+01   1.8568058e+01   6.0826396e+00   7.3631953e+00   0.0000000e+00   0.0000000e+00   0.0000000e+00   0.0000000e+00
   9.9243067e+00  -1.2805557e+00   6.0826396e+00   3.8736810e+01   7.0430564e+00  -3.2013893e+00   5.1222228e+00   3.5215282e+00   1.4726391e+01   3.5215282e+01   1.5366668e+01   5.4743756e+01   1.3125696e+01   2.4650697e+01   1.3445835e+01  -6.4027785e-01   1.1204862e+01   1.9528475e+01   5.1222228e+00   6.7229175e+00   0.0000000e+00   0.0000000e+00   0.0000000e+00   0.0000000e+00
   9.6041678e+00  -1.6006946e+00   6.0826396e+00   3.8736810e+01   7.6833342e+00  -3.5215282e+00   5.1222228e+00   2.8812503e+00   1.5046530e+01   3.5535421e+01   1.5686807e+01   5.6024312e+01   1.4086113e+01   2.4970836e+01   1.3765974e+01  -3.2013893e-01   1.1845140e+01   2.0488891e+01   4.4819450e+00   6.7229175e+00   0.0000000e+00   0.0000000e+00   0.0000000e+00   0.0000000e+00
   9.6041678e+00  -1.6006946e+00   5.4423618e+00   3.9377088e+01   8.3236121e+00  -2.8812503e+00   5.4423618e+00   2.2409725e+00   1.5046530e+01   3.5855560e+01   1.5686807e+01   5.7625007e+01   1.5046530e+01   2.5611114e+01   1.3765974e+01  -3.2013893e-01   1.2805557e+01   2.1449308e+01   4.1618060e+00   6.0826396e+00   0.0000000e+00   0.0000000e+00   0.0000000e+00   0.0000000e+00
   9.9243067e+00  -1.6006946e+00   4.8020839e+00   4.0017366e+01   9.2840289e+00  -2.5611114e+00   5.7625007e+00   1.2805557e+00   1.5046530e+01   3.6175699e+01   1.5046530e+01   5.9225701e+01   1.5366668e+01   2.5611114e+01   1.3445835e+01  -9.6041678e-01   1.3125696e+01   2.1769447e+01   3.8416671e+00   5.4423618e+00   0.0000000e+00   0.0000000e+00   0.0000000e+00   0.0000000e+00
   1.1204862e+01  -1.2805557e+00   3.8416671e+00   4.0337505e+01   1.0244446e+01  -2.2409725e+00   6.0826396e+00   3.2013893e-01   1.5046530e+01   3.7456254e+01   1.4406252e+01   6.0186118e+01   1.6006946e+01   2.5611114e+01   1.2805557e+01  -1.6006946e+00   1.3125696e+01   2.1769447e+01   3.5215282e+00   4.4819450e+00   0.0000000e+00   0.0000000e+00   0.0000000e+00   0.0000000e+00
   1.3125696e+01  -3.2013893e-01   3.5215282e+00   4.0657644e+01   1.1204862e+01  -1.9208336e+00   6.7229175e+00   0.0000000e+00   1.5686807e+01   3.8736810e+01   1.4726391e+01   6.1146535e+01   1.6647224e+01   2.6251392e+01   1.2485418e+01  -1.6006946e+00   1.3445835e+01   2.1769447e+01   3.5215282e+00   4.1618060e+00   0.0000000e+00   0.0000000e+00   0.0000000e+00   0.0000000e+00
   1.4726391e+01   9.6041678e-01   3.8416671e+00   4.0657644e+01   1.2165279e+01  -1.6006946e+00   7.3631953e+00  -3.2013893e-01   1.6647224e+01   4.0337505e+01   1.5686807e+01   6.1786813e+01   1.7607641e+01   2.7211809e+01   1.2805557e+01  -9.6041678e-01   1.3765974e+01   2.2089586e+01   3.8416671e+00   4.8020839e+00   0.0000000e+00   0.0000000e+00   0.0000000e+00   0.0000000e+00
   1.5686807e+01   2.2409725e+00   4.1618060e+00   4.0337505e+01   1.2485418e+01  -1.6006946e+00   8.0034732e+00  -6.4027785e-01   1.6967363e+01   4.1297922e+01   1.6647224e+01   6.2427091e+01   1.8568058e+01   2.8172226e+01   1.3125696e+01   0.0000000e+00   1.3765974e+01   2.1769447e+01   3.8416671e+00   5.4423618e+00   0.0000000e+00   0.0000000e+00   0.0000000e+00   0.0000000e+00
   1.5686807e+01   3.5215282e+00   4.4819450e+00   4.0017366e+01   1.2485418e+01  -1.9208336e+00   8.0034732e+00  -9.6041678e-01   1.6647224e+01   4.1297922e+01   1.6647224e+01   6.2747230e+01   1.8888197e+01   2.8172226e+01   1.3445835e+01   3.2013893e-01   1.3445835e+01   2.1129169e+01   3.5215282e+00   5.7625007e+00   0.0000000e+00   0.0000000e+00   0.0000000e+00   0.0000000e+00
   1.5046530e+01   4.1618060e+00   4.1618060e+00   3.9377088e+01   1.1845140e+01  -2.5611114e+00   8.0034732e+00  -1.6006946e+00   1.6006946e+01   4.0337505e+01   1.5366668e+01   6.2427091e+01   1.8247919e+01   2.8172226e+01   1.3125696e+01   0.0000000e+00   1.2805557e+01   1.9848613e+01   2.8812503e+00   5.4423618e+00   0.0000000e+00   0.0000000e+00   0.0000000e+00   0.0000000e+00
   1.5046530e+01   4.8020839e+00   3.8416671e+00   3.9377088e+01   1.1525001e+01  -2.5611114e+00   8.0034732e+00  -1.6006946e+00   1.5046530e+01   3.9377088e+01   1.3445835e+01   6.1466674e+01   1.7607641e+01   2.7852087e+01   1.3125696e+01  -9.6041678e-01   1.2165279e+01   1.8247919e+01   2.2409725e+00   4.8020839e+00   0.0000000e+00   0.0000000e+00   0.0000000e+00   0.0000000e+00
   1.5366668e+01   5.4423618e+00   3.8416671e+00   3.9377088e+01   1.1204862e+01  -2.2409725e+00   8.3236121e+00  -1.6006946e+00   1.4726391e+01   3.8416671e+01   1.1204862e+01   6.0506257e+01   1.6647224e+01   2.7852087e+01   1.2805557e+01  -1.9208336e+00   1.1845140e+01   1.6967363e+01   2.2409725e+00   3.8416671e+00   0.0000000e+00   0.0000000e+00   0.0000000e+00   0.0000000e+00
   1.5686807e+01   5.4423618e+00   3.5215282e+00   3.8736810e+01   1.0884724e+01  -1.9208336e+00   8.6437510e+00  -1.9208336e+00   1.4086113e+01   3.7456254e+01   9.9243067e+00   5.9225701e+01   1.6006946e+01   2.7852087e+01   1.2805557e+01  -3.2013893e+00   1.1525001e+01   1.6006946e+01   1.9208336e+00   3.2013893e+00   0.0000000e+00   0.0000000e+00   0.0000000e+00   0.0000000e+00
   1.6006946e+01   5.4423618e+00   3.8416671e+00   3.8096532e+01   1.0884724e+01  -1.2805557e+00   8.6437510e+00  -2.2409725e+00   1.4086113e+01   3.6815977e+01   9.2840289e+00   5.7945146e+01   1.5686807e+01   2.8172226e+01   1.2805557e+01  -4.1618060e+00   1.1525001e+01   1.5366668e+01   1.6006946e+00   2.8812503e+00   0.0000000e+00   0.0000000e+00   0.0000000e+00   0.0000000e+00
   1.5366668e+01   5.1222228e+00   3.8416671e+00   3.7136115e+01   1.0244446e+01  -6.4027785e-01   8.6437510e+00  -2.5611114e+00   1.3765974e+01   3.6175699e+01   8.6437510e+00   5.6984729e+01   1.5686807e+01   2.8172226e+01   1.2805557e+01  -4.8020839e+00   1.1525001e+01   1.5366668e+01   1.2805557e+00   2.5611114e+00   0.0000000e+00   0.0000000e+00   0.0000000e+00   0.0000000e+00
   1.4406252e+01   4.8020839e+00   4.4819450e+00   3.6815977e+01   9.9243067e+00   0.0000000e+00   8.3236121e+00  -2.8812503e+00   1.3445835e+01   3.5855560e+01   8.0034732e+00   5.6664590e+01   1.5366668e+01   2.7852087e+01   1.2485418e+01  -5.1222228e+00   1.1525001e+01   1.5686807e+01   9.6041678e-01   2.5611114e+00   0.0000000e+00   0.0000000e+00   0.0000000e+00   0.0000000e+00
   1.3445835e+01   4.4819450e+00   4.4819450e+00   3.6495838e+01   8.9638899e+00   0.0000000e+00   8.0034732e+00  -2.8812503e+00   1.2805557e+01   3.4895143e+01   6.7229175e+00   5.5704173e+01   1.4406252e+01   2.6571531e+01   1.1525001e+01  -5.4423618e+00   1.0884724e+01   1.5686807e+01   3.2013893e-01   1.9208336e+00   0.0000000e+00   0.0000000e+00   0.0000000e+00   0.0000000e+00
   1.2485418e+01   4.8020839e+00   4.8020839e+00   3.6495838e+01   8.0034732e+00   3.2013893e-01   7.6833342e+00  -2.2409725e+00   1.1845140e+01   3.4575004e+01   6.0826396e+00   5.5063895e+01   1.3445835e+01   2.5611114e+01   1.0884724e+01  -5.7625007e+00   1.0244446e+01   1.5686807e+01   0.0000000e+00   1.6006946e+00   0.0000000e+00   0.0000000e+00   0.0000000e+00   0.0000000e+00
   1.1845140e+01   5.1222228e+00   5.4423618e+00   3.6815977e+01   7.3631953e+00   6.4027785e-01   7.6833342e+00  -9.6041678e-01   1.1525001e+01   3.4254865e+01   5.7625007e+00   5.4743756e+01   1.2805557e+01   2.4650697e+01   1.0884724e+01  -5.4423618e+00   9.6041678e+00   1.6327085e+01   0.0000000e+00   1.2805557e+00   0.0000000e+00   0.0000000e+00   0.0000000e+00   0.0000000e+00
   1.1525001e+01   5.1222228e+00   5.4423618e+00   3.6815977e+01   6.7229175e+00   6.4027785e-01   7.6833342e+00   0.0000000e+00   1.1204862e+01   3.4575004e+01   6.0826396e+00   5.4103479e+01   1.2485418e+01   2.4010419e+01   1.0884724e+01  -5.1222228e+00   8.6437510e+00   1.6647224e+01   0.0000000e+00   1.6006946e+00   0.0000000e+00   0.0000000e+00   0.0000000e+00   0.0000000e+00
   1.1204862e+01   4.8020839e+00   5.7625007e+00   3.6175699e+01   5.7625007e+00   3.2013893e-01   7.6833342e+00   9.6041678e-01   1.1204862e+01   3.4575004e+01   7.0430564e+00   5.3783340e+01   1.2165279e+01   2.3690281e+01   1.1204862e+01  -4.1618060e+00   8.0034732e+00   1.7287502e+01   0.0000000e+00   1.9208336e+00   0.0000000e+00   0.0000000e+00   0.0000000e+00   0.0000000e+00
   1.0564585e+01   3.8416671e+00   5.7625007e+00   3.5535421e+01   4.8020839e+00  -3.2013893e-01   7.3631953e+00   1.2805557e+00   1.1204862e+01   3.4575004e+01   8.0034732e+00   5.3143062e+01   1.1845140e+01   2.3050003e+01   1.1204862e+01  -3.2013893e+00   7.3631953e+00   1.7607641e+01  -3.2013893e-01   2.8812503e+00   0.0000000e+00   0.0000000e+00   0.0000000e+00   0.0000000e+00
   9.9243067e+00   3.2013893e+00   5.7625007e+00   3.4895143e+01   4.1618060e+00  -1.2805557e+00   7.0430564e+00   1.2805557e+00   1.1204862e+01   3.4575004e+01   8.3236121e+00   5.2502784e+01   1.1204862e+01   2.2409725e+01   1.0884724e+01  -2.2409725e+00   6.7229175e+00   1.7607641e+01  -3.2013893e-01   3.8416671e+00   0.0000000e+00   0.0000000e+00   0.0000000e+00   0.0000000e+00
   9.6041678e+00   3.2013893e+00   5.4423618e+00   3.4575004e+01   3.8416671e+00  -2.2409725e+00   6.7229175e+00   1.2805557e+00   1.1204862e+01   3.4254865e+01   8.0034732e+00   5.2182645e+01   1.0244446e+01   2.2089586e+01   1.0884724e+01  -9.6041678e-01   6.4027785e+00   1.7287502e+01  -3.2013893e-01   4.4819450e+00   0.0000000e+00   0.0000000e+00   0.0000000e+00   0.0000000e+00
   8.6437510e+00   3.5215282e+00   5.1222228e+00   3.3934726e+01   3.5215282e+00  -3.2013893e+00   6.0826396e+00   9.6041678e-01   1.0884724e+01   3.3614587e+01   7.3631953e+00   5.1222228e+01   8.9638899e+00   2.1449308e+01   1.0564585e+01  -3.2013893e-01   5.4423618e+00   1.6647224e+01   0.0000000e+00   4.4819450e+00   0.0000000e+00   0.0000000e+00   0.0000000e+00   0.0000000e+00
   8.0034732e+00   4.8020839e+00   5.1222228e+00   3.3934726e+01   3.8416671e+00  -3.5215282e+00   6.0826396e+00   1.2805557e+00   1.1204862e+01   3.3614587e+01   6.7229175e+00   5.1222228e+01   8.0034732e+00   2.1769447e+01   1.1204862e+01   6.4027785e-01   5.1222228e+00   1.6006946e+01   9.6041678e-01   4.8020839e+00   0.0000000e+00   0.0000000e+00   0.0000000e+00   0.0000000e+00
   8.3236121e+00   7.0430564e+00   5.4423618e+00   3.4575004e+01   4.8020839e+00  -3.2013893e+00   6.0826396e+00   1.6006946e+00   1.1845140e+01   3.4254865e+01   7.6833342e+00   5.1542367e+01   7.3631953e+00   2.2409725e+01   1.2485418e+01   1.6006946e+00   5.4423618e+00   1.6006946e+01   2.2409725e+00   5.4423618e+00   0.0000000e+00   0.0000000e+00   0.0000000e+00   0.0000000e+00
   8.6437510e+00   9.6041678e+00   6.0826396e+00   3.5215282e+01   5.7625007e+00  -2.8812503e+00   6.7229175e+00   1.9208336e+00   1.2485418e+01   3.5215282e+01   8.9638899e+00   5.2182645e+01   7.6833342e+00   2.3050003e+01   1.4086113e+01   2.5611114e+00   6.0826396e+00   1.6006946e+01   3.5215282e+00   6.4027785e+00   0.0000000e+00   0.0000000e+00   0.0000000e+00   0.0000000e+00
   9.6041678e+00   1.1845140e+01   7.3631953e+00   3.6495838e+01   7.3631953e+00  -1.9208336e+00   7.3631953e+00   2.5611114e+00   1.3765974e+01   3.7136115e+01   1.1525001e+01   5.3143062e+01   8.3236121e+00   2.4330558e+01   1.6006946e+01   4.1618060e+00   7.3631953e+00   1.6006946e+01   5.4423618e+00   8.0034732e+00   0.0000000e+00   0.0000000e+00   0.0000000e+00   0.0000000e+00
   9.9243067e+00   1.2165279e+01   7.3631953e+00   3.6815977e+01   8.3236121e+00  -1.6006946e+00   8.0034732e+00   2.2409725e+00   1.4086113e+01   3.8736810e+01   1.3445835e+01   5.3463201e+01   8.6437510e+00   2.4330558e+01   1.6967363e+01   5.1222228e+00   8.0034732e+00   1.5366668e+01   6.4027785e+00   8.9638899e+00   0.0000000e+00   0.0000000e+00   0.0000000e+00   0.0000000e+00
   9.6041678e+00   1.0564585e+01   6.0826396e+00   3.6815977e+01   8.6437510e+00  -1.9208336e+00   8.0034732e+00   1.6006946e+00   1.4086113e+01   4.0337505e+01   1.4406252e+01   5.2822923e+01   8.0034732e+00   2.4010419e+01   1.7607641e+01   4.8020839e+00   7.6833342e+00   1.3765974e+01   7.0430564e+00   8.9638899e+00   0.0000000e+00   0.0000000e+00   0.0000000e+00   0.0000000e+00
   9.9243067e+00   8.6437510e+00   5.4423618e+00   3.7136115e+01   9.6041678e+00  -1.6006946e+00   8.9638899e+00   1.2805557e+00   1.4406252e+01   4.3218755e+01   1.5366668e+01   5.2822923e+01   8.3236121e+00   2.4010419e+01   1.8568058e+01   4.4819450e+00   8.3236121e+00   1.2805557e+01   8.3236121e+00   8.9638899e+00   0.0000000e+00   0.0000000e+00   0.0000000e+00   0.0000000e+00
   1.0244446e+01   7.0430564e+00   4.4819450e+00   3.7776393e+01   1.0884724e+01  -6.4027785e-01   1.0244446e+01   9.6041678e-01   1.4726391e+01   4.5779866e+01   1.5686807e+01   5.3463201e+01   8.6437510e+00   2.4330558e+01   1.9208336e+01   3.5215282e+00   8.6437510e+00   1.1845140e+01   9.2840289e+00   8.6437510e+00   0.0000000e+00   0.0000000e+00   0.0000000e+00   0.0000000e+00
   1.0564585e+01   5.7625007e+00   3.5215282e+00   3.8096532e+01   1.1845140e+01   3.2013893e-01   1.0884724e+01   6.4027785e-01   1.5366668e+01   4.7380561e+01   1.6327085e+01   5.4103479e+01   9.2840289e+00   2.4650697e+01   1.9848613e+01   2.5611114e+00   8.9638899e+00   1.1525001e+01   1.0244446e+01   8.3236121e+00   0.0000000e+00   0.0000000e+00   0.0000000e+00   0.0000000e+00
   1.1204862e+01   6.0826396e+00   3.2013893e+00   3.8736810e+01   1.3125696e+01   1.9208336e+00   1.1845140e+01   6.4027785e-01   1.6327085e+01   4.7380561e+01   1.7287502e+01   5.5704173e+01   1.1204862e+01   2.5290975e+01   2.0809030e+01   2.2409725e+00   1.0244446e+01   1.2165279e+01   1.1204862e+01   8.6437510e+00   0.0000000e+00   0.0000000e+00   0.0000000e+00   0.0000000e+00
   1.1845140e+01   7.0430564e+00   2.8812503e+00   3.9056949e+01   1.4406252e+01   3.2013893e+00   1.2485418e+01   3.2013893e-01   1.7607641e+01   4.5139589e+01   1.8247919e+01   5.6984729e+01   1.3125696e+01   2.5931253e+01   2.1129169e+01   2.2409725e+00   1.1845140e+01   1.3125696e+01   1.1845140e+01   9.6041678e+00   0.0000000e+00   0.0000000e+00   0.0000000e+00   0.0000000e+00
   1.2165279e+01   8.0034732e+00   2.8812503e+00   3.9377088e+01   1.5366668e+01   4.1618060e+00   1.2805557e+01   0.0000000e+00   1.8247919e+01   4.1618060e+01   1.8247919e+01   5.7945146e+01   1.5046530e+01   2.6571531e+01   2.1129169e+01   2.2409725e+00   1.3125696e+01   1.4406252e+01   1.2485418e+01   1.0244446e+01   0.0000000e+00   0.0000000e+00   0.0000000e+00   0.0000000e+00
   1.2805557e+01   8.0034732e+00   2.5611114e+00   3.9697227e+01   1.6647224e+01   5.4423618e+00   1.3125696e+01   0.0000000e+00   1.8888197e+01   3.7776393e+01   1.7287502e+01   5.8265285e+01   1.6327085e+01   2.7531948e+01   2.0488891e+01   2.2409725e+00   1.4406252e+01   1.6006946e+01   1.3125696e+01   1.0884724e+01   0.0000000e+00   0.0000000e+00   0.0000000e+00   0.0000000e+00
   1.3125696e+01   7.0430564e+00   2.2409725e+00   4.0017366e+01   1.7287502e+01   6.0826396e+00   1.3125696e+01   0.0000000e+00   1.8888197e+01   3.4575004e+01   1.5366668e+01   5.8265285e+01   1.6967363e+01   2.7852087e+01   1.9208336e+01   1.9208336e+00   1.5366668e+01   1.7287502e+01   1.3445835e+01   1.0884724e+01   0.0000000e+00   0.0000000e+00   0.0000000e+00   0.0000000e+00
   1.4086113e+01   5.1222228e+00   2.2409725e+00   4.0657644e+01   1.7927780e+01   7.0430564e+00   1.3445835e+01   6.4027785e-01   1.8888197e+01   3.2013893e+01   1.3125696e+01   5.8585424e+01   1.6967363e+01   2.8172226e+01   1.8247919e+01   1.2805557e+00   1.5686807e+01   1.9208336e+01   1.4086113e+01   1.1204862e+01   0.0000000e+00   0.0000000e+00   0.0000000e+00   0.0000000e+00
   1.4726391e+01   3.2013893e+00   2.8812503e+00   4.0657644e+01   1.8568058e+01   8.0034732e+00   1.3445835e+01   1.2805557e+00   1.8888197e+01   3.0093059e+01   1.1204862e+01   5.8905562e+01   1.6647224e+01   2.8492364e+01   1.6967363e+01   1.2805557e+00   1.6006946e+01   2.1129169e+01   1.5046530e+01   1.1204862e+01   0.0000000e+00   0.0000000e+00   0.0000000e+00   0.0000000e+00
   1.5046530e+01   2.2409725e+00   3.8416671e+00   4.0657644e+01   1.9208336e+01   8.3236121e+00   1.3445835e+01   2.2409725e+00   1.8568058e+01   2.8492364e+01   1.0244446e+01   5.9545840e+01   1.6967363e+01   2.8492364e+01   1.6327085e+01   1.9208336e+00   1.6327085e+01   2.3050003e+01   1.5686807e+01   1.2165279e+01   0.0000000e+00   0.0000000e+00   0.0000000e+00   0.0000000e+00
   1.4406252e+01   1.2805557e+00   4.8020839e+00   3.9697227e+01   1.8888197e+01   7.6833342e+00   1.2805557e+01   2.5611114e+00   1.7927780e+01   2.6251392e+01   9.9243067e+00   5.9865979e+01   1.6647224e+01   2.8172226e+01   1.5686807e+01   2.2409725e+00   1.6327085e+01   2.4010419e+01   1.5686807e+01   1.2165279e+01   0.0000000e+00   0.0000000e+00   0.0000000e+00   0.0000000e+00
   1.3765974e+01   6.4027785e-01   5.4423618e+00   3.9056949e+01   1.8247919e+01   6.7229175e+00   1.1845140e+01   2.5611114e+00   1.6647224e+01   2.4970836e+01   1.0244446e+01   6.0186118e+01   1.6327085e+01   2.7531948e+01   1.5046530e+01   2.2409725e+00   1.6327085e+01   2.4650697e+01   1.5366668e+01   1.2165279e+01   0.0000000e+00   0.0000000e+00   0.0000000e+00   0.0000000e+00
   1.2805557e+01  -3.2013893e-01   5.7625007e+00   3.8416671e+01   1.7927780e+01   5.7625007e+00   1.1204862e+01   2.2409725e+00   1.5366668e+01   2.4650697e+01   1.0884724e+01   6.0506257e+01   1.6006946e+01   2.6571531e+01   1.4406252e+01   2.2409725e+00   1.6006946e+01   2.4970836e+01   1.5366668e+01   1.1845140e+01   0.0000000e+00   0.0000000e+00   0.0000000e+00   0.0000000e+00
   1.1845140e+01  -2.2409725e+00   5.4423618e+00   3.7776393e+01   1.7287502e+01   4.8020839e+00   1.0244446e+01   1.9208336e+00   1.3445835e+01   2.5290975e+01   1.0884724e+01   6.0826396e+01   1.5046530e+01   2.5611114e+01   1.3765974e+01   1.2805557e+00   1.5686807e+01   2.4650697e+01   1.4726391e+01   1.0564585e+01   0.0000000e+00   0.0000000e+00   0.0000000e+00   0.0000000e+00
   1.0884724e+01  -3.8416671e+00   5.4423618e+00   3.8096532e+01   1.6967363e+01   3.8416671e+00   9.9243067e+00   2.2409725e+00   1.2485418e+01   2.6571531e+01   1.0564585e+01   6.1146535e+01   1.4726391e+01   2.5290975e+01   1.3125696e+01   6.4027785e-01   1.5046530e+01   2.4330558e+01   1.4406252e+01   9.6041678e+00   0.0000000e+00   0.0000000e+00   0.0000000e+00   0.0000000e+00
   1.0244446e+01  -5.1222228e+00   5.4423618e+00   3.8096532e+01   1.6967363e+01   3.2013893e+00   9.6041678e+00   2.5611114e+00   1.1845140e+01   2.8172226e+01   1.0244446e+01   6.1786813e+01   1.4406252e+01   2.4970836e+01   1.2485418e+01   0.0000000e+00   1.4726391e+01   2.3690281e+01   1.3765974e+01   8.6437510e+00   0.0000000e+00   0.0000000e+00   0.0000000e+00   0.0000000e+00
   9.9243067e+00  -5.4423618e+00   6.4027785e+00   3.8416671e+01   1.7287502e+01   3.2013893e+00   9.6041678e+00   3.5215282e+00   1.1845140e+01   2.9772920e+01   1.0884724e+01   6.2747230e+01   1.5366668e+01   2.5290975e+01   1.2805557e+01   3.2013893e-01   1.4726391e+01   2.3370142e+01   1.3765974e+01   8.6437510e+00   0.0000000e+00   0.0000000e+00   0.0000000e+00   0.0000000e+00
   9.2840289e+00  -4.8020839e+00   7.0430564e+00   3.8736810e+01   1.7287502e+01   2.8812503e+00   8.9638899e+00   4.1618060e+00   1.1845140e+01   3.0733337e+01   1.1525001e+01   6.3707646e+01   1.6006946e+01   2.5611114e+01   1.2805557e+01   6.4027785e-01   1.5046530e+01   2.2729864e+01   1.3125696e+01   8.6437510e+00   0.0000000e+00   0.0000000e+00   0.0000000e+00   0.0000000e+00
   9.6041678e+00  -3.2013893e+00   8.0034732e+00   3.9697227e+01   1.7607641e+01   2.5611114e+00   8.3236121e+00   4.4819450e+00   1.1845140e+01   3.1053476e+01   1.2485418e+01   6.4347924e+01   1.6647224e+01   2.5931253e+01   1.2805557e+01   1.2805557e+00   1.5366668e+01   2.2409725e+01   1.2485418e+01   8.9638899e+00   0.0000000e+00   0.0000000e+00   0.0000000e+00   0.0000000e+00
   1.0244446e+01  -1.6006946e+00   8.9638899e+00   4.0657644e+01   1.7927780e+01   2.2409725e+00   7.6833342e+00   4.4819450e+00   1.1525001e+01   3.0413198e+01   1.3125696e+01   6.4668063e+01   1.6967363e+01   2.5611114e+01   1.2805557e+01   1.2805557e+00   1.5366668e+01   2.1769447e+01   1.1845140e+01   8.9638899e+00   0.0000000e+00   0.0000000e+00   0.0000000e+00   0.0000000e+00
   1.1525001e+01  -6.4027785e-01   9.2840289e+00   4.1618060e+01   1.7927780e+01   1.9208336e+00   6.7229175e+00   4.4819450e+00   1.1204862e+01   2.9452781e+01   1.2805557e+01   6.4027785e+01   1.6967363e+01   2.4970836e+01   1.2805557e+01   6.4027785e-01   1.5046530e+01   2.1129169e+01   1.0884724e+01   8.0034732e+00   0.0000000e+00   0.0000000e+00   0.0000000e+00   0.0000000e+00
   1.2485418e+01   0.0000000e+00   9.6041678e+00   4.2258338e+01   1.7607641e+01   1.2805557e+00   5.7625007e+00   4.1618060e+00   1.0564585e+01   2.8172226e+01   1.1845140e+01   6.3387507e+01   1.6327085e+01   2.4010419e+01   1.2485418e+01   3.2013893e-01   1.4406252e+01   2.0488891e+01   9.6041678e+00   7.0430564e+00   0.0000000e+00   0.0000000e+00   0.0000000e+00   0.0000000e+00
   1.3125696e+01  -3.2013893e-01   9.6041678e+00   4.2258338e+01   1.6967363e+01   9.6041678e-01   4.8020839e+00   3.5215282e+00   9.9243067e+00   2.7531948e+01   1.0564585e+01   6.2106952e+01   1.5366668e+01   2.2729864e+01   1.1525001e+01  -3.2013893e-01   1.3445835e+01   1.9848613e+01   8.0034732e+00   5.7625007e+00   0.0000000e+00   0.0000000e+00   0.0000000e+00   0.0000000e+00
   1.3125696e+01  -9.6041678e-01   9.6041678e+00   4.1297922e+01   1.6006946e+01   0.0000000e+00   3.5215282e+00   2.2409725e+00   8.9638899e+00   2.7211809e+01   9.6041678e+00   6.0826396e+01   1.4406252e+01   2.1129169e+01   1.0564585e+01  -9.6041678e-01   1.2485418e+01   1.9208336e+01   6.0826396e+00   4.1618060e+00   0.0000000e+00   0.0000000e+00   0.0000000e+00   0.0000000e+00
   1.2805557e+01  -1.9208336e+00   9.2840289e+00   4.0337505e+01   1.5046530e+01  -6.4027785e-01   2.2409725e+00   9.6041678e-01   8.3236121e+00   2.7531948e+01   8.9638899e+00   5.9865979e+01   1.4086113e+01   1.9528475e+01   8.9638899e+00  -1.6006946e+00   1.1845140e+01   1.8888197e+01   4.1618060e+00   3.2013893e+00   0.0000000e+00   0.0000000e+00   0.0000000e+00   0.0000000e+00
   1.2165279e+01  -2.8812503e+00   8.9638899e+00   3.8736810e+01   1.3765974e+01  -1.6006946e+00   9.6041678e-01  -9.6041678e-01   7.0430564e+00   2.7531948e+01   8.0034732e+00   5.8585424e+01   1.3125696e+01   1.7287502e+01   7.3631953e+00  -2.2409725e+00   1.0884724e+01   1.8568058e+01   2.2409725e+00   1.6006946e+00   0.0000000e+00   0.0000000e+00   0.0000000e+00   0.0000000e+00
   1.1525001e+01  -3.8416671e+00   8.3236121e+00   3.7456254e+01   1.3125696e+01  -2.5611114e+00  -3.2013893e-01  -2.5611114e+00   5.7625007e+00   2.7211809e+01   6.7229175e+00   5.7625007e+01   1.2165279e+01   1.5046530e+01   6.0826396e+00  -3.2013893e+00   9.9243067e+00   1.8247919e+01   3.2013893e-01   3.2013893e-01   0.0000000e+00   0.0000000e+00   0.0000000e+00   0.0000000e+00
   1.0564585e+01  -4.4819450e+00   7.3631953e+00   3.6175699e+01   1.1845140e+01  -3.8416671e+00  -1.6006946e+00  -3.8416671e+00   4.8020839e+00   2.6251392e+01   5.1222228e+00   5.6664590e+01   1.0884724e+01   1.3125696e+01   4.8020839e+00  -4.4819450e+00   8.6437510e+00   1.8247919e+01  -1.6006946e+00  -1.6006946e+00   0.0000000e+00   0.0000000e+00   0.0000000e+00   0.0000000e+00
   9.6041678e+00  -4.8020839e+00   7.0430564e+00   3.5215282e+01   1.1525001e+01  -5.1222228e+00  -2.5611114e+00  -3.8416671e+00   4.1618060e+00   2.5611114e+01   3.2013893e+00   5.6344451e+01   9.6041678e+00   1.1525001e+01   4.1618060e+00  -5.7625007e+00   7.6833342e+00   1.8247919e+01  -2.8812503e+00  -2.8812503e+00   0.0000000e+00   0.0000000e+00   0.0000000e+00   0.0000000e+00
   8.6437510e+00  -5.1222228e+00   6.7229175e+00   3.4575004e+01   1.0884724e+01  -6.0826396e+00  -3.5215282e+00  -3.8416671e+00   4.4819450e+00   2.4330558e+01   1.9208336e+00   5.6024312e+01   8.3236121e+00   1.0244446e+01   3.5215282e+00  -7.0430564e+00   6.7229175e+00   1.8247919e+01  -4.1618060e+00  -3.8416671e+00   0.0000000e+00   0.0000000e+00   0.0000000e+00   0.0000000e+00
   8.0034732e+00  -5.4423618e+00   6.7229175e+00   3.3934726e+01   1.0244446e+01  -7.0430564e+00  -4.1618060e+00  -3.2013893e+00   5.1222228e+00   2.3690281e+01   1.2805557e+00   5.6344451e+01   8.0034732e+00   9.9243067e+00   3.5215282e+00  -7.6833342e+00   6.4027785e+00   1.7927780e+01  -5.1222228e+00  -3.5215282e+00   0.0000000e+00   0.0000000e+00   0.0000000e+00   0.0000000e+00
   7.3631953e+00  -5.7625007e+00   6.7229175e+00   3.3614587e+01   9.9243067e+00  -7.6833342e+00  -4.1618060e+00  -2.5611114e+00   6.0826396e+00   2.3690281e+01   1.2805557e+00   5.6984729e+01   8.0034732e+00   9.9243067e+00   3.5215282e+00  -8.3236121e+00   6.0826396e+00   1.7607641e+01  -6.0826396e+00  -2.8812503e+00   0.0000000e+00   0.0000000e+00   0.0000000e+00   0.0000000e+00
   8.0034732e+00  -6.0826396e+00   7.0430564e+00   3.3934726e+01   1.0244446e+01  -7.6833342e+00  -3.5215282e+00  -1.9208336e+00   7.6833342e+00   2.4330558e+01   2.2409725e+00   5.7625007e+01   8.6437510e+00   1.0884724e+01   4.1618060e+00  -8.0034732e+00   6.4027785e+00   1.7927780e+01  -5.7625007e+00  -1.6006946e+00   0.0000000e+00   0.0000000e+00   0.0000000e+00   0.0000000e+00
   8.3236121e+00  -6.4027785e+00   6.7229175e+00   3.4575004e+01   1.0564585e+01  -7.6833342e+00  -2.8812503e+00  -1.2805557e+00   8.6437510e+00   2.5290975e+01   2.5611114e+00   5.8265285e+01   9.2840289e+00   1.1845140e+01   4.8020839e+00  -7.6833342e+00   6.7229175e+00   1.7607641e+01  -5.1222228e+00  -6.4027785e-01   0.0000000e+00   0.0000000e+00   0.0000000e+00   0.0000000e+00
   9.6041678e+00  -6.0826396e+00   6.7229175e+00   3.5855560e+01   1.1204862e+01  -7.3631953e+00  -1.6006946e+00  -9.6041678e-01   9.6041678e+00   2.6251392e+01   2.5611114e+00   5.8905562e+01   9.9243067e+00   1.3125696e+01   5.7625007e+00  -7.0430564e+00   7.3631953e+00   1.7607641e+01  -3.8416671e+00   3.2013893e-01   0.0000000e+00   0.0000000e+00   0.0000000e+00   0.0000000e+00
   1.0564585e+01  -5.7625007e+00   6.4027785e+00   3.6495838e+01   1.1204862e+01  -7.0430564e+00  -9.6041678e-01  -6.4027785e-01   1.0244446e+01   2.6571531e+01   1.9208336e+00   5.9225701e+01   1.0244446e+01   1.3765974e+01   6.4027785e+00  -7.0430564e+00   7.3631953e+00   1.6647224e+01  -2.8812503e+00   3.2013893e-01   0.0000000e+00   0.0000000e+00   0.0000000e+00   0.0000000e+00
   1.1525001e+01  -4.8020839e+00   6.0826396e+00   3.7456254e+01   1.1845140e+01  -6.7229175e+00  -3.2013893e-01  -3.2013893e-01   1.0564585e+01   2.7211809e+01   1.2805557e+00   5.9865979e+01   1.0564585e+01   1.4726391e+01   7.0430564e+00  -6.7229175e+00   8.0034732e+00   1.6006946e+01  -1.6006946e+00   6.4027785e-01   0.0000000e+00   0.0000000e+00   0.0000000e+00   0.0000000e+00
   1.2805557e+01  -3.5215282e+00   6.0826396e+00   3.8736810e+01   1.2805557e+01  -6.0826396e+00   6.4027785e-01   0.0000000e+00   1.1525001e+01   2.8172226e+01   1.9208336e+00   6.0826396e+01   1.1845140e+01   1.6006946e+01   8.3236121e+00  -6.0826396e+00   8.9638899e+00   1.5366668e+01  -3.2013893e-01   1.2805557e+00   0.0000000e+00   0.0000000e+00   0.0000000e+00   0.0000000e+00
   1.4086113e+01  -2.8812503e+00   6.0826396e+00   3.9697227e+01   1.4086113e+01  -5.1222228e+00   1.9208336e+00   6.4027785e-01   1.2485418e+01   2.9452781e+01   3.2013893e+00   6.2427091e+01   1.3765974e+01   1.7607641e+01   9.6041678e+00  -5.1222228e+00   1.0564585e+01   1.5366668e+01   6.4027785e-01   2.2409725e+00   0.0000000e+00   0.0000000e+00   0.0000000e+00   0.0000000e+00
   1.5366668e+01  -1.9208336e+00   6.4027785e+00   4.0977783e+01   1.5686807e+01  -3.5215282e+00   3.5215282e+00   1.2805557e+00   1.3445835e+01   3.0413198e+01   4.8020839e+00   6.4027785e+01   1.6006946e+01   1.9208336e+01   1.0884724e+01  -3.8416671e+00   1.2485418e+01   1.5686807e+01   1.6006946e+00   3.5215282e+00   0.0000000e+00   0.0000000e+00   0.0000000e+00   0.0000000e+00
   1.6006946e+01  -9.6041678e-01   6.4027785e+00   4.1938199e+01   1.7287502e+01  -2.2409725e+00   5.4423618e+00   1.9208336e+00   1.3765974e+01   3.1053476e+01   6.0826396e+00   6.5628480e+01   1.7927780e+01   2.0809030e+01   1.1845140e+01  -2.5611114e+00   1.4726391e+01   1.6327085e+01   2.8812503e+00   4.4819450e+00   0.0000000e+00   0.0000000e+00   0.0000000e+00   0.0000000e+00
   1.7287502e+01   3.2013893e-01   6.7229175e+00   4.3538894e+01   1.9528475e+01   0.0000000e+00   7.3631953e+00   2.8812503e+00   1.4406252e+01   3.1373615e+01   7.3631953e+00   6.6909036e+01   2.0168752e+01   2.2409725e+01   1.3125696e+01  -1.2805557e+00   1.6647224e+01   1.7607641e+01   4.8020839e+00   5.4423618e+00   0.0000000e+00   0.0000000e+00   0.0000000e+00   0.0000000e+00
   1.8247919e+01   2.5611114e+00   7.0430564e+00   4.4819450e+01   2.1769447e+01   1.9208336e+00   9.2840289e+00   3.5215282e+00   1.4726391e+01   3.1373615e+01   7.6833342e+00   6.7549313e+01   2.1769447e+01   2.4330558e+01   1.4406252e+01   0.0000000e+00   1.8568058e+01   1.9208336e+01   6.7229175e+00   6.4027785e+00   0.0000000e+00   0.0000000e+00   0.0000000e+00   0.0000000e+00
   1.8888197e+01   4.8020839e+00   7.3631953e+00   4.5779866e+01   2.3690281e+01   3.8416671e+00   1.0244446e+01   4.1618060e+00   1.5046530e+01   3.2013893e+01   8.0034732e+00   6.7869452e+01   2.2729864e+01   2.5290975e+01   1.5686807e+01   6.4027785e-01   2.0168752e+01   2.0809030e+01   8.0034732e+00   6.7229175e+00   0.0000000e+00   0.0000000e+00   0.0000000e+00   0.0000000e+00
   1.9208336e+01   7.0430564e+00   7.6833342e+00   4.6420144e+01   2.4970836e+01   5.4423618e+00   1.1204862e+01   4.8020839e+00   1.5686807e+01   3.2974309e+01   8.9638899e+00   6.8509730e+01   2.4010419e+01   2.6571531e+01   1.6967363e+01   1.2805557e+00   2.1769447e+01   2.2729864e+01   8.9638899e+00   7.6833342e+00   0.0000000e+00   0.0000000e+00   0.0000000e+00   0.0000000e+00
   1.8247919e+01   7.6833342e+00   7.0430564e+00   4.5779866e+01   2.4650697e+01   5.7625007e+00   1.0884724e+01   4.4819450e+00   1.5686807e+01   3.3614587e+01   9.9243067e+00   6.8509730e+01   2.4330558e+01   2.6891670e+01   1.7287502e+01   1.2805557e+00   2.2089586e+01   2.3690281e+01   8.6437510e+00   7.6833342e+00   0.0000000e+00   0.0000000e+00   0.0000000e+00   0.0000000e+00
   1.6006946e+01   6.7229175e+00   5.1222228e+00   4.3859033e+01   2.3690281e+01   4.8020839e+00   9.6041678e+00   3.2013893e+00   1.5046530e+01   3.3294448e+01   9.9243067e+00   6.7869452e+01   2.4010419e+01   2.6251392e+01   1.6647224e+01   6.4027785e-01   2.2089586e+01   2.4010419e+01   7.6833342e+00   7.0430564e+00   0.0000000e+00   0.0000000e+00   0.0000000e+00   0.0000000e+00
   1.4086113e+01   5.4423618e+00   3.8416671e+00   4.2578477e+01   2.2729864e+01   4.8020839e+00   8.6437510e+00   2.2409725e+00   1.4726391e+01   3.3294448e+01   1.0244446e+01   6.7229175e+01   2.3690281e+01   2.6251392e+01   1.6006946e+01   0.0000000e+00   2.1769447e+01   2.4650697e+01   7.0430564e+00   6.7229175e+00   0.0000000e+00   0.0000000e+00   0.0000000e+00   0.0000000e+00
   1.1845140e+01   3.2013893e+00   1.9208336e+00   4.1297922e+01   2.2089586e+01   4.8020839e+00   7.6833342e+00   9.6041678e-01   1.4086113e+01   3.2654171e+01   9.9243067e+00   6.6588897e+01   2.3690281e+01   2.5931253e+01   1.5046530e+01  -9.6041678e-01   2.1769447e+01   2.5290975e+01   6.7229175e+00   6.0826396e+00   0.0000000e+00   0.0000000e+00   0.0000000e+00   0.0000000e+00
   1.1204862e+01   1.9208336e+00   9.6041678e-01   4.1297922e+01   2.2409725e+01   6.0826396e+00   7.6833342e+00   6.4027785e-01   1.4406252e+01   3.2654171e+01   9.6041678e+00   6.5948619e+01   2.4330558e+01   2.6251392e+01   1.5046530e+01  -1.2805557e+00   2.2089586e+01   2.6251392e+01   7.3631953e+00   5.7625007e+00   0.0000000e+00   0.0000000e+00   0.0000000e+00   0.0000000e+00
   1.1845140e+01   1.2805557e+00   0.0000000e+00   4.1618060e+01   2.3370142e+01   8.0034732e+00   7.6833342e+00   3.2013893e-01   1.5046530e+01   3.2974309e+01   9.9243067e+00   6.5948619e+01   2.5290975e+01   2.7211809e+01   1.5686807e+01  -1.2805557e+00   2.2729864e+01   2.7211809e+01   8.3236121e+00   5.7625007e+00   0.0000000e+00   0.0000000e+00   0.0000000e+00   0.0000000e+00
   1.2805557e+01   3.2013893e-01  -1.2805557e+00   4.1297922e+01   2.3690281e+01   8.6437510e+00   7.0430564e+00  -6.4027785e-01   1.5366668e+01   3.3294448e+01   9.2840289e+00   6.5628480e+01   2.5931253e+01   2.7852087e+01   1.5366668e+01  -1.6006946e+00   2.2729864e+01   2.7211809e+01   8.3236121e+00   5.1222228e+00   0.0000000e+00   0.0000000e+00   0.0000000e+00   0.0000000e+00
   1.4406252e+01   0.0000000e+00  -1.6006946e+00   4.1297922e+01   2.4010419e+01   8.9638899e+00   6.4027785e+00  -3.2013893e-01   1.6327085e+01   3.4254865e+01   9.6041678e+00   6.5948619e+01   2.6571531e+01   2.8492364e+01   1.5686807e+01  -1.6006946e+00   2.2729864e+01   2.7211809e+01   8.3236121e+00   5.7625007e+00   0.0000000e+00   0.0000000e+00   0.0000000e+00   0.0000000e+00
   1.5366668e+01  -1.2805557e+00  -2.5611114e+00   4.0657644e+01   2.3370142e+01   8.0034732e+00   5.4423618e+00  -6.4027785e-01   1.6647224e+01   3.4575004e+01   9.2840289e+00   6.5948619e+01   2.6571531e+01   2.7852087e+01   1.5366668e+01  -1.6006946e+00   2.2089586e+01   2.6251392e+01   7.3631953e+00   5.7625007e+00   0.0000000e+00   0.0000000e+00   0.0000000e+00   0.0000000e+00
   1.6327085e+01  -2.5611114e+00  -2.5611114e+00   4.0977783e+01   2.3050003e+01   7.0430564e+00   4.8020839e+00   0.0000000e+00   1.7287502e+01   3.5535421e+01   8.9638899e+00   6.6268758e+01   2.6571531e+01   2.7852087e+01   1.5046530e+01  -9.6041678e-01   2.1769447e+01   2.5611114e+01   7.0430564e+00   6.4027785e+00   0.0000000e+00   0.0000000e+00   0.0000000e+00   0.0000000e+00
   1.6967363e+01  -3.2013893e+00  -2.5611114e+00   4.1938199e+01   2.2729864e+01   6.0826396e+00   4.8020839e+00   1.2805557e+00   1.7927780e+01   3.5855560e+01   8.3236121e+00   6.7229175e+01   2.6571531e+01   2.7211809e+01   1.5046530e+01  -3.2013893e-01   2.1129169e+01   2.4330558e+01   6.7229175e+00   7.3631953e+00   0.0000000e+00   0.0000000e+00   0.0000000e+00   0.0000000e+00
   1.7607641e+01  -3.2013893e+00  -1.9208336e+00   4.3218755e+01   2.3050003e+01   5.7625007e+00   5.1222228e+00   2.5611114e+00   1.8888197e+01   3.6175699e+01   7.6833342e+00   6.8509730e+01   2.6571531e+01   2.7211809e+01   1.5686807e+01   3.2013893e-01   2.0809030e+01   2.3050003e+01   7.0430564e+00   8.0034732e+00   0.0000000e+00   0.0000000e+00   0.0000000e+00   0.0000000e+00
   1.8247919e+01  -2.5611114e+00  -1.2805557e+00   4.4499311e+01   2.3050003e+01   5.7625007e+00   6.4027785e+00   4.1618060e+00   1.9528475e+01   3.6175699e+01   7.6833342e+00   6.9470147e+01   2.6571531e+01   2.7531948e+01   1.6647224e+01   1.2805557e+00   2.0809030e+01   2.2089586e+01   7.6833342e+00   9.2840289e+00   0.0000000e+00   0.0000000e+00   0.0000000e+00   0.0000000e+00
   1.8888197e+01  -9.6041678e-01   0.0000000e+00   4.5139589e+01   2.3370142e+01   6.0826396e+00   7.6833342e+00   5.4423618e+00   2.0488891e+01   3.6175699e+01   8.6437510e+00   7.0110425e+01   2.6891670e+01   2.8172226e+01   1.8247919e+01   2.2409725e+00   2.1129169e+01   2.1129169e+01   8.6437510e+00   1.0564585e+01   0.0000000e+00   0.0000000e+00   0.0000000e+00   0.0000000e+00
   1.7927780e+01   3.2013893e-01   6.4027785e-01   4.4499311e+01   2.2729864e+01   5.7625007e+00   8.3236121e+00   6.0826396e+00   2.0488891e+01   3.5215282e+01   9.6041678e+00   6.9790286e+01   2.6251392e+01   2.8492364e+01   1.9528475e+01   2.5611114e+00   2.0488891e+01   1.9848613e+01   8.9638899e+00   1.1845140e+01   0.0000000e+00   0.0000000e+00   0.0000000e+00   0.0000000e+00
   1.6647224e+01   1.2805557e+00   1.6006946e+00   4.2898616e+01   2.1769447e+01   5.1222228e+00   9.2840289e+00   6.7229175e+00   1.9848613e+01   3.4254865e+01   1.1204862e+01   6.8829869e+01   2.5611114e+01   2.8812503e+01   2.0809030e+01   3.2013893e+00   2.0168752e+01   1.8888197e+01   9.6041678e+00   1.3125696e+01   0.0000000e+00   0.0000000e+00   0.0000000e+00   0.0000000e+00
   1.5046530e+01   1.6006946e+00   2.2409725e+00   4.1618060e+01   2.0809030e+01   4.4819450e+00   9.9243067e+00   7.0430564e+00   1.8568058e+01   3.3294448e+01   1.2165279e+01   6.7549313e+01   2.4330558e+01   2.8492364e+01   2.1769447e+01   3.8416671e+00   1.9528475e+01   1.8247919e+01   1.0244446e+01   1.4406252e+01   0.0000000e+00   0.0000000e+00   0.0000000e+00   0.0000000e+00
   1.3125696e+01   1.6006946e+00   2.8812503e+00   4.0017366e+01   1.9528475e+01   3.5215282e+00   1.0244446e+01   7.6833342e+00   1.6647224e+01   3.2013893e+01   1.1845140e+01   6.5628480e+01   2.2729864e+01   2.7531948e+01   2.1769447e+01   4.4819450e+00   1.8888197e+01   1.7287502e+01   1.0564585e+01   1.5046530e+01   0.0000000e+00   0.0000000e+00   0.0000000e+00   0.0000000e+00
   1.1525001e+01   1.2805557e+00   3.2013893e+00   3.8736810e+01   1.8568058e+01   2.8812503e+00   1.0564585e+01   8.3236121e+00   1.4726391e+01   3.0413198e+01   1.1204862e+01   6.3707646e+01   2.0809030e+01   2.6571531e+01   2.1449308e+01   4.1618060e+00   1.7607641e+01   1.6647224e+01   1.0884724e+01   1.5046530e+01   0.0000000e+00   0.0000000e+00   0.0000000e+00   0.0000000e+00
   1.0564585e+01   9.6041678e-01   3.5215282e+00   3.8096532e+01   1.8247919e+01   2.5611114e+00   1.0884724e+01   8.6437510e+00   1.3125696e+01   2.9772920e+01   1.0564585e+01   6.2106952e+01   1.9528475e+01   2.5611114e+01   2.1449308e+01   3.8416671e+00   1.6647224e+01   1.6647224e+01   1.1525001e+01   1.4726391e+01   0.0000000e+00   0.0000000e+00   0.0000000e+00   0.0000000e+00
   9.9243067e+00   6.4027785e-01   3.2013893e+00   3.6495838e+01   1.7607641e+01   1.6006946e+00   1.0564585e+01   8.6437510e+00   1.1845140e+01   3.0093059e+01   1.0564585e+01   6.0506257e+01   1.8568058e+01   2.4330558e+01   2.0488891e+01   2.5611114e+00   1.5686807e+01   1.6327085e+01   1.1204862e+01   1.4086113e+01   0.0000000e+00   0.0000000e+00   0.0000000e+00   0.0000000e+00
   8.9638899e+00   0.0000000e+00   2.8812503e+00   3.4575004e+01   1.6647224e+01   3.2013893e-01   1.0244446e+01   7.6833342e+00   1.0564585e+01   3.1373615e+01   1.0884724e+01   5.8905562e+01   1.7607641e+01   2.2729864e+01   1.9528475e+01   1.6006946e+00   1.5046530e+01   1.6647224e+01   1.0564585e+01   1.3445835e+01   0.0000000e+00   0.0000000e+00   0.0000000e+00   0.0000000e+00
   7.6833342e+00  -9.6041678e-01   2.2409725e+00   3.2334032e+01   1.5366668e+01  -1.6006946e+00   8.6437510e+00   5.7625007e+00   8.6437510e+00   3.3614587e+01   1.0564585e+01   5.7304868e+01   1.6327085e+01   2.0488891e+01   1.7287502e+01  -3.2013893e-01   1.3445835e+01   1.6647224e+01   8.9638899e+00   1.2165279e+01   0.0000000e+00   0.0000000e+00   0.0000000e+00   0.0000000e+00
   6.4027785e+00  -9.6041678e-01   2.2409725e+00   3.0733337e+01   1.4086113e+01  -3.2013893e+00   7.3631953e+00   4.4819450e+00   7.6833342e+00   3.6175699e+01   1.0244446e+01   5.6024312e+01   1.5046530e+01   1.8568058e+01   1.5366668e+01  -1.2805557e+00   1.2485418e+01   1.6967363e+01   7.3631953e+00   1.0884724e+01   0.0000000e+00   0.0000000e+00   0.0000000e+00   0.0000000e+00
   5.1222228e+00  -1.2805557e+00   1.9208336e+00   2.9772920e+01   1.3125696e+01  -5.4423618e+00   6.0826396e+00   3.2013893e+00   6.4027785e+00   3.6495838e+01   8.6437510e+00   5.4743756e+01   1.3445835e+01   1.5686807e+01   1.3125696e+01  -2.5611114e+00   1.1204862e+01   1.6647224e+01   5.7625007e+00   9.2840289e+00   0.0000000e+00   0.0000000e+00   0.0000000e+00   0.0000000e+00
   4.1618060e+00  -1.2805557e+00   1.9208336e+00   2.9772920e+01   1.2805557e+01  -6.4027785e+00   5.1222228e+00   2.5611114e+00   6.0826396e+00   3.4895143e+01   7.0430564e+00   5.4743756e+01   1.2485418e+01   1.3765974e+01   1.1204862e+01  -3.8416671e+00   1.0244446e+01   1.6327085e+01   4.8020839e+00   8.0034732e+00   0.0000000e+00   0.0000000e+00   0.0000000e+00   0.0000000e+00
   3.2013893e+00  -1.2805557e+00   2.2409725e+00   3.0093059e+01   1.2485418e+01  -7.0430564e+00   4.8020839e+00   2.5611114e+00   6.0826396e+00   3.1373615e+01   5.7625007e+00   5.5063895e+01   1.1845140e+01   1.2165279e+01   1.0244446e+01  -4.8020839e+00   9.2840289e+00   1.5686807e+01   4.1618060e+00   6.7229175e+00   0.0000000e+00   0.0000000e+00   0.0000000e+00   0.0000000e+00
   2.2409725e+00  -1.6006946e+00   2.5611114e+00   3.0093059e+01   1.2485418e+01  -7.3631953e+00   4.4819450e+00   2.8812503e+00   6.7229175e+00   2.7531948e+01   5.1222228e+00   5.5704173e+01   1.1525001e+01   1.1845140e+01   9.6041678e+00  -5.4423618e+00   8.9638899e+00   1.4726391e+01   3.8416671e+00   6.0826396e+00   0.0000000e+00   0.0000000e+00   0.0000000e+00   0.0000000e+00
   1.9208336e+00  -1.6006946e+00   2.8812503e+00   3.0093059e+01   1.2165279e+01  -7.3631953e+00   4.1618060e+00   3.2013893e+00   7.3631953e+00   2.4650697e+01   5.4423618e+00   5.6344451e+01   1.1845140e+01   1.1845140e+01   9.2840289e+00  -5.4423618e+00   8.9638899e+00   1.4086113e+01   3.8416671e+00   5.7625007e+00   0.0000000e+00   0.0000000e+00   0.0000000e+00   0.0000000e+00
   1.6006946e+00  -2.2409725e+00   2.8812503e+00   2.9772920e+01   1.1845140e+01  -7.6833342e+00   3.5215282e+00   2.8812503e+00   7.6833342e+00   2.2729864e+01   6.0826396e+00   5.6664590e+01   1.2165279e+01   1.1845140e+01   8.6437510e+00  -5.1222228e+00   8.9638899e+00   1.3125696e+01   3.5215282e+00   5.7625007e+00   0.0000000e+00   0.0000000e+00   0.0000000e+00   0.0000000e+00
   2.5611114e+00  -2.5611114e+00   3.2013893e+00   3.0093059e+01   1.2165279e+01  -7.3631953e+00   3.5215282e+00   3.2013893e+00   8.3236121e+00   2.2089586e+01   7.0430564e+00   5.7304868e+01   1.2805557e+01   1.2485418e+01   8.6437510e+00  -4.1618060e+00   9.2840289e+00   1.2805557e+01   4.1618060e+00   6.0826396e+00   0.0000000e+00   0.0000000e+00   0.0000000e+00   0.0000000e+00
   4.4819450e+00  -2.2409725e+00   4.1618060e+00   3.0733337e+01   1.2805557e+01  -6.7229175e+00   3.8416671e+00   3.5215282e+00   8.9638899e+00   2.0809030e+01   8.0034732e+00   5.8265285e+01   1.3765974e+01   1.3125696e+01   8.9638899e+00  -3.5215282e+00   9.9243067e+00   1.2165279e+01   5.1222228e+00   6.7229175e+00   0.0000000e+00   0.0000000e+00   0.0000000e+00   0.0000000e+00
   7.0430564e+00  -1.2805557e+00   5.1222228e+00   3.2013893e+01   1.4086113e+01  -5.4423618e+00   5.1222228e+00   4.4819450e+00   9.9243067e+00   2.0168752e+01   8.3236121e+00   5.9865979e+01   1.5046530e+01   1.4406252e+01   9.9243067e+00  -2.2409725e+00   1.0884724e+01   1.2165279e+01   6.7229175e+00   7.6833342e+00   0.0000000e+00   0.0000000e+00   0.0000000e+00   0.0000000e+00
   8.9638899e+00  -3.2013893e-01   5.7625007e+00   3.3294448e+01   1.4726391e+01  -4.8020839e+00   5.7625007e+00   5.1222228e+00   1.0564585e+01   1.9208336e+01   8.0034732e+00   6.1146535e+01   1.6006946e+01   1.5366668e+01   1.0244446e+01  -1.9208336e+00   1.1845140e+01   1.1525001e+01   8.0034732e+00   7.6833342e+00   0.0000000e+00   0.0000000e+00   0.0000000e+00   0.0000000e+00
   9.6041678e+00   3.2013893e-01   5.4423618e+00   3.3614587e+01   1.4726391e+01  -4.4819450e+00   5.4423618e+00   4.8020839e+00   1.0884724e+01   1.8888197e+01   7.3631953e+00   6.2106952e+01   1.6647224e+01   1.5686807e+01   9.6041678e+00  -2.2409725e+00   1.1845140e+01   1.0564585e+01   8.3236121e+00   7.0430564e+00   0.0000000e+00   0.0000000e+00   0.0000000e+00   0.0000000e+00
   8.9638899e+00   0.0000000e+00   4.8020839e+00   3.3294448e+01   1.3765974e+01  -5.1222228e+00   4.8020839e+00   3.2013893e+00   1.0884724e+01   1.9528475e+01   6.7229175e+00   6.3067369e+01   1.6967363e+01   1.5686807e+01   8.3236121e+00  -3.2013893e+00   1.1845140e+01   9.9243067e+00   7.3631953e+00   6.0826396e+00   0.0000000e+00   0.0000000e+00   0.0000000e+00   0.0000000e+00
   8.0034732e+00  -6.4027785e-01   3.8416671e+00   3.2974309e+01   1.3125696e+01  -6.0826396e+00   3.5215282e+00   1.6006946e+00   1.0564585e+01   2.1449308e+01   6.4027785e+00   6.3387507e+01   1.7607641e+01   1.5046530e+01   6.7229175e+00  -4.1618060e+00   1.1525001e+01   9.2840289e+00   6.4027785e+00   4.8020839e+00   0.0000000e+00   0.0000000e+00   0.0000000e+00   0.0000000e+00
   6.7229175e+00  -1.9208336e+00   2.2409725e+00   3.2334032e+01   1.2165279e+01  -7.3631953e+00   1.9208336e+00  -9.6041678e-01   9.9243067e+00   2.2729864e+01   6.0826396e+00   6.3387507e+01   1.7287502e+01   1.3765974e+01   4.8020839e+00  -5.4423618e+00   1.0884724e+01   8.6437510e+00   4.8020839e+00   3.2013893e+00   0.0000000e+00   0.0000000e+00   0.0000000e+00   0.0000000e+00
   5.4423618e+00  -3.2013893e+00   9.6041678e-01   3.1693754e+01   1.1845140e+01  -8.6437510e+00   9.6041678e-01  -2.8812503e+00   9.2840289e+00   2.3050003e+01   5.1222228e+00   6.2747230e+01   1.6967363e+01   1.2165279e+01   3.2013893e+00  -6.7229175e+00   1.0244446e+01   8.0034732e+00   3.2013893e+00   1.6006946e+00   0.0000000e+00   0.0000000e+00   0.0000000e+00   0.0000000e+00
   5.4423618e+00  -3.8416671e+00   3.2013893e-01   3.2334032e+01   1.2165279e+01  -8.9638899e+00   6.4027785e-01  -3.8416671e+00   8.6437510e+00   2.2729864e+01   4.4819450e+00   6.2747230e+01   1.6647224e+01   1.1525001e+01   2.5611114e+00  -7.3631953e+00   1.0244446e+01   8.6437510e+00   2.5611114e+00   3.2013893e-01   0.0000000e+00   0.0000000e+00   0.0000000e+00   0.0000000e+00
   5.1222228e+00  -4.1618060e+00  -3.2013893e-01   3.2654171e+01   1.2805557e+01  -9.6041678e+00   3.2013893e-01  -4.4819450e+00   8.0034732e+00   2.1449308e+01   3.2013893e+00   6.2106952e+01   1.5686807e+01   1.0564585e+01   1.9208336e+00  -8.3236121e+00   9.9243067e+00   9.2840289e+00   1.9208336e+00  -9.6041678e-01   0.0000000e+00   0.0000000e+00   0.0000000e+00   0.0000000e+00
   5.4423618e+00  -3.8416671e+00  -3.2013893e-01   3.2974309e+01   1.3445835e+01  -9.6041678e+00   3.2013893e-01  -4.1618060e+00   7.6833342e+00   2.0168752e+01   2.2409725e+00   6.1466674e+01   1.5046530e+01   1.0244446e+01   2.2409725e+00  -8.6437510e+00   9.6041678e+00   1.0564585e+01   1.2805557e+00  -1.6006946e+00   0.0000000e+00   0.0000000e+00   0.0000000e+00   0.0000000e+00
   5.7625007e+00  -3.5215282e+00   3.2013893e-01   3.3294448e+01   1.3765974e+01  -9.6041678e+00   3.2013893e-01  -3.2013893e+00   7.3631953e+00   1.9208336e+01   1.9208336e+00   6.0826396e+01   1.4726391e+01   9.9243067e+00   2.2409725e+00  -8.3236121e+00   9.9243067e+00   1.1845140e+01   9.6041678e-01  -1.6006946e+00   0.0000000e+00   0.0000000e+00   0.0000000e+00   0.0000000e+00
   6.0826396e+00  -3.2013893e+00   9.6041678e-01   3.3614587e+01   1.4086113e+01  -9.6041678e+00   6.4027785e-01  -2.2409725e+00   7.3631953e+00   1.8568058e+01   2.5611114e+00   6.0186118e+01   1.4726391e+01   9.9243067e+00   2.5611114e+00  -7.3631953e+00   9.9243067e+00   1.3445835e+01   6.4027785e-01  -9.6041678e-01   0.0000000e+00   0.0000000e+00   0.0000000e+00   0.0000000e+00
   5.7625007e+00  -2.8812503e+00   1.6006946e+00   3.3934726e+01   1.3765974e+01  -9.2840289e+00   6.4027785e-01  -9.6041678e-01   7.0430564e+00   1.8568058e+01   3.2013893e+00   5.9865979e+01   1.4726391e+01   9.6041678e+00   2.5611114e+00  -6.0826396e+00   9.9243067e+00   1.4406252e+01   3.2013893e-01   0.0000000e+00   0.0000000e+00   0.0000000e+00   0.0000000e+00   0.0000000e+00
   5.7625007e+00  -2.2409725e+00   2.5611114e+00   3.4575004e+01   1.3765974e+01  -8.9638899e+00   9.6041678e-01   6.4027785e-01   6.7229175e+00   1.8888197e+01   4.4819450e+00   5.9225701e+01   1.4406252e+01   9.2840289e+00   2.5611114e+00  -4.4819450e+00   9.9243067e+00   1.5366668e+01   3.2013893e-01   9.6041678e-01   0.0000000e+00   0.0000000e+00   0.0000000e+00   0.0000000e+00
   6.0826396e+00  -3.2013893e-01   3.2013893e+00   3.5535421e+01   1.4086113e+01  -8.3236121e+00   1.6006946e+00   2.2409725e+00   6.7229175e+00   1.9848613e+01   5.4423618e+00   5.8905562e+01   1.4086113e+01   8.9638899e+00   2.8812503e+00  -3.2013893e+00   9.9243067e+00   1.6006946e+01   6.4027785e-01   1.6006946e+00   0.0000000e+00   0.0000000e+00   0.0000000e+00   0.0000000e+00
   6.7229175e+00   2.2409725e+00   3.8416671e+00   3.6495838e+01   1.4086113e+01  -8.0034732e+00   2.2409725e+00   3.8416671e+00   6.7229175e+00   2.0488891e+01   5.7625007e+00   5.8585424e+01   1.3445835e+01   8.6437510e+00   2.8812503e+00  -2.5611114e+00   9.6041678e+00   1.6327085e+01   9.6041678e-01   2.2409725e+00   0.0000000e+00   0.0000000e+00   0.0000000e+00   0.0000000e+00
   6.7229175e+00   4.1618060e+00   4.1618060e+00   3.6495838e+01   1.4086113e+01  -7.6833342e+00   2.5611114e+00   4.8020839e+00   6.7229175e+00   2.1129169e+01   6.0826396e+00   5.8265285e+01   1.2805557e+01   8.3236121e+00   2.8812503e+00  -2.5611114e+00   9.2840289e+00   1.5686807e+01   9.6041678e-01   2.5611114e+00   0.0000000e+00   0.0000000e+00   0.0000000e+00   0.0000000e+00
   6.0826396e+00   4.4819450e+00   4.4819450e+00   3.5855560e+01   1.3765974e+01  -7.6833342e+00   2.5611114e+00   4.8020839e+00   7.3631953e+00   2.1129169e+01   5.7625007e+00   5.7945146e+01   1.2485418e+01   7.6833342e+00   2.5611114e+00  -2.8812503e+00   8.6437510e+00   1.4726391e+01   3.2013893e-01   2.5611114e+00   0.0000000e+00   0.0000000e+00   0.0000000e+00   0.0000000e+00
   5.1222228e+00   3.5215282e+00   4.8020839e+00   3.5215282e+01   1.3765974e+01  -7.3631953e+00   2.8812503e+00   4.8020839e+00   8.3236121e+00   2.1129169e+01   6.0826396e+00   5.8265285e+01   1.2805557e+01   7.3631953e+00   2.5611114e+00  -2.8812503e+00   8.9638899e+00   1.3445835e+01  -3.2013893e-01   3.2013893e+00   0.0000000e+00   0.0000000e+00   0.0000000e+00   0.0000000e+00
   3.8416671e+00   1.6006946e+00   5.1222228e+00   3.4254865e+01   1.3765974e+01  -7.0430564e+00   2.8812503e+00   4.4819450e+00   9.2840289e+00   2.0488891e+01   5.7625007e+00   5.8585424e+01   1.3445835e+01   7.0430564e+00   2.5611114e+00  -2.8812503e+00   8.9638899e+00   1.1845140e+01  -6.4027785e-01   3.2013893e+00   0.0000000e+00   0.0000000e+00   0.0000000e+00   0.0000000e+00
   3.5215282e+00   9.6041678e-01   5.4423618e+00   3.4575004e+01   1.4086113e+01  -5.7625007e+00   3.2013893e+00   4.4819450e+00   1.0244446e+01   2.0168752e+01   5.4423618e+00   5.9225701e+01   1.4086113e+01   7.3631953e+00   2.5611114e+00  -3.5215282e+00   9.6041678e+00   1.0564585e+01   0.0000000e+00   3.5215282e+00   0.0000000e+00   0.0000000e+00   0.0000000e+00   0.0000000e+00
   3.2013893e+00   1.6006946e+00   5.1222228e+00   3.4895143e+01   1.4726391e+01  -4.4819450e+00   3.5215282e+00   4.1618060e+00   1.0564585e+01   1.9208336e+01   4.4819450e+00   5.9545840e+01   1.4086113e+01   8.0034732e+00   2.8812503e+00  -4.4819450e+00   9.9243067e+00   9.2840289e+00   6.4027785e-01   2.8812503e+00   0.0000000e+00   0.0000000e+00   0.0000000e+00   0.0000000e+00
   3.5215282e+00   2.8812503e+00   5.4423618e+00   3.5535421e+01   1.5686807e+01  -2.8812503e+00   4.1618060e+00   4.4819450e+00   1.0884724e+01   1.8568058e+01   3.2013893e+00   5.9865979e+01   1.4726391e+01   8.6437510e+00   3.5215282e+00  -5.1222228e+00   1.0564585e+01   8.6437510e+00   1.6006946e+00   2.5611114e+00   0.0000000e+00   0.0000000e+00   0.0000000e+00   0.0000000e+00
   4.1618060e+00   3.8416671e+00   5.7625007e+00   3.6495838e+01   1.6967363e+01  -1.2805557e+00   4.4819450e+00   5.1222228e+00   1.0884724e+01   1.8568058e+01   2.5611114e+00   6.0506257e+01   1.5686807e+01   9.6041678e+00   4.1618060e+00  -5.1222228e+00   1.1525001e+01   8.9638899e+00   2.8812503e+00   2.8812503e+00   0.0000000e+00   0.0000000e+00   0.0000000e+00   0.0000000e+00
   4.8020839e+00   3.2013893e+00   6.0826396e+00   3.6495838e+01   1.7607641e+01   0.0000000e+00   4.8020839e+00   5.4423618e+00   1.0884724e+01   1.8568058e+01   2.5611114e+00   6.0826396e+01   1.6647224e+01   1.0564585e+01   5.1222228e+00  -4.4819450e+00   1.2485418e+01   9.2840289e+00   3.5215282e+00   3.8416671e+00   0.0000000e+00   0.0000000e+00   0.0000000e+00   0.0000000e+00
   5.4423618e+00   1.9208336e+00   6.7229175e+00   3.6495838e+01   1.8247919e+01   1.2805557e+00   5.4423618e+00   6.0826396e+00   1.0884724e+01   1.9208336e+01   3.5215282e+00   6.1466674e+01   1.7927780e+01   1.1525001e+01   6.0826396e+00  -2.8812503e+00   1.3445835e+01   1.0244446e+01   4.4819450e+00   5.4423618e+00   0.0000000e+00   0.0000000e+00   0.0000000e+00   0.0000000e+00
   6.4027785e+00   9.6041678e-01   6.7229175e+00   3.6495838e+01   1.8888197e+01   2.5611114e+00   6.4027785e+00   6.7229175e+00   1.0884724e+01   2.0168752e+01   4.4819450e+00   6.2106952e+01   1.9208336e+01   1.2805557e+01   7.6833342e+00  -1.2805557e+00   1.4086113e+01   1.1525001e+01   5.4423618e+00   7.0430564e+00   0.0000000e+00   0.0000000e+00   0.0000000e+00   0.0000000e+00
   7.6833342e+00   9.6041678e-01   6.4027785e+00   3.6815977e+01   1.8888197e+01   3.5215282e+00   6.7229175e+00   7.0430564e+00   1.0884724e+01   2.0809030e+01   5.4423618e+00   6.2427091e+01   1.9848613e+01   1.3765974e+01   8.9638899e+00   0.0000000e+00   1.4406252e+01   1.2485418e+01   6.4027785e+00   8.3236121e+00   0.0000000e+00   0.0000000e+00   0.0000000e+00   0.0000000e+00
   8.9638899e+00   1.9208336e+00   5.4423618e+00   3.7136115e+01   1.8568058e+01   4.1618060e+00   7.0430564e+00   6.7229175e+00   1.0564585e+01   2.1129169e+01   5.4423618e+00   6.2427091e+01   1.9848613e+01   1.4726391e+01   9.6041678e+00   6.4027785e-01   1.3765974e+01   1.3445835e+01   7.3631953e+00   8.9638899e+00   0.0000000e+00   0.0000000e+00   0.0000000e+00   0.0000000e+00
   1.0244446e+01   3.2013893e+00   4.4819450e+00   3.7456254e+01   1.8247919e+01   4.4819450e+00   7.0430564e+00   6.4027785e+00   1.0244446e+01   2.1449308e+01   5.4423618e+00   6.2106952e+01   1.9208336e+01   1.5366668e+01   1.0564585e+01   3.2013893e-01   1.3125696e+01   1.4086113e+01   8.0034732e+00   8.9638899e+00   0.0000000e+00   0.0000000e+00   0.0000000e+00   0.0000000e+00
   1.0884724e+01   3.8416671e+00   3.5215282e+00   3.7136115e+01   1.7287502e+01   4.1618060e+00   6.7229175e+00   6.0826396e+00   9.9243067e+00   2.1449308e+01   5.1222228e+00   6.1146535e+01   1.8568058e+01   1.5686807e+01   1.0884724e+01   0.0000000e+00   1.2485418e+01   1.4726391e+01   8.3236121e+00   8.6437510e+00   0.0000000e+00   0.0000000e+00   0.0000000e+00   0.0000000e+00
   1.0564585e+01   3.2013893e+00   2.5611114e+00   3.6495838e+01   1.6006946e+01   3.2013893e+00   6.4027785e+00   5.1222228e+00   9.2840289e+00   2.1449308e+01   5.1222228e+00   6.0186118e+01   1.7927780e+01   1.5686807e+01   1.1204862e+01  -6.4027785e-01   1.1525001e+01   1.5046530e+01   8.0034732e+00   8.0034732e+00   0.0000000e+00   0.0000000e+00   0.0000000e+00   0.0000000e+00
   9.6041678e+00   1.9208336e+00   1.6006946e+00   3.5215282e+01   1.4726391e+01   1.9208336e+00   5.4423618e+00   4.4819450e+00   8.9638899e+00   2.1769447e+01   5.1222228e+00   5.9225701e+01   1.7287502e+01   1.5046530e+01   1.1204862e+01  -1.2805557e+00   1.0564585e+01   1.5046530e+01   7.0430564e+00   7.6833342e+00   0.0000000e+00   0.0000000e+00   0.0000000e+00   0.0000000e+00
   9.2840289e+00   1.9208336e+00   1.2805557e+00   3.4895143e+01   1.4086113e+01   9.6041678e-01   5.4423618e+00   4.4819450e+00   8.9638899e+00   2.2409725e+01   5.7625007e+00   5.9545840e+01   1.7927780e+01   1.5366668e+01   1.1525001e+01  -9.6041678e-01   1.0564585e+01   1.5366668e+01   6.7229175e+00   8.3236121e+00   0.0000000e+00   0.0000000e+00   0.0000000e+00   0.0000000e+00
   8.6437510e+00   1.9208336e+00   6.4027785e-01   3.4895143e+01   1.3445835e+01  -3.2013893e-01   5.4423618e+00   4.8020839e+00   9.2840289e+00   2.2729864e+01   5.4423618e+00   5.9545840e+01   1.8247919e+01   1.5366668e+01   1.1525001e+01  -1.2805557e+00   1.0564585e+01   1.5366668e+01   6.7229175e+00   8.3236121e+00   0.0000000e+00   0.0000000e+00   0.0000000e+00   0.0000000e+00
   8.6437510e+00   2.8812503e+00   9.6041678e-01   3.5535421e+01   1.3765974e+01  -3.2013893e-01   6.0826396e+00   5.7625007e+00   1.0564585e+01   2.3370142e+01   5.7625007e+00   6.0506257e+01   1.9208336e+01   1.6327085e+01   1.2485418e+01  -9.6041678e-01   1.1204862e+01   1.5686807e+01   7.3631953e+00   8.9638899e+00   0.0000000e+00   0.0000000e+00   0.0000000e+00   0.0000000e+00
   8.6437510e+00   3.8416671e+00   1.2805557e+00   3.6495838e+01   1.4086113e+01   0.0000000e+00   7.0430564e+00   6.7229175e+00   1.1845140e+01   2.4330558e+01   5.7625007e+00   6.1146535e+01   2.0168752e+01   1.7607641e+01   1.3125696e+01  -1.2805557e+00   1.1845140e+01   1.5686807e+01   8.0034732e+00   8.9638899e+00   0.0000000e+00   0.0000000e+00   0.0000000e+00   0.0000000e+00
   8.6437510e+00   4.4819450e+00   1.9208336e+00   3.6815977e+01   1.4726391e+01   3.2013893e-01   7.6833342e+00   7.0430564e+00   1.3445835e+01   2.5290975e+01   6.4027785e+00   6.1786813e+01   2.1449308e+01   1.8888197e+01   1.4086113e+01  -1.6006946e+00   1.2485418e+01   1.5366668e+01   8.6437510e+00   8.6437510e+00   0.0000000e+00   0.0000000e+00   0.0000000e+00   0.0000000e+00
   7.6833342e+00   4.8020839e+00   1.9208336e+00   3.6495838e+01   1.4726391e+01   3.2013893e-01   8.0034732e+00   6.4027785e+00   1.4726391e+01   2.5931253e+01   7.0430564e+00   6.1466674e+01   2.2409725e+01   2.0168752e+01   1.4406252e+01  -2.5611114e+00   1.2805557e+01   1.4406252e+01   8.3236121e+00   8.0034732e+00   0.0000000e+00   0.0000000e+00   0.0000000e+00   0.0000000e+00
   7.0430564e+00   4.4819450e+00   1.2805557e+00   3.5535421e+01   1.4406252e+01   0.0000000e+00   7.0430564e+00   4.8020839e+00   1.5366668e+01   2.6571531e+01   7.3631953e+00   6.1146535e+01   2.3050003e+01   2.0488891e+01   1.4086113e+01  -3.8416671e+00   1.2805557e+01   1.2805557e+01   7.0430564e+00   7.3631953e+00   0.0000000e+00   0.0000000e+00   0.0000000e+00   0.0000000e+00
   6.7229175e+00   3.5215282e+00   0.0000000e+00   3.4575004e+01   1.3765974e+01  -6.4027785e-01   6.0826396e+00   2.8812503e+00   1.6006946e+01   2.6571531e+01   7.6833342e+00   6.0826396e+01   2.3370142e+01   2.0168752e+01   1.2805557e+01  -4.8020839e+00   1.2485418e+01   1.1204862e+01   5.4423618e+00   6.0826396e+00   0.0000000e+00   0.0000000e+00   0.0000000e+00   0.0000000e+00
   6.7229175e+00   2.5611114e+00  -1.2805557e+00   3.4254865e+01   1.3125696e+01  -1.2805557e+00   4.4819450e+00   1.2805557e+00   1.6647224e+01   2.5931253e+01   7.0430564e+00   6.0186118e+01   2.3370142e+01   1.9208336e+01   1.1204862e+01  -5.7625007e+00   1.2165279e+01   9.2840289e+00   3.5215282e+00   4.8020839e+00   0.0000000e+00   0.0000000e+00   0.0000000e+00   0.0000000e+00
   8.0034732e+00   1.6006946e+00  -2.5611114e+00   3.4254865e+01   1.3125696e+01  -1.9208336e+00   3.2013893e+00   0.0000000e+00   1.6967363e+01   2.5290975e+01   5.7625007e+00   5.9545840e+01   2.3050003e+01   1.7927780e+01   9.6041678e+00  -6.7229175e+00   1.1525001e+01   7.6833342e+00   1.6006946e+00   3.2013893e+00   0.0000000e+00   0.0000000e+00   0.0000000e+00   0.0000000e+00
   9.9243067e+00   1.2805557e+00  -3.2013893e+00   3.4895143e+01   1.3765974e+01  -1.6006946e+00   2.8812503e+00  -3.2013893e-01   1.7927780e+01   2.5290975e+01   4.4819450e+00   5.9545840e+01   2.3050003e+01   1.7607641e+01   8.3236121e+00  -7.3631953e+00   1.1525001e+01   7.0430564e+00   6.4027785e-01   1.9208336e+00   0.0000000e+00   0.0000000e+00   0.0000000e+00   0.0000000e+00
   1.2165279e+01   1.2805557e+00  -3.5215282e+00   3.5855560e+01   1.5046530e+01  -1.2805557e+00   2.5611114e+00   0.0000000e+00   1.8568058e+01   2.5931253e+01   3.2013893e+00   5.9545840e+01   2.3370142e+01   1.7287502e+01   7.3631953e+00  -8.0034732e+00   1.1845140e+01   7.0430564e+00   3.2013893e-01   9.6041678e-01   0.0000000e+00   0.0000000e+00   0.0000000e+00   0.0000000e+00
   1.3765974e+01   1.2805557e+00  -3.8416671e+00   3.6175699e+01   1.6006946e+01  -9.6041678e-01   2.2409725e+00   0.0000000e+00   1.9208336e+01   2.6891670e+01   2.2409725e+00   5.9545840e+01   2.4010419e+01   1.7607641e+01   6.0826396e+00  -8.9638899e+00   1.2485418e+01   7.3631953e+00  -3.2013893e-01  -3.2013893e-01   0.0000000e+00   0.0000000e+00   0.0000000e+00   0.0000000e+00
   1.5686807e+01   1.9208336e+00  -3.5215282e+00   3.7136115e+01   1.7287502e+01  -3.2013893e-01   2.5611114e+00   0.0000000e+00   2.0168752e+01   2.7852087e+01   2.5611114e+00   6.0506257e+01   2.5931253e+01   1.8568058e+01   5.4423618e+00  -8.9638899e+00   1.4086113e+01   8.6437510e+00  -3.2013893e-01  -3.2013893e-01   0.0000000e+00   0.0000000e+00   0.0000000e+00   0.0000000e+00
   1.7607641e+01   2.8812503e+00  -2.2409725e+00   3.8736810e+01   1.8888197e+01   9.6041678e-01   3.2013893e+00   6.4027785e-01   2.0809030e+01   2.8812503e+01   3.5215282e+00   6.1466674e+01   2.7852087e+01   1.9528475e+01   5.4423618e+00  -8.6437510e+00   1.6006946e+01   1.0564585e+01   0.0000000e+00   0.0000000e+00   0.0000000e+00   0.0000000e+00   0.0000000e+00   0.0000000e+00
   1.9528475e+01   4.1618060e+00  -1.2805557e+00   4.0017366e+01   2.0488891e+01   1.9208336e+00   4.1618060e+00   1.6006946e+00   2.1449308e+01   2.9132642e+01   4.1618060e+00   6.2747230e+01   2.9772920e+01   2.0809030e+01   5.7625007e+00  -8.3236121e+00   1.8247919e+01   1.2805557e+01   3.2013893e-01   9.6041678e-01   0.0000000e+00   0.0000000e+00   0.0000000e+00   0.0000000e+00
   2.1769447e+01   6.0826396e+00   3.2013893e-01   4.2258338e+01   2.2409725e+01   3.5215282e+00   5.7625007e+00   3.2013893e+00   2.2409725e+01   2.9772920e+01   5.1222228e+00   6.4027785e+01   3.2013893e+01   2.2089586e+01   6.4027785e+00  -8.0034732e+00   2.0488891e+01   1.5686807e+01   1.6006946e+00   1.9208336e+00   0.0000000e+00   0.0000000e+00   0.0000000e+00   0.0000000e+00
   2.4010419e+01   8.3236121e+00   1.9208336e+00   4.4819450e+01   2.4970836e+01   5.4423618e+00   8.0034732e+00   5.1222228e+00   2.3370142e+01   3.0413198e+01   5.7625007e+00   6.5308341e+01   3.4254865e+01   2.4010419e+01   8.0034732e+00  -7.0430564e+00   2.2729864e+01   1.8568058e+01   3.5215282e+00   2.8812503e+00   0.0000000e+00   0.0000000e+00   0.0000000e+00   0.0000000e+00
   2.6251392e+01   1.0244446e+01   3.2013893e+00   4.7060422e+01   2.7531948e+01   7.0430564e+00   1.0244446e+01   7.0430564e+00   2.4330558e+01   3.2013893e+01   6.4027785e+00   6.6909036e+01   3.6495838e+01   2.6251392e+01   9.6041678e+00  -5.4423618e+00   2.5290975e+01   2.1769447e+01   5.7625007e+00   4.1618060e+00   0.0000000e+00   0.0000000e+00   0.0000000e+00   0.0000000e+00
   2.7852087e+01   1.1525001e+01   3.8416671e+00   4.8661117e+01   2.9452781e+01   7.6833342e+00   1.1845140e+01   7.6833342e+00   2.5290975e+01   3.3614587e+01   7.3631953e+00   6.7869452e+01   3.8096532e+01   2.7852087e+01   1.0884724e+01  -4.1618060e+00   2.6891670e+01   2.4010419e+01   7.0430564e+00   4.8020839e+00   0.0000000e+00   0.0000000e+00   0.0000000e+00   0.0000000e+00
   2.8492364e+01   1.2485418e+01   4.1618060e+00   4.9301395e+01   3.0413198e+01   8.0034732e+00   1.2805557e+01   7.0430564e+00   2.5931253e+01   3.5535421e+01   8.6437510e+00   6.8829869e+01   3.9377088e+01   2.8812503e+01   1.1525001e+01  -2.5611114e+00   2.8172226e+01   2.5611114e+01   7.6833342e+00   5.4423618e+00   0.0000000e+00   0.0000000e+00   0.0000000e+00   0.0000000e+00
   2.8172226e+01   1.1845140e+01   3.2013893e+00   4.8981256e+01   3.0093059e+01   7.0430564e+00   1.2165279e+01   5.1222228e+00   2.5290975e+01   3.7776393e+01   8.9638899e+00   6.8829869e+01   3.9056949e+01   2.8172226e+01   1.1204862e+01  -2.2409725e+00   2.8172226e+01   2.5611114e+01   7.0430564e+00   4.8020839e+00   0.0000000e+00   0.0000000e+00   0.0000000e+00   0.0000000e+00
   2.6571531e+01   1.0244446e+01   1.6006946e+00   4.7700700e+01   2.8812503e+01   5.1222228e+00   1.0884724e+01   2.5611114e+00   2.4010419e+01   4.0017366e+01   8.6437510e+00   6.8189591e+01   3.7456254e+01   2.6251392e+01   9.9243067e+00  -2.8812503e+00   2.7211809e+01   2.4650697e+01   6.0826396e+00   3.5215282e+00   0.0000000e+00   0.0000000e+00   0.0000000e+00   0.0000000e+00
   2.4010419e+01   8.3236121e+00  -6.4027785e-01   4.6100005e+01   2.6891670e+01   3.5215282e+00   9.2840289e+00   3.2013893e-01   2.1769447e+01   4.1618060e+01   8.0034732e+00   6.6588897e+01   3.5535421e+01   2.4010419e+01   8.3236121e+00  -4.1618060e+00   2.5611114e+01   2.3370142e+01   5.1222228e+00   1.6006946e+00   0.0000000e+00   0.0000000e+00   0.0000000e+00   0.0000000e+00
   2.0809030e+01   6.0826396e+00  -3.2013893e+00   4.4179172e+01   2.4970836e+01   1.6006946e+00   7.3631953e+00  -1.6006946e+00   1.9208336e+01   4.0977783e+01   6.4027785e+00   6.4668063e+01   3.2974309e+01   2.1449308e+01   6.4027785e+00  -5.7625007e+00   2.3690281e+01   2.1129169e+01   3.8416671e+00  -3.2013893e-01   0.0000000e+00   0.0000000e+00   0.0000000e+00   0.0000000e+00
   1.8568058e+01   4.8020839e+00  -4.4819450e+00   4.2898616e+01   2.3690281e+01   1.2805557e+00   6.7229175e+00  -2.2409725e+00   1.7927780e+01   3.8736810e+01   5.7625007e+00   6.3387507e+01   3.1693754e+01   2.0168752e+01   5.4423618e+00  -6.4027785e+00   2.3050003e+01   1.9528475e+01   4.1618060e+00  -1.2805557e+00   0.0000000e+00   0.0000000e+00   0.0000000e+00   0.0000000e+00
   1.6647224e+01   4.1618060e+00  -5.1222228e+00   4.1938199e+01   2.2729864e+01   6.4027785e-01   6.4027785e+00  -2.2409725e+00   1.6647224e+01   3.4575004e+01   5.1222228e+00   6.3067369e+01   3.1373615e+01   1.9528475e+01   4.4819450e+00  -6.4027785e+00   2.2409725e+01   1.8247919e+01   4.1618060e+00  -1.2805557e+00   0.0000000e+00   0.0000000e+00   0.0000000e+00   0.0000000e+00
   1.5686807e+01   4.8020839e+00  -5.1222228e+00   4.1297922e+01   2.1769447e+01   6.4027785e-01   6.0826396e+00  -1.6006946e+00   1.6327085e+01   3.0093059e+01   5.1222228e+00   6.3067369e+01   3.1693754e+01   1.9528475e+01   3.5215282e+00  -6.0826396e+00   2.2409725e+01   1.6967363e+01   4.8020839e+00  -9.6041678e-01   0.0000000e+00   0.0000000e+00   0.0000000e+00   0.0000000e+00
   1.6006946e+01   6.0826396e+00  -4.1618060e+00   4.1297922e+01   2.1129169e+01   6.4027785e-01   6.4027785e+00  -6.4027785e-01   1.6327085e+01   2.6891670e+01   5.4423618e+00   6.4027785e+01   3.2654171e+01   2.0168752e+01   3.2013893e+00  -5.4423618e+00   2.3050003e+01   1.6327085e+01   5.4423618e+00   3.2013893e-01   0.0000000e+00   0.0000000e+00   0.0000000e+00   0.0000000e+00
   1.6327085e+01   6.4027785e+00  -4.4819450e+00   4.0977783e+01   2.0488891e+01  -3.2013893e-01   5.7625007e+00  -3.2013893e-01   1.5686807e+01   2.4010419e+01   5.1222228e+00   6.4027785e+01   3.2654171e+01   2.0168752e+01   2.5611114e+00  -5.7625007e+00   2.2729864e+01   1.5686807e+01   5.7625007e+00   9.6041678e-01   0.0000000e+00   0.0000000e+00   0.0000000e+00   0.0000000e+00
   1.6327085e+01   5.4423618e+00  -4.8020839e+00   4.0337505e+01   1.9528475e+01  -1.6006946e+00   5.4423618e+00  -3.2013893e-01   1.4726391e+01   2.2089586e+01   4.1618060e+00   6.3387507e+01   3.2013893e+01   1.9848613e+01   1.6006946e+00  -7.0430564e+00   2.2089586e+01   1.4726391e+01   5.7625007e+00   1.2805557e+00   0.0000000e+00   0.0000000e+00   0.0000000e+00   0.0000000e+00
   1.6006946e+01   2.5611114e+00  -5.7625007e+00   3.9056949e+01   1.8247919e+01  -2.8812503e+00   4.8020839e+00  -3.2013893e-01   1.3765974e+01   1.9528475e+01   2.8812503e+00   6.2106952e+01   3.1053476e+01   1.9528475e+01   9.6041678e-01  -8.6437510e+00   2.0809030e+01   1.3445835e+01   5.4423618e+00   9.6041678e-01   0.0000000e+00   0.0000000e+00   0.0000000e+00   0.0000000e+00
   1.5366668e+01  -1.2805557e+00  -6.4027785e+00   3.8416671e+01   1.7607641e+01  -3.5215282e+00   4.8020839e+00   3.2013893e-01   1.3125696e+01   1.7287502e+01   1.6006946e+00   6.0506257e+01   3.0413198e+01   1.9528475e+01   6.4027785e-01  -9.2840289e+00   2.0168752e+01   1.3125696e+01   5.1222228e+00   9.6041678e-01   0.0000000e+00   0.0000000e+00   0.0000000e+00   0.0000000e+00
   1.5686807e+01  -4.1618060e+00  -5.7625007e+00   3.8096532e+01   1.7927780e+01  -2.8812503e+00   6.0826396e+00   1.9208336e+00   1.3445835e+01   1.6006946e+01   1.6006946e+00   6.0186118e+01   3.1373615e+01   2.0488891e+01   1.6006946e+00  -8.6437510e+00   2.0488891e+01   1.4086113e+01   5.7625007e+00   2.2409725e+00   0.0000000e+00   0.0000000e+00   0.0000000e+00   0.0000000e+00
   1.6327085e+01  -5.4423618e+00  -4.4819450e+00   3.8096532e+01   1.8888197e+01  -2.2409725e+00   7.0430564e+00   3.2013893e+00   1.4086113e+01   1.5686807e+01   1.9208336e+00   6.0186118e+01   3.2334032e+01   2.1449308e+01   2.5611114e+00  -7.3631953e+00   2.1449308e+01   1.5366668e+01   5.7625007e+00   3.8416671e+00   0.0000000e+00   0.0000000e+00   0.0000000e+00   0.0000000e+00
   1.6967363e+01  -5.4423618e+00  -3.2013893e+00   3.8416671e+01   1.9528475e+01  -1.2805557e+00   8.0034732e+00   4.4819450e+00   1.4726391e+01   1.6327085e+01   2.5611114e+00   5.9865979e+01   3.2974309e+01   2.2089586e+01   2.8812503e+00  -5.7625007e+00   2.2409725e+01   1.7287502e+01   5.4423618e+00   5.1222228e+00   0.0000000e+00   0.0000000e+00   0.0000000e+00   0.0000000e+00
   1.7287502e+01  -4.1618060e+00  -2.2409725e+00   3.8736810e+01   2.0168752e+01  -9.6041678e-01   8.3236121e+00   4.8020839e+00   1.4726391e+01   1.7927780e+01   2.8812503e+00   5.9225701e+01   3.2974309e+01   2.2409725e+01   2.8812503e+00  -4.8020839e+00   2.2729864e+01   1.9208336e+01   5.1222228e+00   5.7625007e+00   0.0000000e+00   0.0000000e+00   0.0000000e+00   0.0000000e+00
   1.7607641e+01  -2.8812503e+00  -2.2409725e+00   3.9056949e+01   2.0488891e+01  -6.4027785e-01   8.3236121e+00   4.8020839e+00   1.4406252e+01   1.9528475e+01   2.2409725e+00   5.8265285e+01   3.2334032e+01   2.2089586e+01   2.5611114e+00  -4.4819450e+00   2.3050003e+01   2.0488891e+01   4.4819450e+00   5.7625007e+00   0.0000000e+00   0.0000000e+00   0.0000000e+00   0.0000000e+00
   1.6967363e+01  -1.9208336e+00  -2.5611114e+00   3.9056949e+01   2.0168752e+01  -6.4027785e-01   8.3236121e+00   4.4819450e+00   1.3125696e+01   1.9848613e+01   1.2805557e+00   5.6984729e+01   3.0413198e+01   2.1449308e+01   1.6006946e+00  -4.8020839e+00   2.2409725e+01   2.1449308e+01   4.1618060e+00   5.1222228e+00   0.0000000e+00   0.0000000e+00   0.0000000e+00   0.0000000e+00
   1.6327085e+01  -9.6041678e-01  -2.2409725e+00   3.9056949e+01   2.0168752e+01   0.0000000e+00   8.6437510e+00   4.8020839e+00   1.2485418e+01   2.0168752e+01   9.6041678e-01   5.5704173e+01   2.9132642e+01   2.1449308e+01   1.6006946e+00  -4.8020839e+00   2.2409725e+01   2.2409725e+01   4.4819450e+00   5.1222228e+00   0.0000000e+00   0.0000000e+00   0.0000000e+00   0.0000000e+00
   1.5686807e+01   6.4027785e-01  -1.6006946e+00   3.8736810e+01   2.0488891e+01   9.6041678e-01   9.2840289e+00   5.4423618e+00   1.2165279e+01   2.0168752e+01   1.6006946e+00   5.4743756e+01   2.8492364e+01   2.1449308e+01   2.2409725e+00  -3.5215282e+00   2.2729864e+01   2.3050003e+01   5.4423618e+00   6.0826396e+00   0.0000000e+00   0.0000000e+00   0.0000000e+00   0.0000000e+00
   1.5686807e+01   2.2409725e+00  -3.2013893e-01   3.8416671e+01   2.0809030e+01   1.9208336e+00   1.0244446e+01   6.4027785e+00   1.1525001e+01   1.9848613e+01   3.2013893e+00   5.3783340e+01   2.8172226e+01   2.1769447e+01   2.8812503e+00  -2.2409725e+00   2.3050003e+01   2.3690281e+01   6.4027785e+00   7.3631953e+00   0.0000000e+00   0.0000000e+00   0.0000000e+00   0.0000000e+00
   1.5686807e+01   4.4819450e+00   1.2805557e+00   3.8096532e+01   2.1449308e+01   3.2013893e+00   1.0884724e+01   6.7229175e+00   1.0564585e+01   1.9208336e+01   4.8020839e+00   5.3143062e+01   2.7852087e+01   2.1769447e+01   3.5215282e+00  -1.2805557e+00   2.3690281e+01   2.4010419e+01   7.0430564e+00   8.6437510e+00   0.0000000e+00   0.0000000e+00   0.0000000e+00   0.0000000e+00
   1.6006946e+01   6.7229175e+00   2.8812503e+00   3.8096532e+01   2.2409725e+01   3.8416671e+00   1.1525001e+01   6.7229175e+00   9.2840289e+00   1.8568058e+01   6.0826396e+00   5.2502784e+01   2.7531948e+01   2.1769447e+01   3.5215282e+00  -9.6041678e-01   2.4010419e+01   2.4330558e+01   8.0034732e+00   9.6041678e+00   0.0000000e+00   0.0000000e+00   0.0000000e+00   0.0000000e+00
   1.6327085e+01   8.6437510e+00   3.5215282e+00   3.8096532e+01   2.3050003e+01   4.1618060e+00   1.1845140e+01   6.7229175e+00   7.3631953e+00   1.7607641e+01   5.7625007e+00   5.1862506e+01   2.6251392e+01   2.1129169e+01   3.2013893e+00  -1.2805557e+00   2.3690281e+01   2.3690281e+01   8.9638899e+00   9.6041678e+00   0.0000000e+00   0.0000000e+00   0.0000000e+00   0.0000000e+00
   1.6647224e+01   9.2840289e+00   3.5215282e+00   3.8096532e+01   2.3370142e+01   3.5215282e+00   1.1525001e+01   6.4027785e+00   5.4423618e+00   1.7287502e+01   5.1222228e+00   5.0902089e+01   2.4330558e+01   1.9848613e+01   2.8812503e+00  -1.9208336e+00   2.2729864e+01   2.2409725e+01   9.2840289e+00   9.2840289e+00   0.0000000e+00   0.0000000e+00   0.0000000e+00   0.0000000e+00
   1.6967363e+01   9.6041678e+00   3.8416671e+00   3.8416671e+01   2.4010419e+01   3.2013893e+00   1.2165279e+01   7.3631953e+00   4.4819450e+00   1.8247919e+01   5.1222228e+00   5.0902089e+01   2.3370142e+01   1.9208336e+01   3.2013893e+00  -1.6006946e+00   2.2409725e+01   2.1769447e+01   1.0564585e+01   9.6041678e+00   0.0000000e+00   0.0000000e+00   0.0000000e+00   0.0000000e+00
   1.7287502e+01   9.6041678e+00   4.4819450e+00   3.8416671e+01   2.4330558e+01   3.2013893e+00   1.2805557e+01   8.3236121e+00   3.8416671e+00   1.9528475e+01   6.0826396e+00   5.0902089e+01   2.2729864e+01   1.8888197e+01   3.8416671e+00  -6.4027785e-01   2.2089586e+01   2.0809030e+01   1.1525001e+01   1.0564585e+01   0.0000000e+00   0.0000000e+00   0.0000000e+00   0.0000000e+00
   1.7607641e+01   9.6041678e+00   5.7625007e+00   3.8416671e+01   2.4650697e+01   3.2013893e+00   1.3765974e+01   9.9243067e+00   3.8416671e+00   2.0809030e+01   7.6833342e+00   5.1542367e+01   2.2729864e+01   1.9208336e+01   5.7625007e+00   9.6041678e-01   2.2409725e+01   2.0488891e+01   1.2485418e+01   1.1845140e+01   0.0000000e+00   0.0000000e+00   0.0000000e+00   0.0000000e+00
   1.7607641e+01   9.6041678e+00   6.7229175e+00   3.8096532e+01   2.4650697e+01   3.5215282e+00   1.4726391e+01   1.0564585e+01   3.5215282e+00   2.1129169e+01   9.6041678e+00   5.1222228e+01   2.3050003e+01   1.9528475e+01   7.3631953e+00   2.2409725e+00   2.2729864e+01   1.9848613e+01   1.3125696e+01   1.3125696e+01   0.0000000e+00   0.0000000e+00   0.0000000e+00   0.0000000e+00
   1.7607641e+01   1.0244446e+01   7.6833342e+00   3.7456254e+01   2.4010419e+01   3.2013893e+00   1.5046530e+01   1.1204862e+01   3.2013893e+00   2.0488891e+01   1.1204862e+01   5.0902089e+01   2.2729864e+01   1.9528475e+01   8.9638899e+00   2.8812503e+00   2.2089586e+01   1.9528475e+01   1.3445835e+01   1.3765974e+01   0.0000000e+00   0.0000000e+00   0.0000000e+00   0.0000000e+00
   1.6647224e+01   1.0564585e+01   7.3631953e+00   3.6175699e+01   2.2409725e+01   1.9208336e+00   1.4086113e+01   1.0244446e+01   2.2409725e+00   1.8568058e+01   1.1204862e+01   4.9301395e+01   2.1449308e+01   1.8888197e+01   9.6041678e+00   2.2409725e+00   2.0168752e+01   1.7927780e+01   1.2485418e+01   1.2805557e+01   0.0000000e+00   0.0000000e+00   0.0000000e+00   0.0000000e+00
   1.6327085e+01   1.1204862e+01   6.7229175e+00   3.4895143e+01   2.0488891e+01   6.4027785e-01   1.2805557e+01   9.6041678e+00   1.6006946e+00   1.6647224e+01   1.0564585e+01   4.7700700e+01   1.9848613e+01   1.7607641e+01   9.6041678e+00   9.6041678e-01   1.7927780e+01   1.6327085e+01   1.1204862e+01   1.1204862e+01   0.0000000e+00   0.0000000e+00   0.0000000e+00   0.0000000e+00
   1.5686807e+01   1.1525001e+01   5.7625007e+00   3.2974309e+01   1.7927780e+01  -1.6006946e+00   1.0884724e+01   8.3236121e+00   9.6041678e-01   1.5046530e+01   8.9638899e+00   4.6100005e+01   1.7287502e+01   1.6006946e+01   8.6437510e+00  -6.4027785e-01   1.5046530e+01   1.4086113e+01   9.2840289e+00   9.2840289e+00   0.0000000e+00   0.0000000e+00   0.0000000e+00   0.0000000e+00
   1.5366668e+01   1.1204862e+01   4.4819450e+00   3.1053476e+01   1.5046530e+01  -3.8416671e+00   8.9638899e+00   6.7229175e+00   6.4027785e-01   1.3765974e+01   7.6833342e+00   4.4499311e+01   1.5046530e+01   1.4086113e+01   7.3631953e+00  -1.9208336e+00   1.2165279e+01   1.1845140e+01   7.3631953e+00   7.3631953e+00   0.0000000e+00   0.0000000e+00   0.0000000e+00   0.0000000e+00
   1.5046530e+01   1.0884724e+01   3.8416671e+00   2.8812503e+01   1.2485418e+01  -6.0826396e+00   7.3631953e+00   5.7625007e+00   9.6041678e-01   1.4086113e+01   7.6833342e+00   4.3538894e+01   1.3445835e+01   1.2805557e+01   6.0826396e+00  -2.8812503e+00   1.0244446e+01   9.9243067e+00   5.4423618e+00   6.4027785e+00   0.0000000e+00   0.0000000e+00   0.0000000e+00   0.0000000e+00
   1.4406252e+01   9.6041678e+00   3.2013893e+00   2.6891670e+01   1.0244446e+01  -8.0034732e+00   6.0826396e+00   4.8020839e+00   6.4027785e-01   1.4406252e+01   7.6833342e+00   4.2578477e+01   1.2485418e+01   1.1525001e+01   4.8020839e+00  -3.2013893e+00   8.3236121e+00   8.3236121e+00   3.5215282e+00   5.7625007e+00   0.0000000e+00   0.0000000e+00   0.0000000e+00   0.0000000e+00
   1.3765974e+01   8.0034732e+00   2.2409725e+00   2.4330558e+01   8.0034732e+00  -9.9243067e+00   4.8020839e+00   3.2013893e+00   0.0000000e+00   1.4726391e+01   7.6833342e+00   4.1618060e+01   1.1204862e+01   1.0244446e+01   3.5215282e+00  -4.1618060e+00   6.4027785e+00   6.7229175e+00   1.2805557e+00   4.8020839e+00   0.0000000e+00   0.0000000e+00   0.0000000e+00   0.0000000e+00
   1.3445835e+01   6.7229175e+00   1.6006946e+00   2.3050003e+01   6.0826396e+00  -1.0884724e+01   4.1618060e+00   2.2409725e+00   0.0000000e+00   1.5046530e+01   7.6833342e+00   4.0977783e+01   1.0564585e+01   9.2840289e+00   2.5611114e+00  -4.8020839e+00   5.1222228e+00   5.7625007e+00   0.0000000e+00   3.8416671e+00   0.0000000e+00   0.0000000e+00   0.0000000e+00   0.0000000e+00
