nt = 4200
nc = 24
channels = F7 T3 T5 Fp1 F3 C3 P3 O1 F8 T4 T6 Fp2 F4 C4 P4 O2 Fz Cz Pz Oz TR SOn Occ RAp
ne = 20
type = N
fsmp = 600.0000000000
orig.file = s1_bl1
orig.nt = 282640
orig.sample_range = 26942 31141
orig.fsmp = 600
orig.subject = 1
orig.run = 5
   7.8759927e+00   0.0000000e+00  -5.2506618e+00   4.0838481e+01   1.4001765e+01   1.9835834e+01   1.0209620e+01  -1.7502206e+00  -1.7502206e+00  -1.6918799e+01  -1.5168579e+01   3.7921446e+01  -2.9170343e-01   1.5751985e+01   1.4585172e+01  -2.0419240e+00   2.4211385e+01   4.9589584e+00   4.0838481e+00  -2.4211385e+01   0.0000000e+00   0.0000000e+00   0.0000000e+00   0.0000000e+00
   1.1959841e+01   9.0428065e+00   2.9170343e-01   4.1130184e+01   8.1676962e+00   2.3336275e+01   1.3126655e+01   2.9170343e-01   4.6672549e+00  -1.3418358e+01  -1.1376434e+01   3.8213150e+01   6.7091790e+00   1.4876875e+01   1.6043689e+01  -8.7511030e-01   2.8003530e+01   9.6262133e+00   9.0428065e+00  -2.0419240e+01   0.0000000e+00   0.0000000e+00   0.0000000e+00   0.0000000e+00
   1.4293468e+01   1.8669020e+01   5.2506618e+00   4.0838481e+01   4.3755515e+00   2.5961606e+01   1.5751985e+01   2.9170343e+00   9.6262133e+00  -1.1376434e+01  -7.8759927e+00   3.9088260e+01   1.3126655e+01   1.3710061e+01   1.7502206e+01   2.9170343e-01   3.0628861e+01   1.4876875e+01   1.3126655e+01  -1.6043689e+01   0.0000000e+00   0.0000000e+00   0.0000000e+00   0.0000000e+00
   1.4585172e+01   2.5086495e+01   8.1676962e+00   4.0255074e+01   3.5004412e+00   2.6836716e+01   1.7502206e+01   5.5423652e+00   1.2251544e+01  -1.0793027e+01  -4.9589584e+00   3.9963370e+01   1.6918799e+01   1.3126655e+01   1.8669020e+01   1.7502206e+00   3.1212267e+01   1.8669020e+01   1.5460282e+01  -1.2251544e+01   0.0000000e+00   0.0000000e+00   0.0000000e+00   0.0000000e+00
   1.2834951e+01   2.6545013e+01   8.4593996e+00   3.9088260e+01   4.6672549e+00   2.5086495e+01   1.7793909e+01   6.7091790e+00   1.1959841e+01  -1.1376434e+01  -3.7921446e+00   4.0546777e+01   1.6043689e+01   1.2834951e+01   1.8669020e+01   2.6253309e+00   2.9753750e+01   1.9544130e+01   1.4876875e+01  -1.0793027e+01   0.0000000e+00   0.0000000e+00   0.0000000e+00   0.0000000e+00
   1.0209620e+01   2.2169461e+01   5.8340687e+00   3.7921446e+01   6.7091790e+00   2.1002647e+01   1.6918799e+01   7.5842893e+00   8.1676962e+00  -1.2251544e+01  -4.6672549e+00   4.1130184e+01   1.0501324e+01   1.3710061e+01   1.7793909e+01   2.6253309e+00   2.6253309e+01   1.7793909e+01   1.1959841e+01  -1.1959841e+01   0.0000000e+00   0.0000000e+00   0.0000000e+00   0.0000000e+00
   8.7511030e+00   1.4585172e+01   2.3336275e+00   3.7629743e+01   9.0428065e+00   1.6627096e+01   1.5460282e+01   8.7511030e+00   3.2087378e+00  -1.2543248e+01  -6.4174756e+00   4.2588701e+01   3.2087378e+00   1.5460282e+01   1.6627096e+01   2.0419240e+00   2.2461164e+01   1.4585172e+01   8.1676962e+00  -1.4293468e+01   0.0000000e+00   0.0000000e+00   0.0000000e+00   0.0000000e+00
   7.8759927e+00   5.5423652e+00  -1.4585172e+00   3.7921446e+01   1.0209620e+01   1.2834951e+01   1.3418358e+01   1.0209620e+01  -2.0419240e+00  -1.3710061e+01  -8.7511030e+00   4.3755515e+01  -4.3755515e+00   1.6918799e+01   1.5168579e+01   5.8340687e-01   1.8960723e+01   1.0501324e+01   4.3755515e+00  -1.7502206e+01   0.0000000e+00   0.0000000e+00   0.0000000e+00   0.0000000e+00
   7.8759927e+00  -1.1668137e+00  -4.3755515e+00   3.9088260e+01   1.0209620e+01   1.1376434e+01   1.2251544e+01   1.2251544e+01  -4.9589584e+00  -1.5460282e+01  -9.9179168e+00   4.5214032e+01  -9.3345099e+00   1.7793909e+01   1.4585172e+01  -5.8340687e-01   1.7502206e+01   7.5842893e+00   2.6253309e+00  -1.9544130e+01   0.0000000e+00   0.0000000e+00   0.0000000e+00   0.0000000e+00
   8.4593996e+00  -3.7921446e+00  -4.9589584e+00   4.0255074e+01   8.7511030e+00   1.1959841e+01   1.2251544e+01   1.4001765e+01  -3.7921446e+00  -1.6918799e+01  -9.6262133e+00   4.6089143e+01  -1.0209620e+01   1.8377316e+01   1.4876875e+01  -1.4585172e+00   1.7793909e+01   6.7091790e+00   3.5004412e+00  -1.9835834e+01   0.0000000e+00   0.0000000e+00   0.0000000e+00   0.0000000e+00
   8.7511030e+00  -2.3336275e+00  -4.0838481e+00   3.9379964e+01   5.5423652e+00   1.3710061e+01   1.2543248e+01   1.4293468e+01   0.0000000e+00  -1.7210503e+01  -7.8759927e+00   4.5505736e+01  -7.0008824e+00   1.7793909e+01   1.5751985e+01  -1.4585172e+00   1.9544130e+01   7.8759927e+00   6.1257721e+00  -1.8669020e+01   0.0000000e+00   0.0000000e+00   0.0000000e+00   0.0000000e+00
   8.4593996e+00   2.0419240e+00  -1.4585172e+00   3.6171226e+01   1.7502206e+00   1.5460282e+01   1.3126655e+01   1.4001765e+01   5.2506618e+00  -1.5751985e+01  -5.5423652e+00   4.3463812e+01  -1.7502206e+00   1.6627096e+01   1.7502206e+01  -2.9170343e-01   2.1877758e+01   1.0501324e+01   1.0209620e+01  -1.5751985e+01   0.0000000e+00   0.0000000e+00   0.0000000e+00   0.0000000e+00
   7.5842893e+00   6.7091790e+00   1.1668137e+00   3.2087378e+01  -1.4585172e+00   1.6043689e+01   1.3418358e+01   1.2543248e+01   9.3345099e+00  -1.2834951e+01  -3.5004412e+00   4.1130184e+01   4.0838481e+00   1.5460282e+01   1.8960723e+01   1.4585172e+00   2.3627978e+01   1.3418358e+01   1.3710061e+01  -1.2834951e+01   0.0000000e+00   0.0000000e+00   0.0000000e+00   0.0000000e+00
   5.8340687e+00   9.6262133e+00   3.7921446e+00   2.8878640e+01  -2.3336275e+00   1.6335392e+01   1.3710061e+01   1.2251544e+01   1.1668137e+01  -9.9179168e+00  -2.0419240e+00   4.1130184e+01   7.8759927e+00   1.5460282e+01   2.0710944e+01   3.5004412e+00   2.4794792e+01   1.6043689e+01   1.6335392e+01  -9.9179168e+00   0.0000000e+00   0.0000000e+00   0.0000000e+00   0.0000000e+00
   3.2087378e+00   9.3345099e+00   4.9589584e+00   2.8295233e+01  -8.7511030e-01   1.6627096e+01   1.3418358e+01   1.2251544e+01   1.1084730e+01  -9.0428065e+00  -2.0419240e+00   4.3755515e+01   9.0428065e+00   1.6335392e+01   2.2169461e+01   5.2506618e+00   2.5086495e+01   1.7210503e+01   1.7210503e+01  -8.4593996e+00   0.0000000e+00   0.0000000e+00   0.0000000e+00   0.0000000e+00
  -5.8340687e-01   6.7091790e+00   4.6672549e+00   3.0337157e+01   2.9170343e+00   1.6918799e+01   1.2834951e+01   1.2834951e+01   8.7511030e+00  -1.0209620e+01  -2.6253309e+00   4.8714474e+01   6.7091790e+00   1.8669020e+01   2.3336275e+01   7.0008824e+00   2.4794792e+01   1.6627096e+01   1.5751985e+01  -8.7511030e+00   0.0000000e+00   0.0000000e+00   0.0000000e+00   0.0000000e+00
  -4.6672549e+00   2.0419240e+00   2.3336275e+00   3.3545895e+01   7.0008824e+00   1.6627096e+01   1.1668137e+01   1.2251544e+01   5.2506618e+00  -1.2834951e+01  -4.3755515e+00   5.3090025e+01   1.4585172e+00   2.1002647e+01   2.3919682e+01   8.1676962e+00   2.3336275e+01   1.4001765e+01   1.2834951e+01  -1.1084730e+01   0.0000000e+00   0.0000000e+00   0.0000000e+00   0.0000000e+00
  -8.4593996e+00  -2.0419240e+00  -5.8340687e-01   3.7629743e+01   1.1084730e+01   1.6043689e+01   1.0501324e+01   1.0501324e+01   2.6253309e+00  -1.4585172e+01  -6.1257721e+00   5.6298763e+01  -4.0838481e+00   2.3336275e+01   2.4211385e+01   9.6262133e+00   2.2461164e+01   1.1084730e+01   9.9179168e+00  -1.3710061e+01   0.0000000e+00   0.0000000e+00   0.0000000e+00   0.0000000e+00
  -1.0501324e+01  -3.5004412e+00  -2.9170343e+00   4.1713591e+01   1.4876875e+01   1.6335392e+01   1.0501324e+01   9.0428065e+00   2.0419240e+00  -1.3710061e+01  -6.4174756e+00   5.8924094e+01  -6.7091790e+00   2.4794792e+01   2.5669902e+01   1.1959841e+01   2.2752868e+01   9.3345099e+00   9.3345099e+00  -1.5168579e+01   0.0000000e+00   0.0000000e+00   0.0000000e+00   0.0000000e+00
  -1.1084730e+01  -2.9170343e+00  -5.2506618e+00   4.4047219e+01   1.6627096e+01   1.7210503e+01   1.1084730e+01   7.2925859e+00   3.5004412e+00  -1.1376434e+01  -5.8340687e+00   6.0674314e+01  -6.4174756e+00   2.4794792e+01   2.6836716e+01   1.4001765e+01   2.3919682e+01   9.0428065e+00   1.1084730e+01  -1.5168579e+01   0.0000000e+00   0.0000000e+00   0.0000000e+00   0.0000000e+00
  -1.0501324e+01   0.0000000e+00  -7.0008824e+00   4.5214032e+01   1.5751985e+01   1.8960723e+01   1.2543248e+01   5.8340687e+00   7.2925859e+00  -8.1676962e+00  -4.3755515e+00   6.1257721e+01  -2.3336275e+00   2.3336275e+01   2.8586937e+01   1.5168579e+01   2.5669902e+01   1.0793027e+01   1.4585172e+01  -1.3710061e+01   0.0000000e+00   0.0000000e+00   0.0000000e+00   0.0000000e+00
  -8.4593996e+00   3.5004412e+00  -8.4593996e+00   4.5797439e+01   1.2251544e+01   2.0419240e+01   1.4293468e+01   4.6672549e+00   1.2251544e+01  -5.8340687e+00  -2.6253309e+00   6.0382611e+01   3.7921446e+00   2.0710944e+01   2.9753750e+01   1.5168579e+01   2.8003530e+01   1.3710061e+01   1.8669020e+01  -1.1376434e+01   0.0000000e+00   0.0000000e+00   0.0000000e+00   0.0000000e+00
  -4.6672549e+00   7.8759927e+00  -7.5842893e+00   4.7255956e+01   8.7511030e+00   2.2169461e+01   1.6043689e+01   5.8340687e+00   1.7793909e+01  -4.9589584e+00  -8.7511030e-01   5.7173873e+01   1.0793027e+01   1.8377316e+01   3.0628861e+01   1.4876875e+01   3.0337157e+01   1.7210503e+01   2.2752868e+01  -8.4593996e+00   0.0000000e+00   0.0000000e+00   0.0000000e+00   0.0000000e+00
   2.0419240e+00   1.4293468e+01  -1.4585172e+00   5.0464694e+01   8.1676962e+00   2.5086495e+01   1.9544130e+01   1.1668137e+01   2.2752868e+01  -3.7921446e+00   1.7502206e+00   5.3381728e+01   1.7502206e+01   1.8669020e+01   3.2962488e+01   1.6627096e+01   3.3837598e+01   2.2169461e+01   2.6836716e+01  -3.5004412e+00   0.0000000e+00   0.0000000e+00   0.0000000e+00   0.0000000e+00
   9.9179168e+00   2.4211385e+01   1.1668137e+01   5.3673432e+01   1.1959841e+01   2.9170343e+01   2.5378199e+01   2.2752868e+01   2.6836716e+01  -2.6253309e+00   5.2506618e+00   4.9881287e+01   2.3336275e+01   2.1877758e+01   3.6171226e+01   2.0710944e+01   3.8796557e+01   2.7711826e+01   3.1212267e+01   3.5004412e+00   0.0000000e+00   0.0000000e+00   0.0000000e+00   0.0000000e+00
   1.7793909e+01   3.6754633e+01   2.8878640e+01   5.5423652e+01   1.9544130e+01   3.5004412e+01   3.2962488e+01   3.7629743e+01   2.8586937e+01  -5.8340687e-01   8.7511030e+00   4.8422770e+01   2.6836716e+01   2.8003530e+01   4.0546777e+01   2.7420123e+01   4.4630625e+01   3.2962488e+01   3.5587819e+01   1.1959841e+01   0.0000000e+00   0.0000000e+00   0.0000000e+00   0.0000000e+00
   2.1586054e+01   4.8422770e+01   4.2588701e+01   5.2214915e+01   2.5961606e+01   3.9379964e+01   3.9379964e+01   4.8422770e+01   2.7128419e+01   0.0000000e+00   9.9179168e+00   4.6964253e+01   2.6545013e+01   3.2962488e+01   4.3172108e+01   3.2962488e+01   4.9006177e+01   3.5004412e+01   3.7338040e+01   1.8377316e+01   0.0000000e+00   0.0000000e+00   0.0000000e+00   0.0000000e+00
   1.9252427e+01   5.3673432e+01   4.6089143e+01   4.3755515e+01   2.7711826e+01   4.0546777e+01   4.0838481e+01   4.9589584e+01   2.1294351e+01  -2.9170343e+00   7.2925859e+00   4.4047219e+01   2.1877758e+01   3.4421005e+01   4.1713591e+01   3.4129302e+01   4.9297880e+01   3.2087378e+01   3.5296116e+01   1.9544130e+01   0.0000000e+00   0.0000000e+00   0.0000000e+00   0.0000000e+00
   1.1959841e+01   4.9589584e+01   3.5587819e+01   3.2379081e+01   2.4211385e+01   3.6171226e+01   3.6171226e+01   3.9379964e+01   1.2834951e+01  -9.0428065e+00   5.8340687e-01   3.8504853e+01   1.4001765e+01   3.0628861e+01   3.6171226e+01   2.9753750e+01   4.5505736e+01   2.4503088e+01   2.9753750e+01   1.4001765e+01   0.0000000e+00   0.0000000e+00   0.0000000e+00   0.0000000e+00
   1.1668137e+00   3.6462929e+01   1.3710061e+01   2.0419240e+01   1.6627096e+01   2.7128419e+01   2.6545013e+01   2.0419240e+01   3.5004412e+00  -1.6335392e+01  -7.8759927e+00   3.0920564e+01   5.5423652e+00   2.2752868e+01   2.7128419e+01   2.1002647e+01   3.8504853e+01   1.4293468e+01   2.1877758e+01   3.5004412e+00   0.0000000e+00   0.0000000e+00   0.0000000e+00   0.0000000e+00
  -7.8759927e+00   1.9544130e+01  -1.0501324e+01   1.1959841e+01   9.0428065e+00   1.7210503e+01   1.5460282e+01   1.1668137e+00  -2.6253309e+00  -2.1294351e+01  -1.4876875e+01   2.4211385e+01   5.8340687e-01   1.3418358e+01   1.8669020e+01   1.1668137e+01   3.1503971e+01   5.8340687e+00   1.5460282e+01  -7.8759927e+00   0.0000000e+00   0.0000000e+00   0.0000000e+00   0.0000000e+00
  -1.3418358e+01   4.0838481e+00  -2.8586937e+01   8.7511030e+00   3.2087378e+00   9.0428065e+00   6.7091790e+00  -1.1084730e+01  -4.3755515e+00  -2.2169461e+01  -1.8669020e+01   2.1002647e+01   5.8340687e-01   5.8340687e+00   1.3126655e+01   4.3755515e+00   2.7128419e+01   1.4585172e+00   1.1959841e+01  -1.6335392e+01   0.0000000e+00   0.0000000e+00   0.0000000e+00   0.0000000e+00
  -1.2834951e+01  -4.6672549e+00  -3.5004412e+01   1.1376434e+01   2.9170343e-01   5.5423652e+00   3.2087378e+00  -1.2834951e+01  -8.7511030e-01  -1.8377316e+01  -1.7793909e+01   2.3044571e+01   4.3755515e+00   2.3336275e+00   1.1668137e+01   1.1668137e+00   2.6253309e+01   2.3336275e+00   1.2543248e+01  -1.8960723e+01   0.0000000e+00   0.0000000e+00   0.0000000e+00   0.0000000e+00
  -7.8759927e+00  -5.8340687e+00  -2.8878640e+01   1.9544130e+01   5.8340687e-01   6.7091790e+00   4.9589584e+00  -4.3755515e+00   5.5423652e+00  -1.2543248e+01  -1.4001765e+01   2.9462047e+01   9.6262133e+00   2.6253309e+00   1.4001765e+01   2.0419240e+00   2.8003530e+01   7.0008824e+00   1.6043689e+01  -1.6043689e+01   0.0000000e+00   0.0000000e+00   0.0000000e+00   0.0000000e+00
  -5.8340687e-01  -1.1668137e+00  -1.4876875e+01   3.1795674e+01   3.7921446e+00   1.1668137e+01   1.0501324e+01   9.6262133e+00   1.2251544e+01  -6.7091790e+00  -9.3345099e+00   3.7338040e+01   1.3418358e+01   6.4174756e+00   1.8377316e+01   5.8340687e+00   3.1503971e+01   1.3126655e+01   2.0127537e+01  -9.6262133e+00   0.0000000e+00   0.0000000e+00   0.0000000e+00   0.0000000e+00
   5.8340687e+00   4.6672549e+00   2.9170343e-01   4.5505736e+01   7.8759927e+00   1.7793909e+01   1.7210503e+01   2.3044571e+01   1.5168579e+01  -3.2087378e+00  -5.8340687e+00   4.4047219e+01   1.3418358e+01   1.1376434e+01   2.2752868e+01   1.0209620e+01   3.4421005e+01   1.7502206e+01   2.2752868e+01  -2.9170343e+00   0.0000000e+00   0.0000000e+00   0.0000000e+00   0.0000000e+00
   1.0501324e+01   9.6262133e+00   1.1668137e+01   5.8048983e+01   1.1959841e+01   2.3627978e+01   2.2461164e+01   3.2087378e+01   1.4293468e+01  -1.7502206e+00  -4.6672549e+00   4.8422770e+01   1.1376434e+01   1.6335392e+01   2.5961606e+01   1.4293468e+01   3.6171226e+01   1.9252427e+01   2.3336275e+01   2.0419240e+00   0.0000000e+00   0.0000000e+00   0.0000000e+00   0.0000000e+00
   1.2543248e+01   1.1376434e+01   1.5751985e+01   6.6216680e+01   1.4585172e+01   2.6545013e+01   2.5086495e+01   3.4421005e+01   1.0209620e+01  -2.3336275e+00  -5.5423652e+00   4.9881287e+01   7.8759927e+00   1.9544130e+01   2.6545013e+01   1.6335392e+01   3.6462929e+01   1.7793909e+01   2.1586054e+01   3.7921446e+00   0.0000000e+00   0.0000000e+00   0.0000000e+00   0.0000000e+00
   1.2543248e+01   9.9179168e+00   1.2543248e+01   6.8842010e+01   1.4876875e+01   2.6253309e+01   2.3919682e+01   3.0045454e+01   5.2506618e+00  -4.0838481e+00  -7.8759927e+00   4.9589584e+01   4.3755515e+00   2.0419240e+01   2.5086495e+01   1.6043689e+01   3.5296116e+01   1.4001765e+01   1.8377316e+01   1.7502206e+00   0.0000000e+00   0.0000000e+00   0.0000000e+00   0.0000000e+00
   1.1668137e+01   6.7091790e+00   3.7921446e+00   6.6508383e+01   1.3126655e+01   2.3336275e+01   2.0127537e+01   2.1294351e+01   1.1668137e+00  -6.1257721e+00  -1.0501324e+01   4.9006177e+01   2.6253309e+00   1.8960723e+01   2.2461164e+01   1.4001765e+01   3.3837598e+01   9.6262133e+00   1.4876875e+01  -2.3336275e+00   0.0000000e+00   0.0000000e+00   0.0000000e+00   0.0000000e+00
   1.0501324e+01   3.7921446e+00  -6.4174756e+00   6.0090907e+01   1.1084730e+01   1.9544130e+01   1.5751985e+01   1.0501324e+01  -5.8340687e-01  -8.1676962e+00  -1.2251544e+01   4.9589584e+01   3.2087378e+00   1.5751985e+01   1.9252427e+01   1.0501324e+01   3.2670785e+01   6.4174756e+00   1.2251544e+01  -7.0008824e+00   0.0000000e+00   0.0000000e+00   0.0000000e+00   0.0000000e+00
   9.6262133e+00   3.5004412e+00  -1.3710061e+01   5.3673432e+01   9.9179168e+00   1.6918799e+01   1.2543248e+01   1.7502206e+00   5.8340687e-01  -9.3345099e+00  -1.2251544e+01   5.2798322e+01   6.4174756e+00   1.2543248e+01   1.7210503e+01   7.5842893e+00   3.2670785e+01   5.5423652e+00   1.1376434e+01  -1.0209620e+01   0.0000000e+00   0.0000000e+00   0.0000000e+00   0.0000000e+00
   9.9179168e+00   7.2925859e+00  -1.4585172e+01   5.0172991e+01   1.1376434e+01   1.7210503e+01   1.2251544e+01  -2.0419240e+00   4.9589584e+00  -9.0428065e+00  -9.9179168e+00   5.8924094e+01   1.2251544e+01   1.1084730e+01   1.7210503e+01   7.0008824e+00   3.5004412e+01   8.4593996e+00   1.3126655e+01  -1.0501324e+01   0.0000000e+00   0.0000000e+00   0.0000000e+00   0.0000000e+00
   9.6262133e+00   1.2543248e+01  -1.0793027e+01   4.9881287e+01   1.4293468e+01   1.9252427e+01   1.3126655e+01  -2.0419240e+00   9.0428065e+00  -7.5842893e+00  -7.2925859e+00   6.5341569e+01   1.7793909e+01   1.1376434e+01   1.8377316e+01   7.8759927e+00   3.7338040e+01   1.2251544e+01   1.5168579e+01  -9.3345099e+00   0.0000000e+00   0.0000000e+00   0.0000000e+00   0.0000000e+00
   9.9179168e+00   1.8669020e+01  -3.7921446e+00   5.2798322e+01   1.8085613e+01   2.2461164e+01   1.5751985e+01   1.4585172e+00   1.2834951e+01  -4.6672549e+00  -4.6672549e+00   7.0883935e+01   2.1877758e+01   1.4001765e+01   2.0419240e+01   1.0209620e+01   3.9963370e+01   1.6043689e+01   1.6627096e+01  -7.2925859e+00   0.0000000e+00   0.0000000e+00   0.0000000e+00   0.0000000e+00
   9.6262133e+00   2.2169461e+01   2.3336275e+00   5.5715356e+01   2.1294351e+01   2.4794792e+01   1.7502206e+01   5.5423652e+00   1.4293468e+01  -2.6253309e+00  -3.2087378e+00   7.4092672e+01   2.2169461e+01   1.7210503e+01   2.1877758e+01   1.2543248e+01   4.1130184e+01   1.7502206e+01   1.6043689e+01  -6.1257721e+00   0.0000000e+00   0.0000000e+00   0.0000000e+00   0.0000000e+00
   9.0428065e+00   2.3044571e+01   6.4174756e+00   5.6298763e+01   2.3627978e+01   2.5961606e+01   1.7793909e+01   8.7511030e+00   1.4585172e+01  -1.7502206e+00  -3.5004412e+00   7.5259486e+01   1.8669020e+01   2.0127537e+01   2.2169461e+01   1.4001765e+01   4.0546777e+01   1.6335392e+01   1.3710061e+01  -6.4174756e+00   0.0000000e+00   0.0000000e+00   0.0000000e+00   0.0000000e+00
   9.0428065e+00   2.3627978e+01   9.6262133e+00   5.5715356e+01   2.5961606e+01   2.6545013e+01   1.8085613e+01   1.1668137e+01   1.5460282e+01  -2.0419240e+00  -3.7921446e+00   7.5842893e+01   1.4585172e+01   2.2461164e+01   2.1877758e+01   1.5168579e+01   3.9671667e+01   1.4293468e+01   1.1668137e+01  -7.5842893e+00   0.0000000e+00   0.0000000e+00   0.0000000e+00   0.0000000e+00
   1.0501324e+01   2.7420123e+01   1.3418358e+01   5.4548542e+01   2.8878640e+01   2.8003530e+01   1.9252427e+01   1.4293468e+01   1.8669020e+01  -1.7502206e+00  -3.5004412e+00   7.6426300e+01   1.3126655e+01   2.4211385e+01   2.2461164e+01   1.6335392e+01   4.0255074e+01   1.3710061e+01   1.1376434e+01  -7.5842893e+00   0.0000000e+00   0.0000000e+00   0.0000000e+00   0.0000000e+00
   1.2251544e+01   3.5587819e+01   1.8377316e+01   5.3090025e+01   3.1212267e+01   3.0045454e+01   2.1002647e+01   1.6043689e+01   2.3627978e+01  -8.7511030e-01  -2.0419240e+00   7.6134596e+01   1.4876875e+01   2.4503088e+01   2.2752868e+01   1.6918799e+01   4.1713591e+01   1.4293468e+01   1.2543248e+01  -6.7091790e+00   0.0000000e+00   0.0000000e+00   0.0000000e+00   0.0000000e+00
   1.3710061e+01   4.8131067e+01   2.3336275e+01   5.1339804e+01   3.1212267e+01   3.1212267e+01   2.2752868e+01   1.5168579e+01   2.8586937e+01   0.0000000e+00  -5.8340687e-01   7.3509265e+01   1.9544130e+01   2.2752868e+01   2.2169461e+01   1.6335392e+01   4.3463812e+01   1.6043689e+01   1.4585172e+01  -5.5423652e+00   0.0000000e+00   0.0000000e+00   0.0000000e+00   0.0000000e+00
   1.3418358e+01   5.9507501e+01   2.5669902e+01   4.8422770e+01   2.7711826e+01   3.0337157e+01   2.2461164e+01   1.0501324e+01   3.0920564e+01  -8.7511030e-01  -5.8340687e-01   6.8258604e+01   2.4211385e+01   1.8669020e+01   2.0127537e+01   1.3710061e+01   4.3463812e+01   1.7210503e+01   1.5168579e+01  -5.8340687e+00   0.0000000e+00   0.0000000e+00   0.0000000e+00   0.0000000e+00
   1.1376434e+01   6.5633273e+01   2.4503088e+01   4.4922329e+01   2.1294351e+01   2.7128419e+01   2.0127537e+01   3.7921446e+00   2.9753750e+01  -3.7921446e+00  -1.7502206e+00   6.1549425e+01   2.7128419e+01   1.3710061e+01   1.6627096e+01   9.3345099e+00   4.1130184e+01   1.6918799e+01   1.4001765e+01  -8.1676962e+00   0.0000000e+00   0.0000000e+00   0.0000000e+00   0.0000000e+00
   7.0008824e+00   6.2424535e+01   1.9544130e+01   4.1130184e+01   1.3418358e+01   2.1586054e+01   1.5168579e+01  -2.6253309e+00   2.4794792e+01  -8.7511030e+00  -4.6672549e+00   5.5131949e+01   2.6253309e+01   8.7511030e+00   1.1959841e+01   4.0838481e+00   3.6462929e+01   1.4293468e+01   9.9179168e+00  -1.2834951e+01   0.0000000e+00   0.0000000e+00   0.0000000e+00   0.0000000e+00
   2.9170343e+00   5.2214915e+01   1.4293468e+01   3.8504853e+01   6.4174756e+00   1.5751985e+01   9.9179168e+00  -6.1257721e+00   1.7793909e+01  -1.2834951e+01  -7.8759927e+00   5.1631508e+01   2.2169461e+01   6.1257721e+00   8.1676962e+00  -5.8340687e-01   3.1212267e+01   1.0209620e+01   4.3755515e+00  -1.8085613e+01   0.0000000e+00   0.0000000e+00   0.0000000e+00   0.0000000e+00
   5.8340687e-01   3.8504853e+01   1.0501324e+01   3.8213150e+01   2.6253309e+00   1.2543248e+01   6.1257721e+00  -4.6672549e+00   1.1959841e+01  -1.4585172e+01  -9.6262133e+00   5.2506618e+01   1.6627096e+01   7.0008824e+00   6.4174756e+00  -2.3336275e+00   2.7128419e+01   6.7091790e+00  -2.9170343e-01  -2.2169461e+01   0.0000000e+00   0.0000000e+00   0.0000000e+00   0.0000000e+00
  -2.9170343e-01   2.4794792e+01   7.5842893e+00   3.9088260e+01   1.4585172e+00   1.0793027e+01   3.2087378e+00  -1.1668137e+00   8.4593996e+00  -1.4293468e+01  -1.0793027e+01   5.5423652e+01   1.0501324e+01   9.3345099e+00   5.8340687e+00  -2.9170343e+00   2.4211385e+01   3.2087378e+00  -4.0838481e+00  -2.5669902e+01   0.0000000e+00   0.0000000e+00   0.0000000e+00   0.0000000e+00
   2.9170343e-01   1.2543248e+01   3.2087378e+00   3.9963370e+01   1.4585172e+00   1.0793027e+01   1.1668137e+00   1.1668137e+00   6.7091790e+00  -1.3126655e+01  -1.1959841e+01   5.7757280e+01   4.3755515e+00   1.1668137e+01   5.8340687e+00  -3.2087378e+00   2.2461164e+01  -2.9170343e-01  -6.7091790e+00  -2.8295233e+01   0.0000000e+00   0.0000000e+00   0.0000000e+00   0.0000000e+00
   5.8340687e-01   2.0419240e+00  -3.7921446e+00   3.9963370e+01   1.7502206e+00   1.0793027e+01  -8.7511030e-01  -2.9170343e-01   6.7091790e+00  -1.2543248e+01  -1.3710061e+01   5.6590466e+01  -2.9170343e-01   1.1959841e+01   5.2506618e+00  -4.6672549e+00   2.1002647e+01  -3.7921446e+00  -8.4593996e+00  -3.1503971e+01   0.0000000e+00   0.0000000e+00   0.0000000e+00   0.0000000e+00
   1.1668137e+00  -6.1257721e+00  -1.2543248e+01   3.9671667e+01   1.7502206e+00   1.0501324e+01  -3.2087378e+00  -4.9589584e+00   7.8759927e+00  -1.1668137e+01  -1.5460282e+01   5.2798322e+01  -1.7502206e+00   1.0793027e+01   4.3755515e+00  -7.2925859e+00   1.9835834e+01  -6.4174756e+00  -9.3345099e+00  -3.4421005e+01   0.0000000e+00   0.0000000e+00   0.0000000e+00   0.0000000e+00
   1.7502206e+00  -1.1959841e+01  -1.9835834e+01   4.0255074e+01   1.1668137e+00   1.0793027e+01  -4.6672549e+00  -1.0793027e+01   1.1084730e+01  -9.9179168e+00  -1.6043689e+01   4.7547660e+01   8.7511030e-01   8.4593996e+00   3.5004412e+00  -9.3345099e+00   1.9544130e+01  -7.0008824e+00  -8.4593996e+00  -3.6462929e+01   0.0000000e+00   0.0000000e+00   0.0000000e+00   0.0000000e+00
   2.6253309e+00  -1.4585172e+01  -2.3044571e+01   4.2005295e+01   2.9170343e-01   1.1084730e+01  -5.2506618e+00  -1.5168579e+01   1.5751985e+01  -6.7091790e+00  -1.5168579e+01   4.2880405e+01   7.0008824e+00   6.4174756e+00   3.5004412e+00  -1.0501324e+01   2.0127537e+01  -5.2506618e+00  -6.7091790e+00  -3.6754633e+01   0.0000000e+00   0.0000000e+00   0.0000000e+00   0.0000000e+00
   4.6672549e+00  -1.2834951e+01  -1.9835834e+01   4.5797439e+01   0.0000000e+00   1.2543248e+01  -3.7921446e+00  -1.4585172e+01   2.1877758e+01  -1.7502206e+00  -1.2251544e+01   4.0255074e+01   1.5168579e+01   5.8340687e+00   4.9589584e+00  -9.0428065e+00   2.1877758e+01  -8.7511030e-01  -3.2087378e+00  -3.4129302e+01   0.0000000e+00   0.0000000e+00   0.0000000e+00   0.0000000e+00
   6.4174756e+00  -8.4593996e+00  -1.2251544e+01   4.9006177e+01  -8.7511030e-01   1.3710061e+01  -1.1668137e+00  -1.0793027e+01   2.5961606e+01   3.2087378e+00  -9.3345099e+00   3.9963370e+01   2.2169461e+01   7.0008824e+00   7.0008824e+00  -5.8340687e+00   2.3336275e+01   3.7921446e+00  -5.8340687e-01  -3.0045454e+01   0.0000000e+00   0.0000000e+00   0.0000000e+00   0.0000000e+00
   8.1676962e+00  -2.9170343e+00  -2.6253309e+00   5.2214915e+01  -1.1668137e+00   1.4001765e+01   1.7502206e+00  -4.3755515e+00   2.8003530e+01   7.5842893e+00  -6.7091790e+00   4.1713591e+01   2.5961606e+01   8.7511030e+00   9.3345099e+00  -2.0419240e+00   2.4211385e+01   7.8759927e+00   8.7511030e-01  -2.5378199e+01   0.0000000e+00   0.0000000e+00   0.0000000e+00   0.0000000e+00
   7.5842893e+00   5.8340687e-01   4.3755515e+00   5.3965135e+01  -2.0419240e+00   1.1959841e+01   3.5004412e+00   1.1668137e+00   2.7128419e+01   8.4593996e+00  -6.4174756e+00   4.4338922e+01   2.3627978e+01   1.0209620e+01   9.9179168e+00   8.7511030e-01   2.3044571e+01   8.4593996e+00  -5.8340687e-01  -2.2461164e+01   0.0000000e+00   0.0000000e+00   0.0000000e+00   0.0000000e+00
   5.2506618e+00   1.7502206e+00   7.5842893e+00   5.4840246e+01  -3.2087378e+00   7.8759927e+00   3.5004412e+00   4.9589584e+00   2.3919682e+01   6.4174756e+00  -8.1676962e+00   4.7839363e+01   1.6335392e+01   1.0209620e+01   9.0428065e+00   2.9170343e+00   1.9835834e+01   6.1257721e+00  -3.7921446e+00  -2.1294351e+01   0.0000000e+00   0.0000000e+00   0.0000000e+00   0.0000000e+00
   1.7502206e+00   8.7511030e-01   6.4174756e+00   5.5423652e+01  -4.0838481e+00   2.6253309e+00   2.0419240e+00   6.1257721e+00   1.8960723e+01   2.0419240e+00  -1.1084730e+01   5.1339804e+01   7.0008824e+00   9.3345099e+00   7.5842893e+00   3.5004412e+00   1.5751985e+01   1.7502206e+00  -8.1676962e+00  -2.2169461e+01   0.0000000e+00   0.0000000e+00   0.0000000e+00   0.0000000e+00
  -1.4585172e+00  -2.9170343e-01   2.3336275e+00   5.5131949e+01  -4.3755515e+00  -1.4585172e+00   5.8340687e-01   5.5423652e+00   1.3710061e+01  -2.9170343e+00  -1.3126655e+01   5.4548542e+01  -5.8340687e-01   8.1676962e+00   6.1257721e+00   3.5004412e+00   1.1959841e+01  -2.3336275e+00  -1.1084730e+01  -2.3336275e+01   0.0000000e+00   0.0000000e+00   0.0000000e+00   0.0000000e+00
  -4.3755515e+00  -2.0419240e+00  -4.0838481e+00   5.1923211e+01  -4.0838481e+00  -4.6672549e+00  -1.4585172e+00   3.5004412e+00   8.4593996e+00  -7.0008824e+00  -1.5168579e+01   5.5715356e+01  -5.5423652e+00   5.8340687e+00   4.6672549e+00   2.6253309e+00   8.7511030e+00  -6.1257721e+00  -1.2834951e+01  -2.4794792e+01   0.0000000e+00   0.0000000e+00   0.0000000e+00   0.0000000e+00
  -5.5423652e+00  -2.3336275e+00  -9.6262133e+00   4.5797439e+01  -2.3336275e+00  -5.8340687e+00  -2.6253309e+00   2.0419240e+00   4.3755515e+00  -9.3345099e+00  -1.5460282e+01   5.4548542e+01  -5.8340687e+00   3.5004412e+00   4.3755515e+00   2.0419240e+00   7.0008824e+00  -7.8759927e+00  -1.2251544e+01  -2.5086495e+01   0.0000000e+00   0.0000000e+00   0.0000000e+00   0.0000000e+00
  -5.2506618e+00  -5.8340687e-01  -1.2543248e+01   3.6171226e+01  -2.9170343e-01  -5.2506618e+00  -3.5004412e+00   2.3336275e+00   1.7502206e+00  -9.9179168e+00  -1.4585172e+01   5.0464694e+01  -3.5004412e+00   1.1668137e+00   4.9589584e+00   1.4585172e+00   6.1257721e+00  -7.8759927e+00  -1.0501324e+01  -2.4211385e+01   0.0000000e+00   0.0000000e+00   0.0000000e+00   0.0000000e+00
  -3.7921446e+00   3.7921446e+00  -1.0793027e+01   2.5961606e+01   1.4585172e+00  -3.5004412e+00  -2.6253309e+00   4.9589584e+00   8.7511030e-01  -9.3345099e+00  -1.2251544e+01   4.4630625e+01   2.9170343e-01   0.0000000e+00   6.4174756e+00   2.0419240e+00   6.4174756e+00  -6.1257721e+00  -7.5842893e+00  -2.1294351e+01   0.0000000e+00   0.0000000e+00   0.0000000e+00   0.0000000e+00
  -2.0419240e+00   1.0209620e+01  -6.1257721e+00   1.8085613e+01   2.0419240e+00  -1.1668137e+00  -8.7511030e-01   9.6262133e+00   5.8340687e-01  -8.7511030e+00  -9.9179168e+00   3.7921446e+01   3.2087378e+00   0.0000000e+00   9.0428065e+00   3.2087378e+00   7.0008824e+00  -3.7921446e+00  -4.6672549e+00  -1.7502206e+01   0.0000000e+00   0.0000000e+00   0.0000000e+00   0.0000000e+00
  -1.1668137e+00   1.6627096e+01   2.9170343e-01   1.4585172e+01   1.1668137e+00   1.7502206e+00   2.0419240e+00   1.4876875e+01   2.9170343e-01  -7.8759927e+00  -7.5842893e+00   3.2087378e+01   4.3755515e+00   1.7502206e+00   1.1959841e+01   5.5423652e+00   7.5842893e+00  -1.7502206e+00  -2.0419240e+00  -1.3418358e+01   0.0000000e+00   0.0000000e+00   0.0000000e+00   0.0000000e+00
  -2.6253309e+00   2.0710944e+01   4.6672549e+00   1.5168579e+01  -1.1668137e+00   3.5004412e+00   4.6672549e+00   1.8377316e+01  -1.7502206e+00  -7.8759927e+00  -7.0008824e+00   2.8295233e+01   2.9170343e+00   4.3755515e+00   1.4293468e+01   7.0008824e+00   7.2925859e+00  -1.7502206e+00  -1.4585172e+00  -1.1084730e+01   0.0000000e+00   0.0000000e+00   0.0000000e+00   0.0000000e+00
  -4.9589584e+00   2.2169461e+01   6.1257721e+00   1.8085613e+01  -4.0838481e+00   4.9589584e+00   7.2925859e+00   2.0127537e+01  -4.0838481e+00  -7.5842893e+00  -7.2925859e+00   2.6836716e+01   0.0000000e+00   7.5842893e+00   1.5751985e+01   8.4593996e+00   6.4174756e+00  -3.2087378e+00  -1.7502206e+00  -1.0501324e+01   0.0000000e+00   0.0000000e+00   0.0000000e+00   0.0000000e+00
  -8.1676962e+00   2.1294351e+01   4.3755515e+00   2.0127537e+01  -6.7091790e+00   6.1257721e+00   9.6262133e+00   2.0127537e+01  -6.1257721e+00  -7.5842893e+00  -8.4593996e+00   2.7128419e+01  -3.2087378e+00   1.0501324e+01   1.6335392e+01   9.0428065e+00   5.2506618e+00  -5.8340687e+00  -2.6253309e+00  -1.1084730e+01   0.0000000e+00   0.0000000e+00   0.0000000e+00   0.0000000e+00
  -1.2251544e+01   1.8960723e+01   2.9170343e-01   1.8377316e+01  -9.6262133e+00   6.4174756e+00   1.0501324e+01   1.8377316e+01  -7.2925859e+00  -8.7511030e+00  -1.0209620e+01   2.6253309e+01  -6.4174756e+00   1.1376434e+01   1.6043689e+01   8.7511030e+00   3.5004412e+00  -9.3345099e+00  -3.7921446e+00  -1.2834951e+01   0.0000000e+00   0.0000000e+00   0.0000000e+00   0.0000000e+00
  -1.5460282e+01   1.6335392e+01  -4.0838481e+00   1.4585172e+01  -1.2251544e+01   6.4174756e+00   1.1084730e+01   1.5751985e+01  -7.0008824e+00  -1.1376434e+01  -1.1084730e+01   2.4211385e+01  -7.5842893e+00   1.0793027e+01   1.5751985e+01   8.4593996e+00   2.3336275e+00  -1.1959841e+01  -3.7921446e+00  -1.4001765e+01   0.0000000e+00   0.0000000e+00   0.0000000e+00   0.0000000e+00
  -1.6918799e+01   1.4585172e+01  -6.7091790e+00   1.1668137e+01  -1.4293468e+01   7.0008824e+00   1.1668137e+01   1.2834951e+01  -4.9589584e+00  -1.4293468e+01  -1.0501324e+01   2.2169461e+01  -6.1257721e+00   9.0428065e+00   1.5751985e+01   9.0428065e+00   2.0419240e+00  -1.2543248e+01  -1.7502206e+00  -1.3710061e+01   0.0000000e+00   0.0000000e+00   0.0000000e+00   0.0000000e+00
  -1.6335392e+01   1.4293468e+01  -6.4174756e+00   1.1668137e+01  -1.5168579e+01   8.1676962e+00   1.2543248e+01   1.0501324e+01  -2.3336275e+00  -1.5751985e+01  -8.1676962e+00   2.1294351e+01  -2.0419240e+00   7.5842893e+00   1.7210503e+01   1.0501324e+01   2.9170343e+00  -1.0793027e+01   1.7502206e+00  -1.1959841e+01   0.0000000e+00   0.0000000e+00   0.0000000e+00   0.0000000e+00
  -1.3418358e+01   1.5751985e+01  -3.2087378e+00   1.4876875e+01  -1.3710061e+01   1.0501324e+01   1.4876875e+01   9.6262133e+00   2.9170343e-01  -1.4001765e+01  -4.9589584e+00   2.3336275e+01   4.0838481e+00   7.0008824e+00   1.9544130e+01   1.4001765e+01   4.9589584e+00  -6.7091790e+00   6.1257721e+00  -8.4593996e+00   0.0000000e+00   0.0000000e+00   0.0000000e+00   0.0000000e+00
  -9.9179168e+00   1.7210503e+01   1.1668137e+00   1.8960723e+01  -1.0793027e+01   1.1959841e+01   1.6918799e+01   1.0501324e+01   1.4585172e+00  -1.0793027e+01  -2.3336275e+00   2.7420123e+01   9.0428065e+00   7.0008824e+00   2.1294351e+01   1.8085613e+01   6.4174756e+00  -2.9170343e+00   9.6262133e+00  -4.9589584e+00   0.0000000e+00   0.0000000e+00   0.0000000e+00   0.0000000e+00
  -6.7091790e+00   1.8085613e+01   5.2506618e+00   2.2169461e+01  -6.7091790e+00   1.2251544e+01   1.8669020e+01   1.2251544e+01   1.4585172e+00  -7.8759927e+00  -8.7511030e-01   3.2670785e+01   1.1084730e+01   7.5842893e+00   2.2461164e+01   2.1877758e+01   7.0008824e+00   0.0000000e+00   1.1084730e+01  -2.3336275e+00   0.0000000e+00   0.0000000e+00   0.0000000e+00   0.0000000e+00
  -5.5423652e+00   1.4876875e+01   6.1257721e+00   2.2752868e+01  -3.7921446e+00   1.0501324e+01   1.8377316e+01   1.4293468e+01  -1.4585172e+00  -8.1676962e+00  -2.0419240e+00   3.7629743e+01   8.4593996e+00   7.2925859e+00   2.1586054e+01   2.3336275e+01   5.5423652e+00  -5.8340687e-01   9.3345099e+00  -2.3336275e+00   0.0000000e+00   0.0000000e+00   0.0000000e+00   0.0000000e+00
  -6.1257721e+00   9.0428065e+00   4.6672549e+00   2.2461164e+01  -1.7502206e+00   8.1676962e+00   1.6627096e+01   1.6335392e+01  -5.8340687e+00  -1.1376434e+01  -4.9589584e+00   4.1130184e+01   2.3336275e+00   7.0008824e+00   1.9252427e+01   2.2752868e+01   2.9170343e+00  -3.2087378e+00   5.8340687e+00  -3.7921446e+00   0.0000000e+00   0.0000000e+00   0.0000000e+00   0.0000000e+00
  -7.5842893e+00   2.0419240e+00   1.7502206e+00   2.3627978e+01  -2.9170343e-01   7.0008824e+00   1.4293468e+01   1.8085613e+01  -1.0209620e+01  -1.5460282e+01  -7.2925859e+00   4.2296998e+01  -4.0838481e+00   7.0008824e+00   1.6627096e+01   2.0710944e+01   8.7511030e-01  -6.7091790e+00   1.7502206e+00  -5.8340687e+00   0.0000000e+00   0.0000000e+00   0.0000000e+00   0.0000000e+00
  -8.7511030e+00  -3.7921446e+00  -1.4585172e+00   2.7420123e+01   2.9170343e-01   7.0008824e+00   1.2251544e+01   1.8377316e+01  -1.3710061e+01  -1.8377316e+01  -8.7511030e+00   3.9963370e+01  -8.4593996e+00   7.0008824e+00   1.4585172e+01   1.8669020e+01   0.0000000e+00  -9.9179168e+00  -8.7511030e-01  -7.5842893e+00   0.0000000e+00   0.0000000e+00   0.0000000e+00   0.0000000e+00
  -9.3345099e+00  -6.4174756e+00  -3.7921446e+00   3.3254191e+01   0.0000000e+00   8.4593996e+00   1.0501324e+01   1.7210503e+01  -1.5168579e+01  -1.9835834e+01  -8.4593996e+00   3.4421005e+01  -9.6262133e+00   6.1257721e+00   1.3126655e+01   1.6627096e+01   2.9170343e-01  -1.1084730e+01  -2.0419240e+00  -8.1676962e+00   0.0000000e+00   0.0000000e+00   0.0000000e+00   0.0000000e+00
  -8.1676962e+00  -4.3755515e+00  -4.6672549e+00   3.9963370e+01  -1.4585172e+00   1.0501324e+01   9.6262133e+00   1.4876875e+01  -1.2834951e+01  -2.0127537e+01  -6.4174756e+00   2.6836716e+01  -7.0008824e+00   4.3755515e+00   1.2834951e+01   1.6043689e+01   1.7502206e+00  -1.0209620e+01  -1.1668137e+00  -7.0008824e+00   0.0000000e+00   0.0000000e+00   0.0000000e+00   0.0000000e+00
  -5.5423652e+00   5.8340687e-01  -3.7921446e+00   4.6089143e+01  -3.2087378e+00   1.1668137e+01   9.9179168e+00   1.3126655e+01  -7.8759927e+00  -2.1002647e+01  -3.7921446e+00   1.9252427e+01  -2.3336275e+00   1.4585172e+00   1.2543248e+01   1.6627096e+01   3.2087378e+00  -7.8759927e+00   5.8340687e-01  -4.3755515e+00   0.0000000e+00   0.0000000e+00   0.0000000e+00   0.0000000e+00
  -2.0419240e+00   7.5842893e+00  -1.1668137e+00   4.9589584e+01  -4.0838481e+00   1.2251544e+01   1.1376434e+01   1.2543248e+01  -1.1668137e+00  -2.2169461e+01  -5.8340687e-01   1.4293468e+01   2.9170343e+00  -1.4585172e+00   1.2834951e+01   1.8669020e+01   4.6672549e+00  -4.3755515e+00   3.2087378e+00  -8.7511030e-01   0.0000000e+00   0.0000000e+00   0.0000000e+00   0.0000000e+00
   5.8340687e-01   1.3126655e+01   1.4585172e+00   4.9297880e+01  -4.0838481e+00   1.0501324e+01   1.2543248e+01   1.2834951e+01   4.6672549e+00  -2.4211385e+01   8.7511030e-01   1.2543248e+01   5.8340687e+00  -4.0838481e+00   1.2834951e+01   1.9835834e+01   4.6672549e+00  -1.7502206e+00   3.7921446e+00   2.3336275e+00   0.0000000e+00   0.0000000e+00   0.0000000e+00   0.0000000e+00
   1.4585172e+00   1.6043689e+01   3.2087378e+00   4.5505736e+01  -3.7921446e+00   7.2925859e+00   1.2834951e+01   1.3418358e+01   7.5842893e+00  -2.5961606e+01   2.9170343e-01   1.3126655e+01   5.2506618e+00  -6.1257721e+00   1.1959841e+01   2.0419240e+01   3.2087378e+00  -1.4585172e+00   2.6253309e+00   3.7921446e+00   0.0000000e+00   0.0000000e+00   0.0000000e+00   0.0000000e+00
   0.0000000e+00   1.4585172e+01   2.6253309e+00   3.9379964e+01  -3.7921446e+00   2.6253309e+00   1.1376434e+01   1.3126655e+01   6.1257721e+00  -2.6836716e+01  -2.6253309e+00   1.4876875e+01   2.9170343e-01  -7.0008824e+00   9.9179168e+00   1.9544130e+01   2.9170343e-01  -3.7921446e+00  -8.7511030e-01   2.6253309e+00   0.0000000e+00   0.0000000e+00   0.0000000e+00   0.0000000e+00
  -2.6253309e+00   1.0793027e+01   1.1668137e+00   3.2962488e+01  -3.7921446e+00  -1.1668137e+00   9.6262133e+00   1.2834951e+01   1.7502206e+00  -2.6253309e+01  -5.8340687e+00   1.6627096e+01  -6.7091790e+00  -6.7091790e+00   8.1676962e+00   1.8669020e+01  -2.9170343e+00  -7.8759927e+00  -4.9589584e+00   5.8340687e-01   0.0000000e+00   0.0000000e+00   0.0000000e+00   0.0000000e+00
  -5.2506618e+00   5.5423652e+00  -1.7502206e+00   2.6253309e+01  -3.7921446e+00  -4.0838481e+00   7.0008824e+00   1.2543248e+01  -4.3755515e+00  -2.5961606e+01  -9.3345099e+00   1.7793909e+01  -1.4585172e+01  -6.1257721e+00   6.1257721e+00   1.7502206e+01  -6.1257721e+00  -1.2543248e+01  -9.0428065e+00  -2.0419240e+00   0.0000000e+00   0.0000000e+00   0.0000000e+00   0.0000000e+00
  -6.7091790e+00   1.7502206e+00  -3.5004412e+00   1.9835834e+01  -3.5004412e+00  -4.9589584e+00   5.2506618e+00   1.2834951e+01  -8.4593996e+00  -2.6253309e+01  -1.1668137e+01   1.9252427e+01  -2.0419240e+01  -6.1257721e+00   4.9589584e+00   1.7210503e+01  -7.5842893e+00  -1.6335392e+01  -1.1084730e+01  -3.7921446e+00   0.0000000e+00   0.0000000e+00   0.0000000e+00   0.0000000e+00
  -6.4174756e+00   2.9170343e-01  -4.0838481e+00   1.3710061e+01  -2.6253309e+00  -4.3755515e+00   4.6672549e+00   1.3710061e+01  -9.6262133e+00  -2.7128419e+01  -1.2543248e+01   2.1002647e+01  -2.3627978e+01  -7.5842893e+00   4.0838481e+00   1.6627096e+01  -7.2925859e+00  -1.8377316e+01  -1.1084730e+01  -4.0838481e+00   0.0000000e+00   0.0000000e+00   0.0000000e+00   0.0000000e+00
  -4.6672549e+00   2.6253309e+00  -2.9170343e+00   9.3345099e+00  -1.7502206e+00  -2.0419240e+00   4.9589584e+00   1.4293468e+01  -7.2925859e+00  -2.7420123e+01  -1.1959841e+01   2.2169461e+01  -2.2752868e+01  -9.6262133e+00   3.7921446e+00   1.6043689e+01  -5.5423652e+00  -1.8085613e+01  -8.7511030e+00  -2.9170343e+00   0.0000000e+00   0.0000000e+00   0.0000000e+00   0.0000000e+00
  -2.3336275e+00   7.8759927e+00  -2.9170343e-01   7.5842893e+00  -5.8340687e-01   1.4585172e+00   6.1257721e+00   1.4585172e+01  -4.3755515e+00  -2.6545013e+01  -1.0501324e+01   2.2461164e+01  -1.9252427e+01  -1.1376434e+01   4.3755515e+00   1.4876875e+01  -2.3336275e+00  -1.5460282e+01  -5.5423652e+00  -2.9170343e-01   0.0000000e+00   0.0000000e+00   0.0000000e+00   0.0000000e+00
  -5.8340687e-01   1.3710061e+01   2.0419240e+00   9.3345099e+00  -2.9170343e-01   5.2506618e+00   7.2925859e+00   1.4001765e+01  -3.2087378e+00  -2.4794792e+01  -9.3345099e+00   2.1294351e+01  -1.4585172e+01  -1.2834951e+01   4.9589584e+00   1.3126655e+01   8.7511030e-01  -1.1959841e+01  -2.3336275e+00   2.6253309e+00   0.0000000e+00   0.0000000e+00   0.0000000e+00   0.0000000e+00
   0.0000000e+00   1.8085613e+01   3.2087378e+00   1.4001765e+01  -8.7511030e-01   7.5842893e+00   8.4593996e+00   1.2834951e+01  -5.5423652e+00  -2.3627978e+01  -8.7511030e+00   2.0127537e+01  -1.0501324e+01  -1.3126655e+01   5.2506618e+00   1.1668137e+01   2.9170343e+00  -9.3345099e+00  -2.9170343e-01   4.9589584e+00   0.0000000e+00   0.0000000e+00   0.0000000e+00   0.0000000e+00
   2.9170343e-01   2.0710944e+01   3.2087378e+00   2.0127537e+01  -2.9170343e-01   9.3345099e+00   9.3345099e+00   1.1959841e+01  -9.6262133e+00  -2.3627978e+01  -8.4593996e+00   2.0419240e+01  -8.1676962e+00  -1.1668137e+01   5.8340687e+00   1.1668137e+01   4.6672549e+00  -7.2925859e+00   2.9170343e-01   6.4174756e+00   0.0000000e+00   0.0000000e+00   0.0000000e+00   0.0000000e+00
  -5.8340687e-01   2.1294351e+01   2.3336275e+00   2.6253309e+01   1.1668137e+00   9.6262133e+00   9.9179168e+00   1.1376434e+01  -1.4876875e+01  -2.5378199e+01  -8.7511030e+00   2.2169461e+01  -9.0428065e+00  -9.6262133e+00   6.1257721e+00   1.2834951e+01   5.2506618e+00  -6.7091790e+00  -5.8340687e-01   6.7091790e+00   0.0000000e+00   0.0000000e+00   0.0000000e+00   0.0000000e+00
  -2.3336275e+00   2.0419240e+01   1.1668137e+00   3.0337157e+01   3.7921446e+00   9.3345099e+00   9.6262133e+00   1.0501324e+01  -1.8669020e+01  -2.7420123e+01  -9.3345099e+00   2.4503088e+01  -1.1959841e+01  -7.0008824e+00   6.4174756e+00   1.4293468e+01   5.8340687e+00  -7.8759927e+00  -2.3336275e+00   5.8340687e+00   0.0000000e+00   0.0000000e+00   0.0000000e+00   0.0000000e+00
  -4.9589584e+00   1.8669020e+01  -2.9170343e-01   3.1503971e+01   5.5423652e+00   8.1676962e+00   7.8759927e+00   8.1676962e+00  -2.1294351e+01  -2.8878640e+01  -1.1376434e+01   2.5961606e+01  -1.6043689e+01  -4.6672549e+00   5.5423652e+00   1.4876875e+01   5.8340687e+00  -1.0501324e+01  -4.6672549e+00   3.5004412e+00   0.0000000e+00   0.0000000e+00   0.0000000e+00   0.0000000e+00
  -6.7091790e+00   1.8377316e+01  -8.7511030e-01   3.1212267e+01   6.1257721e+00   8.1676962e+00   6.4174756e+00   4.6672549e+00  -2.0710944e+01  -2.8003530e+01  -1.3126655e+01   2.6545013e+01  -1.8377316e+01  -3.2087378e+00   4.9589584e+00   1.4293468e+01   7.2925859e+00  -1.2543248e+01  -6.1257721e+00   8.7511030e-01   0.0000000e+00   0.0000000e+00   0.0000000e+00   0.0000000e+00
  -7.8759927e+00   2.0127537e+01  -5.8340687e-01   2.9170343e+01   5.2506618e+00   8.7511030e+00   5.2506618e+00   8.7511030e-01  -1.8669020e+01  -2.5086495e+01  -1.4293468e+01   2.6253309e+01  -1.7210503e+01  -2.6253309e+00   4.3755515e+00   1.1959841e+01   9.3345099e+00  -1.3418358e+01  -6.1257721e+00  -1.1668137e+00   0.0000000e+00   0.0000000e+00   0.0000000e+00   0.0000000e+00
  -8.1676962e+00   2.3627978e+01   5.8340687e-01   2.5961606e+01   3.2087378e+00   9.6262133e+00   5.2506618e+00  -2.9170343e+00  -1.5460282e+01  -2.1294351e+01  -1.4876875e+01   2.5961606e+01  -1.2543248e+01  -3.5004412e+00   3.7921446e+00   9.3345099e+00   1.1959841e+01  -1.2543248e+01  -4.6672549e+00  -2.3336275e+00   0.0000000e+00   0.0000000e+00   0.0000000e+00   0.0000000e+00
  -7.8759927e+00   2.6836716e+01   2.3336275e+00   2.1294351e+01   1.1668137e+00   9.6262133e+00   5.2506618e+00  -5.8340687e+00  -1.2834951e+01  -1.8377316e+01  -1.4876875e+01   2.5378199e+01  -6.4174756e+00  -5.5423652e+00   2.9170343e+00   6.1257721e+00   1.4293468e+01  -1.0793027e+01  -2.6253309e+00  -2.6253309e+00   0.0000000e+00   0.0000000e+00   0.0000000e+00   0.0000000e+00
  -7.0008824e+00   2.8586937e+01   4.0838481e+00   1.6627096e+01   0.0000000e+00   9.0428065e+00   5.5423652e+00  -7.2925859e+00  -1.0209620e+01  -1.6627096e+01  -1.4585172e+01   2.5961606e+01  -2.9170343e-01  -8.1676962e+00   2.3336275e+00   4.3755515e+00   1.5751985e+01  -8.4593996e+00  -8.7511030e-01  -2.0419240e+00   0.0000000e+00   0.0000000e+00   0.0000000e+00   0.0000000e+00
  -6.7091790e+00   2.6836716e+01   5.5423652e+00   1.2834951e+01  -5.8340687e-01   7.8759927e+00   4.9589584e+00  -7.8759927e+00  -8.4593996e+00  -1.6335392e+01  -1.4585172e+01   2.6836716e+01   3.2087378e+00  -9.9179168e+00   1.7502206e+00   3.5004412e+00   1.6043689e+01  -7.0008824e+00  -5.8340687e-01  -1.7502206e+00   0.0000000e+00   0.0000000e+00   0.0000000e+00   0.0000000e+00
  -7.0008824e+00   2.1294351e+01   5.8340687e+00   1.0793027e+01  -8.7511030e-01   6.4174756e+00   3.5004412e+00  -8.7511030e+00  -7.8759927e+00  -1.7210503e+01  -1.5751985e+01   2.8295233e+01   3.2087378e+00  -1.0501324e+01   1.4585172e+00   4.0838481e+00   1.5168579e+01  -7.0008824e+00  -1.7502206e+00  -2.3336275e+00   0.0000000e+00   0.0000000e+00   0.0000000e+00   0.0000000e+00
  -7.8759927e+00   1.2834951e+01   4.9589584e+00   1.1084730e+01  -1.7502206e+00   5.2506618e+00   1.4585172e+00  -9.9179168e+00  -8.7511030e+00  -1.8960723e+01  -1.7502206e+01   3.0628861e+01   0.0000000e+00  -9.0428065e+00   1.4585172e+00   5.2506618e+00   1.3418358e+01  -8.7511030e+00  -4.6672549e+00  -4.0838481e+00   0.0000000e+00   0.0000000e+00   0.0000000e+00   0.0000000e+00
  -9.0428065e+00   3.5004412e+00   2.9170343e+00   1.2834951e+01  -3.2087378e+00   4.0838481e+00  -5.8340687e-01  -1.1376434e+01  -1.0793027e+01  -2.1586054e+01  -1.9835834e+01   3.4129302e+01  -4.6672549e+00  -6.7091790e+00   1.4585172e+00   6.1257721e+00   1.1376434e+01  -1.1668137e+01  -8.1676962e+00  -6.4174756e+00   0.0000000e+00   0.0000000e+00   0.0000000e+00   0.0000000e+00
  -9.9179168e+00  -4.3755515e+00   0.0000000e+00   1.6335392e+01  -4.6672549e+00   3.2087378e+00  -1.7502206e+00  -1.2251544e+01  -1.2543248e+01  -2.4794792e+01  -2.1877758e+01   3.8796557e+01  -9.6262133e+00  -4.0838481e+00   2.0419240e+00   7.0008824e+00   9.6262133e+00  -1.4876875e+01  -1.1376434e+01  -9.0428065e+00   0.0000000e+00   0.0000000e+00   0.0000000e+00   0.0000000e+00
  -1.0793027e+01  -9.0428065e+00  -2.6253309e+00   2.0710944e+01  -6.1257721e+00   3.2087378e+00  -1.4585172e+00  -1.2543248e+01  -1.3126655e+01  -2.7128419e+01  -2.2752868e+01   4.4047219e+01  -1.2543248e+01  -2.0419240e+00   2.9170343e+00   7.2925859e+00   9.3345099e+00  -1.7210503e+01  -1.2834951e+01  -1.0793027e+01   0.0000000e+00   0.0000000e+00   0.0000000e+00   0.0000000e+00
  -1.1668137e+01  -9.9179168e+00  -4.0838481e+00   2.4794792e+01  -8.1676962e+00   3.2087378e+00  -2.9170343e-01  -1.2251544e+01  -1.1668137e+01  -2.7711826e+01  -2.2461164e+01   4.7839363e+01  -1.3126655e+01  -1.4585172e+00   3.7921446e+00   7.5842893e+00   9.3345099e+00  -1.8377316e+01  -1.2834951e+01  -1.1668137e+01   0.0000000e+00   0.0000000e+00   0.0000000e+00   0.0000000e+00
  -1.2834951e+01  -7.2925859e+00  -4.3755515e+00   2.8003530e+01  -1.0793027e+01   3.7921446e+00   1.7502206e+00  -1.1376434e+01  -8.1676962e+00  -2.5669902e+01  -2.0710944e+01   4.7547660e+01  -1.0501324e+01  -2.9170343e+00   4.6672549e+00   8.4593996e+00   1.0793027e+01  -1.7793909e+01  -1.0793027e+01  -1.0793027e+01   0.0000000e+00   0.0000000e+00   0.0000000e+00   0.0000000e+00
  -1.4001765e+01  -2.0419240e+00  -3.2087378e+00   2.8878640e+01  -1.4001765e+01   4.0838481e+00   3.7921446e+00  -9.9179168e+00  -3.5004412e+00  -2.1586054e+01  -1.8377316e+01   4.2880405e+01  -5.8340687e+00  -5.5423652e+00   4.9589584e+00   9.3345099e+00   1.2251544e+01  -1.6043689e+01  -7.8759927e+00  -8.4593996e+00   0.0000000e+00   0.0000000e+00   0.0000000e+00   0.0000000e+00
  -1.5168579e+01   3.7921446e+00  -8.7511030e-01   2.7420123e+01  -1.7210503e+01   4.3755515e+00   6.1257721e+00  -7.0008824e+00   1.1668137e+00  -1.6627096e+01  -1.5751985e+01   3.5004412e+01  -5.8340687e-01  -8.4593996e+00   5.2506618e+00   1.1376434e+01   1.3710061e+01  -1.3418358e+01  -4.6672549e+00  -5.2506618e+00   0.0000000e+00   0.0000000e+00   0.0000000e+00   0.0000000e+00
  -1.7210503e+01   7.8759927e+00   1.4585172e+00   2.4503088e+01  -1.9835834e+01   4.0838481e+00   7.2925859e+00  -3.5004412e+00   3.5004412e+00  -1.4001765e+01  -1.4293468e+01   2.5961606e+01   2.6253309e+00  -1.0501324e+01   5.2506618e+00   1.3710061e+01   1.4585172e+01  -1.1376434e+01  -2.6253309e+00  -2.6253309e+00   0.0000000e+00   0.0000000e+00   0.0000000e+00   0.0000000e+00
  -2.0127537e+01   9.0428065e+00   2.6253309e+00   2.0127537e+01  -2.1294351e+01   3.2087378e+00   7.5842893e+00   5.8340687e-01   2.3336275e+00  -1.5751985e+01  -1.4293468e+01   1.6918799e+01   2.6253309e+00  -1.0793027e+01   5.2506618e+00   1.5460282e+01   1.3710061e+01  -1.0793027e+01  -2.6253309e+00  -8.7511030e-01   0.0000000e+00   0.0000000e+00   0.0000000e+00   0.0000000e+00
  -2.2752868e+01   7.2925859e+00   2.9170343e+00   1.6335392e+01  -2.0710944e+01   2.0419240e+00   7.5842893e+00   5.2506618e+00  -2.0419240e+00  -2.1002647e+01  -1.5460282e+01   9.6262133e+00   0.0000000e+00  -8.1676962e+00   5.5423652e+00   1.6918799e+01   1.2543248e+01  -1.1668137e+01  -3.7921446e+00  -2.9170343e-01   0.0000000e+00   0.0000000e+00   0.0000000e+00   0.0000000e+00
  -2.5086495e+01   3.5004412e+00   1.7502206e+00   1.3418358e+01  -1.8669020e+01   2.9170343e-01   7.2925859e+00   9.0428065e+00  -9.3345099e+00  -2.7420123e+01  -1.7502206e+01   3.5004412e+00  -4.6672549e+00  -4.3755515e+00   6.1257721e+00   1.7502206e+01   1.0501324e+01  -1.4001765e+01  -6.1257721e+00  -1.1668137e+00   0.0000000e+00   0.0000000e+00   0.0000000e+00   0.0000000e+00
  -2.5669902e+01  -5.8340687e-01   2.9170343e-01   1.2543248e+01  -1.5460282e+01  -8.7511030e-01   7.2925859e+00   1.2251544e+01  -1.6335392e+01  -3.2087378e+01  -1.8960723e+01  -5.8340687e-01  -8.7511030e+00   2.9170343e-01   6.7091790e+00   1.7793909e+01   9.3345099e+00  -1.6335392e+01  -8.1676962e+00  -2.0419240e+00   0.0000000e+00   0.0000000e+00   0.0000000e+00   0.0000000e+00
  -2.4794792e+01  -2.9170343e+00  -8.7511030e-01   1.2834951e+01  -1.2834951e+01  -1.1668137e+00   8.1676962e+00   1.4293468e+01  -2.1294351e+01  -3.3837598e+01  -1.9544130e+01  -3.5004412e+00  -1.0209620e+01   3.5004412e+00   7.5842893e+00   1.7793909e+01   9.0428065e+00  -1.7793909e+01  -8.4593996e+00  -2.3336275e+00   0.0000000e+00   0.0000000e+00   0.0000000e+00   0.0000000e+00
  -2.2461164e+01  -2.3336275e+00  -8.7511030e-01   1.3418358e+01  -1.0793027e+01   8.7511030e-01   9.9179168e+00   1.6627096e+01  -2.2461164e+01  -3.2670785e+01  -1.8669020e+01  -4.6672549e+00  -7.8759927e+00   5.8340687e+00   9.0428065e+00   1.8085613e+01   1.0793027e+01  -1.6918799e+01  -6.4174756e+00  -5.8340687e-01   0.0000000e+00   0.0000000e+00   0.0000000e+00   0.0000000e+00
  -2.0419240e+01   5.8340687e-01   2.9170343e-01   1.1668137e+01  -1.0209620e+01   4.0838481e+00   1.2251544e+01   1.8085613e+01  -2.0710944e+01  -3.0045454e+01  -1.6918799e+01  -5.2506618e+00  -2.6253309e+00   6.4174756e+00   1.0793027e+01   1.8377316e+01   1.2834951e+01  -1.4293468e+01  -2.6253309e+00   2.0419240e+00   0.0000000e+00   0.0000000e+00   0.0000000e+00   0.0000000e+00
  -1.8669020e+01   6.4174756e+00   2.9170343e+00   7.5842893e+00  -1.0501324e+01   8.7511030e+00   1.4876875e+01   1.9544130e+01  -1.7210503e+01  -2.5961606e+01  -1.4001765e+01  -4.3755515e+00   4.0838481e+00   6.7091790e+00   1.2834951e+01   1.9252427e+01   1.5751985e+01  -9.9179168e+00   2.0419240e+00   5.5423652e+00   0.0000000e+00   0.0000000e+00   0.0000000e+00   0.0000000e+00
  -1.8085613e+01   1.3126655e+01   5.5423652e+00   1.7502206e+00  -1.1668137e+01   1.2251544e+01   1.7210503e+01   2.0419240e+01  -1.3418358e+01  -2.2169461e+01  -1.1376434e+01  -3.2087378e+00   9.6262133e+00   6.7091790e+00   1.4876875e+01   2.0127537e+01   1.7502206e+01  -5.8340687e+00   5.8340687e+00   8.7511030e+00   0.0000000e+00   0.0000000e+00   0.0000000e+00   0.0000000e+00
  -1.8669020e+01   1.8669020e+01   7.5842893e+00  -4.0838481e+00  -1.3710061e+01   1.3418358e+01   1.8377316e+01   2.0710944e+01  -1.1376434e+01  -1.8377316e+01  -9.9179168e+00  -2.9170343e+00   1.2251544e+01   6.7091790e+00   1.6335392e+01   2.0419240e+01   1.7793909e+01  -2.9170343e+00   7.5842893e+00   1.0501324e+01   0.0000000e+00   0.0000000e+00   0.0000000e+00   0.0000000e+00
  -2.0419240e+01   2.1002647e+01   8.1676962e+00  -8.1676962e+00  -1.6043689e+01   1.1668137e+01   1.7793909e+01   2.0127537e+01  -1.1668137e+01  -1.5460282e+01  -9.9179168e+00  -3.5004412e+00   1.1084730e+01   6.7091790e+00   1.6335392e+01   1.9835834e+01   1.6043689e+01  -2.3336275e+00   6.7091790e+00   1.0209620e+01   0.0000000e+00   0.0000000e+00   0.0000000e+00   0.0000000e+00
  -2.3336275e+01   1.8377316e+01   6.4174756e+00  -1.0793027e+01  -1.8669020e+01   7.5842893e+00   1.5751985e+01   1.9544130e+01  -1.4585172e+01  -1.4001765e+01  -1.2251544e+01  -5.5423652e+00   5.5423652e+00   7.0008824e+00   1.5460282e+01   1.8085613e+01   1.2543248e+01  -4.6672549e+00   3.2087378e+00   7.2925859e+00   0.0000000e+00   0.0000000e+00   0.0000000e+00   0.0000000e+00
  -2.5961606e+01   1.3126655e+01   3.7921446e+00  -1.1376434e+01  -2.0710944e+01   3.5004412e+00   1.3418358e+01   1.8669020e+01  -1.8085613e+01  -1.4001765e+01  -1.4876875e+01  -7.8759927e+00  -1.7502206e+00   7.8759927e+00   1.4293468e+01   1.6043689e+01   8.7511030e+00  -8.4593996e+00  -1.1668137e+00   3.7921446e+00   0.0000000e+00   0.0000000e+00   0.0000000e+00   0.0000000e+00
  -2.7711826e+01   6.4174756e+00   2.9170343e-01  -1.2251544e+01  -2.2169461e+01   2.9170343e-01   1.1084730e+01   1.7793909e+01  -2.0710944e+01  -1.5751985e+01  -1.7793909e+01  -1.1376434e+01  -9.3345099e+00   8.7511030e+00   1.3418358e+01   1.3126655e+01   5.5423652e+00  -1.2834951e+01  -4.9589584e+00   0.0000000e+00   0.0000000e+00   0.0000000e+00   0.0000000e+00   0.0000000e+00
  -2.8878640e+01   1.1668137e+00  -2.3336275e+00  -1.4876875e+01  -2.3919682e+01  -8.7511030e-01   9.6262133e+00   1.6627096e+01  -2.1586054e+01  -1.7793909e+01  -1.9544130e+01  -1.5751985e+01  -1.4876875e+01   9.3345099e+00   1.3126655e+01   1.0793027e+01   3.5004412e+00  -1.6335392e+01  -7.0008824e+00  -2.6253309e+00   0.0000000e+00   0.0000000e+00   0.0000000e+00   0.0000000e+00
  -2.9170343e+01  -8.7511030e-01  -3.2087378e+00  -1.9835834e+01  -2.5669902e+01   0.0000000e+00   9.6262133e+00   1.5751985e+01  -1.8960723e+01  -1.8669020e+01  -1.9252427e+01  -2.0419240e+01  -1.6918799e+01   9.6262133e+00   1.4585172e+01   9.3345099e+00   2.9170343e+00  -1.7793909e+01  -6.4174756e+00  -3.2087378e+00   0.0000000e+00   0.0000000e+00   0.0000000e+00   0.0000000e+00
  -2.9170343e+01  -2.9170343e-01  -2.3336275e+00  -2.7420123e+01  -2.8586937e+01   1.4585172e+00   1.0209620e+01   1.4293468e+01  -1.4585172e+01  -1.8669020e+01  -1.7793909e+01  -2.6253309e+01  -1.5168579e+01   9.3345099e+00   1.6043689e+01   8.7511030e+00   3.2087378e+00  -1.7502206e+01  -4.0838481e+00  -2.0419240e+00   0.0000000e+00   0.0000000e+00   0.0000000e+00   0.0000000e+00
  -2.9462047e+01   2.6253309e+00  -2.9170343e-01  -3.7046336e+01  -3.2087378e+01   2.6253309e+00   1.1084730e+01   1.2834951e+01  -9.9179168e+00  -1.8377316e+01  -1.5168579e+01  -3.2670785e+01  -1.1376434e+01   8.1676962e+00   1.8085613e+01   9.3345099e+00   3.2087378e+00  -1.5751985e+01  -2.9170343e-01   0.0000000e+00   0.0000000e+00   0.0000000e+00   0.0000000e+00   0.0000000e+00
  -3.1503971e+01   4.6672549e+00   1.7502206e+00  -4.8714474e+01  -3.7046336e+01   2.6253309e+00   1.1084730e+01   1.0501324e+01  -8.1676962e+00  -1.9544130e+01  -1.3418358e+01  -4.1130184e+01  -7.5842893e+00   6.4174756e+00   1.8960723e+01   9.6262133e+00   2.0419240e+00  -1.4293468e+01   2.3336275e+00   1.7502206e+00   0.0000000e+00   0.0000000e+00   0.0000000e+00   0.0000000e+00
  -3.4712709e+01   4.9589584e+00   3.2087378e+00  -6.1841128e+01  -4.2880405e+01   5.8340687e-01   9.9179168e+00   8.1676962e+00  -1.0793027e+01  -2.2169461e+01  -1.2834951e+01  -5.1339804e+01  -6.1257721e+00   3.7921446e+00   1.8377316e+01   9.3345099e+00  -8.7511030e-01  -1.4001765e+01   3.2087378e+00   2.3336275e+00   0.0000000e+00   0.0000000e+00   0.0000000e+00   0.0000000e+00
  -3.9088260e+01   2.6253309e+00   3.2087378e+00  -7.5842893e+01  -4.9297880e+01  -2.6253309e+00   7.8759927e+00   5.8340687e+00  -1.7210503e+01  -2.5086495e+01  -1.3418358e+01  -6.3299645e+01  -7.5842893e+00   1.1668137e+00   1.6627096e+01   8.1676962e+00  -5.5423652e+00  -1.5460282e+01   1.7502206e+00   1.1668137e+00   0.0000000e+00   0.0000000e+00   0.0000000e+00   0.0000000e+00
  -4.4922329e+01  -2.9170343e+00   5.8340687e-01  -9.1594878e+01  -5.6298763e+01  -7.8759927e+00   3.7921446e+00   2.9170343e+00  -2.6253309e+01  -2.8586937e+01  -1.6043689e+01  -7.7301410e+01  -1.4001765e+01  -2.0419240e+00   1.2543248e+01   5.5423652e+00  -1.2834951e+01  -1.9835834e+01  -2.6253309e+00  -2.6253309e+00   0.0000000e+00   0.0000000e+00   0.0000000e+00   0.0000000e+00
  -5.1048101e+01  -1.0209620e+01  -3.2087378e+00  -1.0793027e+02  -6.3299645e+01  -1.3710061e+01  -5.8340687e-01   5.8340687e-01  -3.4712709e+01  -3.1212267e+01  -1.9544130e+01  -9.3345099e+01  -2.3336275e+01  -4.9589584e+00   7.8759927e+00   2.0419240e+00  -2.1002647e+01  -2.5961606e+01  -8.4593996e+00  -7.5842893e+00   0.0000000e+00   0.0000000e+00   0.0000000e+00   0.0000000e+00
  -5.7173873e+01  -1.7793909e+01  -7.8759927e+00  -1.2572418e+02  -7.0592231e+01  -1.9544130e+01  -4.9589584e+00  -2.0419240e+00  -4.1713591e+01  -3.4129302e+01  -2.3627978e+01  -1.1113901e+02  -3.4712709e+01  -8.1676962e+00   2.9170343e+00  -2.0419240e+00  -3.0045454e+01  -3.3254191e+01  -1.4585172e+01  -1.3418358e+01   0.0000000e+00   0.0000000e+00   0.0000000e+00   0.0000000e+00
  -6.1841128e+01  -2.2752868e+01  -1.1668137e+01  -1.4410150e+02  -7.7593113e+01  -2.4211385e+01  -8.4593996e+00  -4.0838481e+00  -4.5505736e+01  -3.7046336e+01  -2.6836716e+01  -1.3039144e+02  -4.4922329e+01  -1.1084730e+01  -1.4585172e+00  -5.8340687e+00  -3.7629743e+01  -3.9963370e+01  -1.9252427e+01  -1.8085613e+01   0.0000000e+00   0.0000000e+00   0.0000000e+00   0.0000000e+00
  -6.5341569e+01  -2.4503088e+01  -1.3710061e+01  -1.6364563e+02  -8.5760810e+01  -2.8586937e+01  -1.1084730e+01  -6.1257721e+00  -4.6964253e+01  -4.0838481e+01  -2.8878640e+01  -1.5139408e+02  -5.3090025e+01  -1.4876875e+01  -4.9589584e+00  -9.3345099e+00  -4.4922329e+01  -4.5214032e+01  -2.1877758e+01  -2.1294351e+01   0.0000000e+00   0.0000000e+00   0.0000000e+00   0.0000000e+00
  -6.7966900e+01  -2.2461164e+01  -1.4001765e+01  -1.8406487e+02  -9.5095320e+01  -3.3254191e+01  -1.3126655e+01  -7.5842893e+00  -4.6089143e+01  -4.4630625e+01  -2.9753750e+01  -1.7385525e+02  -5.8924094e+01  -1.9835834e+01  -7.8759927e+00  -1.1959841e+01  -5.1631508e+01  -4.8714474e+01  -2.2752868e+01  -2.3044571e+01   0.0000000e+00   0.0000000e+00   0.0000000e+00   0.0000000e+00
  -6.9425417e+01  -1.7502206e+01  -1.1959841e+01  -2.0302559e+02  -1.0588835e+02  -3.7629743e+01  -1.4001765e+01  -8.1676962e+00  -4.3755515e+01  -4.6964253e+01  -2.8586937e+01  -1.9514960e+02  -6.2132831e+01  -2.5086495e+01  -9.3345099e+00  -1.2251544e+01  -5.7757280e+01  -5.0464694e+01  -2.2169461e+01  -2.2461164e+01   0.0000000e+00   0.0000000e+00   0.0000000e+00   0.0000000e+00
  -7.1467341e+01  -1.2834951e+01  -1.0209620e+01  -2.2052780e+02  -1.1843159e+02  -4.2880405e+01  -1.5460282e+01  -9.3345099e+00  -4.1713591e+01  -4.8131067e+01  -2.7128419e+01  -2.1527713e+02  -6.5341569e+01  -3.0628861e+01  -1.1084730e+01  -1.1084730e+01  -6.4174756e+01  -5.1631508e+01  -2.1877758e+01  -2.1586054e+01   0.0000000e+00   0.0000000e+00   0.0000000e+00   0.0000000e+00
  -7.5551189e+01  -1.0793027e+01  -9.3345099e+00  -2.3569637e+02  -1.3155825e+02  -4.8422770e+01  -1.7210503e+01  -1.0209620e+01  -4.2296998e+01  -4.9297880e+01  -2.6253309e+01  -2.3307104e+02  -7.0592231e+01  -3.5296116e+01  -1.2543248e+01  -9.0428065e+00  -7.0883935e+01  -5.3673432e+01  -2.2752868e+01  -2.1294351e+01   0.0000000e+00   0.0000000e+00   0.0000000e+00   0.0000000e+00
  -8.1385258e+01  -1.2834951e+01  -1.0501324e+01  -2.4940644e+02  -1.4410150e+02  -5.4256839e+01  -1.9835834e+01  -1.1376434e+01  -4.6964253e+01  -5.1631508e+01  -2.6545013e+01  -2.4882303e+02  -7.8176520e+01  -3.8213150e+01  -1.4876875e+01  -6.7091790e+00  -7.8468224e+01  -5.7465577e+01  -2.5669902e+01  -2.2169461e+01   0.0000000e+00   0.0000000e+00   0.0000000e+00   0.0000000e+00
  -8.8969547e+01  -1.8085613e+01  -1.3126655e+01  -2.6165798e+02  -1.5401941e+02  -6.0090907e+01  -2.2461164e+01  -1.1668137e+01  -5.5131949e+01  -5.5423652e+01  -2.8003530e+01  -2.6224139e+02  -8.7802734e+01  -3.9379964e+01  -1.6918799e+01  -4.6672549e+00  -8.6052513e+01  -6.3007942e+01  -3.0045454e+01  -2.4503088e+01   0.0000000e+00   0.0000000e+00   0.0000000e+00   0.0000000e+00
  -9.7137244e+01  -2.5086495e+01  -1.6918799e+01  -2.7303441e+02  -1.6189541e+02  -6.5924976e+01  -2.5086495e+01  -1.1376434e+01  -6.5049866e+01  -6.0966018e+01  -3.0337157e+01  -2.7449293e+02  -9.8012354e+01  -3.9379964e+01  -1.8960723e+01  -3.5004412e+00  -9.3345099e+01  -6.9717121e+01  -3.5296116e+01  -2.7420123e+01   0.0000000e+00   0.0000000e+00   0.0000000e+00   0.0000000e+00
  -1.0355472e+02  -3.1503971e+01  -2.0710944e+01  -2.8324403e+02  -1.6743777e+02  -7.1175638e+01  -2.7711826e+01  -9.9179168e+00  -7.4092672e+01  -6.6508383e+01  -3.2379081e+01  -2.8528596e+02  -1.0763857e+02  -3.8796557e+01  -2.0419240e+01  -2.9170343e+00  -9.9470871e+01  -7.6426300e+01  -3.9671667e+01  -3.0045454e+01   0.0000000e+00   0.0000000e+00   0.0000000e+00   0.0000000e+00
  -1.0763857e+02  -3.5004412e+01  -2.3044571e+01  -2.9141173e+02  -1.7064651e+02  -7.5259486e+01  -2.9170343e+01  -8.7511030e+00  -7.9343334e+01  -6.9425417e+01  -3.3254191e+01  -2.9432877e+02  -1.1405604e+02  -3.8504853e+01  -2.1002647e+01  -2.0419240e+00  -1.0355472e+02  -8.1093555e+01  -4.2005295e+01  -3.1503971e+01   0.0000000e+00   0.0000000e+00   0.0000000e+00   0.0000000e+00
  -1.0851368e+02  -3.5879522e+01  -2.3919682e+01  -2.9812091e+02  -1.7210503e+02  -7.7301410e+01  -2.9462047e+01  -8.4593996e+00  -8.0801851e+01  -7.0008824e+01  -3.2962488e+01  -3.0132965e+02  -1.1726478e+02  -3.9088260e+01  -2.1002647e+01  -1.1668137e+00  -1.0588835e+02  -8.3718886e+01  -4.2005295e+01  -3.1212267e+01   0.0000000e+00   0.0000000e+00   0.0000000e+00   0.0000000e+00
  -1.0734686e+02  -3.2962488e+01  -2.3044571e+01  -3.0278816e+02  -1.7122992e+02  -7.6426300e+01  -2.8295233e+01  -8.4593996e+00  -7.8468224e+01  -6.8258604e+01  -3.1212267e+01  -3.0658031e+02  -1.1609797e+02  -4.0255074e+01  -1.9835834e+01   0.0000000e+00  -1.0647175e+02  -8.2843775e+01  -3.9088260e+01  -2.8878640e+01   0.0000000e+00   0.0000000e+00   0.0000000e+00   0.0000000e+00
  -1.0530494e+02  -2.8586937e+01  -2.1002647e+01  -3.0570520e+02  -1.6918799e+02  -7.4676079e+01  -2.6836716e+01  -8.7511030e+00  -7.5551189e+01  -6.6800086e+01  -2.9170343e+01  -3.1212267e+02  -1.1288923e+02  -4.2296998e+01  -1.8669020e+01   8.7511030e-01  -1.0618005e+02  -8.0510148e+01  -3.5296116e+01  -2.5378199e+01   0.0000000e+00   0.0000000e+00   0.0000000e+00   0.0000000e+00
  -1.0413813e+02  -2.4794792e+01  -1.8960723e+01  -3.0833053e+02  -1.6627096e+02  -7.2634155e+01  -2.5378199e+01  -8.7511030e+00  -7.3217562e+01  -6.6800086e+01  -2.7711826e+01  -3.1824845e+02  -1.0938879e+02  -4.4630625e+01  -1.8085613e+01   1.4585172e+00  -1.0647175e+02  -7.7301410e+01  -3.1795674e+01  -2.1877758e+01   0.0000000e+00   0.0000000e+00   0.0000000e+00   0.0000000e+00
  -1.0442983e+02  -2.3336275e+01  -1.7502206e+01  -3.1270608e+02  -1.6218711e+02  -7.2050748e+01  -2.4503088e+01  -7.8759927e+00  -7.2634155e+01  -6.7966900e+01  -2.7420123e+01  -3.2495763e+02  -1.0763857e+02  -4.6672549e+01  -1.7793909e+01   1.7502206e+00  -1.0793027e+02  -7.5259486e+01  -3.0045454e+01  -1.8960723e+01   0.0000000e+00   0.0000000e+00   0.0000000e+00   0.0000000e+00
  -1.0618005e+02  -2.5961606e+01  -1.7793909e+01  -3.2145718e+02  -1.5810326e+02  -7.3800969e+01  -2.5669902e+01  -7.2925859e+00  -7.3800969e+01  -6.9717121e+01  -2.8586937e+01  -3.3195851e+02  -1.0968049e+02  -4.8714474e+01  -1.8669020e+01   1.1668137e+00  -1.1113901e+02  -7.5551189e+01  -3.0628861e+01  -1.8085613e+01   0.0000000e+00   0.0000000e+00   0.0000000e+00   0.0000000e+00
  -1.0880538e+02  -3.1503971e+01  -1.9835834e+01  -3.3312532e+02  -1.5256090e+02  -7.6134596e+01  -2.7128419e+01  -5.8340687e+00  -7.4967783e+01  -7.0008824e+01  -3.0337157e+01  -3.3779258e+02  -1.1434775e+02  -4.9006177e+01  -1.9252427e+01   8.7511030e-01  -1.1434775e+02  -7.7301410e+01  -3.2670785e+01  -1.8085613e+01   0.0000000e+00   0.0000000e+00   0.0000000e+00   0.0000000e+00
  -1.1230582e+02  -3.9088260e+01  -2.3044571e+01  -3.4596027e+02  -1.4731023e+02  -7.7593113e+01  -2.8586937e+01  -4.3755515e+00  -7.6134596e+01  -6.9133714e+01  -3.2670785e+01  -3.4245983e+02  -1.2105693e+02  -4.8131067e+01  -2.0419240e+01   5.8340687e-01  -1.1697308e+02  -7.9926741e+01  -3.5004412e+01  -1.9252427e+01   0.0000000e+00   0.0000000e+00   0.0000000e+00   0.0000000e+00
  -1.1609797e+02  -4.6380846e+01  -2.6253309e+01  -3.5587819e+02  -1.4380979e+02  -7.7301410e+01  -2.8878640e+01  -2.6253309e+00  -7.6426300e+01  -6.7091790e+01  -3.4712709e+01  -3.4566857e+02  -1.2718270e+02  -4.6380846e+01  -2.0710944e+01  -2.9170343e-01  -1.1813989e+02  -8.2843775e+01  -3.7046336e+01  -2.1002647e+01   0.0000000e+00   0.0000000e+00   0.0000000e+00   0.0000000e+00
  -1.2018181e+02  -5.0756398e+01  -2.8295233e+01  -3.6083715e+02  -1.4380979e+02  -7.4676079e+01  -2.8586937e+01  -5.8340687e-01  -7.5551189e+01  -6.4758162e+01  -3.6171226e+01  -3.4625198e+02  -1.3097484e+02  -4.4338922e+01  -2.0710944e+01  -1.4585172e+00  -1.1784819e+02  -8.4885699e+01  -3.7046336e+01  -2.1877758e+01   0.0000000e+00   0.0000000e+00   0.0000000e+00   0.0000000e+00
  -1.2426566e+02  -5.1339804e+01  -2.8586937e+01  -3.6171226e+02  -1.4876875e+02  -7.1467341e+01  -2.8003530e+01   5.8340687e-01  -7.4384376e+01  -6.4174756e+01  -3.7629743e+01  -3.4479346e+02  -1.3184995e+02  -4.3172108e+01  -2.0710944e+01  -3.5004412e+00  -1.1638967e+02  -8.5760810e+01  -3.6754633e+01  -2.2752868e+01   0.0000000e+00   0.0000000e+00   0.0000000e+00   0.0000000e+00
  -1.2689099e+02  -4.7547660e+01  -2.6253309e+01  -3.5850352e+02  -1.5664474e+02  -6.7966900e+01  -2.7420123e+01   1.1668137e+00  -7.2634155e+01  -6.3883052e+01  -3.8213150e+01  -3.4012620e+02  -1.2864121e+02  -4.2296998e+01  -2.0419240e+01  -5.8340687e+00  -1.1347264e+02  -8.4593996e+01  -3.4712709e+01  -2.2752868e+01   0.0000000e+00   0.0000000e+00   0.0000000e+00   0.0000000e+00
  -1.2805781e+02  -4.1713591e+01  -2.2461164e+01  -3.5383627e+02  -1.6627096e+02  -6.5633273e+01  -2.7128419e+01   0.0000000e+00  -7.1759045e+01  -6.3299645e+01  -3.8504853e+01  -3.3429214e+02  -1.2309885e+02  -4.2588701e+01  -2.0419240e+01  -8.4593996e+00  -1.1084730e+02  -8.2843775e+01  -3.2379081e+01  -2.2461164e+01   0.0000000e+00   0.0000000e+00   0.0000000e+00   0.0000000e+00
  -1.2834951e+02  -3.5587819e+01  -1.7793909e+01  -3.4858560e+02  -1.7443865e+02  -6.4758162e+01  -2.7420123e+01  -2.3336275e+00  -7.1467341e+01  -6.1549425e+01  -3.8796557e+01  -3.2787466e+02  -1.1638967e+02  -4.4047219e+01  -2.1002647e+01  -1.0793027e+01  -1.0793027e+02  -8.0218444e+01  -3.0628861e+01  -2.1877758e+01   0.0000000e+00   0.0000000e+00   0.0000000e+00   0.0000000e+00
  -1.2689099e+02  -3.0337157e+01  -1.3418358e+01  -3.4158472e+02  -1.7939761e+02  -6.4466459e+01  -2.6836716e+01  -4.6672549e+00  -7.1467341e+01  -5.8632390e+01  -3.8504853e+01  -3.2233229e+02  -1.1026390e+02  -4.4630625e+01  -2.1294351e+01  -1.2543248e+01  -1.0559664e+02  -7.7301410e+01  -2.9170343e+01  -2.1294351e+01   0.0000000e+00   0.0000000e+00   0.0000000e+00   0.0000000e+00
  -1.2572418e+02  -2.8586937e+01  -1.0793027e+01  -3.3341703e+02  -1.8231465e+02  -6.5341569e+01  -2.6836716e+01  -7.0008824e+00  -7.1467341e+01  -5.5423652e+01  -3.8796557e+01  -3.1912356e+02  -1.0705516e+02  -4.5797439e+01  -2.2169461e+01  -1.3418358e+01  -1.0413813e+02  -7.5551189e+01  -2.9462047e+01  -2.1586054e+01   0.0000000e+00   0.0000000e+00   0.0000000e+00   0.0000000e+00
  -1.2455737e+02  -3.0628861e+01  -1.0209620e+01  -3.2349911e+02  -1.8377316e+02  -6.7091790e+01  -2.7128419e+01  -8.7511030e+00  -7.1467341e+01  -5.3381728e+01  -3.9671667e+01  -3.1708163e+02  -1.0763857e+02  -4.6672549e+01  -2.3919682e+01  -1.3126655e+01  -1.0413813e+02  -7.5842893e+01  -3.1503971e+01  -2.3044571e+01   0.0000000e+00   0.0000000e+00   0.0000000e+00   0.0000000e+00
  -1.2368226e+02  -3.5296116e+01  -1.1959841e+01  -3.1270608e+02  -1.8435657e+02  -6.9425417e+01  -2.8003530e+01  -9.9179168e+00  -7.1175638e+01  -5.3090025e+01  -4.0838481e+01  -3.1503971e+02  -1.1143071e+02  -4.7255956e+01  -2.5669902e+01  -1.2251544e+01  -1.0501324e+02  -7.7301410e+01  -3.5004412e+01  -2.5669902e+01   0.0000000e+00   0.0000000e+00   0.0000000e+00   0.0000000e+00
  -1.2280715e+02  -4.1130184e+01  -1.4585172e+01  -3.0162135e+02  -1.8348146e+02  -7.1467341e+01  -2.9462047e+01  -1.0793027e+01  -7.0883935e+01  -5.5131949e+01  -4.2005295e+01  -3.1241438e+02  -1.1609797e+02  -4.7255956e+01  -2.7128419e+01  -1.0793027e+01  -1.0588835e+02  -7.9635038e+01  -3.8504853e+01  -2.8295233e+01   0.0000000e+00   0.0000000e+00   0.0000000e+00   0.0000000e+00
  -1.2047352e+02  -4.5214032e+01  -1.7210503e+01  -2.9082832e+02  -1.7968932e+02  -7.1759045e+01  -3.0045454e+01  -1.1668137e+01  -7.1175638e+01  -5.8340687e+01  -4.2296998e+01  -3.1008075e+02  -1.1843159e+02  -4.5797439e+01  -2.7420123e+01  -8.7511030e+00  -1.0559664e+02  -8.1093555e+01  -4.0546777e+01  -3.0337157e+01   0.0000000e+00   0.0000000e+00   0.0000000e+00   0.0000000e+00
  -1.1638967e+02  -4.6089143e+01  -1.8960723e+01  -2.8207722e+02  -1.7239673e+02  -6.9717121e+01  -2.9462047e+01  -1.2543248e+01  -7.1759045e+01  -6.1841128e+01  -4.0838481e+01  -3.0978905e+02  -1.1668137e+02  -4.3463812e+01  -2.6253309e+01  -6.4174756e+00  -1.0326302e+02  -8.1093555e+01  -3.9963370e+01  -3.1212267e+01   0.0000000e+00   0.0000000e+00   0.0000000e+00   0.0000000e+00
  -1.0997219e+02  -4.2005295e+01  -1.8960723e+01  -2.7799337e+02  -1.6131200e+02  -6.5341569e+01  -2.6836716e+01  -1.3418358e+01  -7.1467341e+01  -6.3883052e+01  -3.7629743e+01  -3.1183097e+02  -1.0997219e+02  -4.0838481e+01  -2.4211385e+01  -3.7921446e+00  -9.8595761e+01  -7.7884817e+01  -3.7046336e+01  -2.9753750e+01   0.0000000e+00   0.0000000e+00   0.0000000e+00   0.0000000e+00
  -1.0209620e+02  -3.3545895e+01  -1.7210503e+01  -2.7916019e+02  -1.4789364e+02  -5.9215797e+01  -2.3044571e+01  -1.4001765e+01  -6.9425417e+01  -6.4466459e+01  -3.3254191e+01  -3.1387290e+02  -1.0005428e+02  -3.9088260e+01  -2.1294351e+01  -8.7511030e-01  -9.2469989e+01  -7.2634155e+01  -3.2379081e+01  -2.6545013e+01   0.0000000e+00   0.0000000e+00   0.0000000e+00   0.0000000e+00
  -9.4803616e+01  -2.3627978e+01  -1.4585172e+01  -2.8616107e+02  -1.3505869e+02  -5.3381728e+01  -1.9252427e+01  -1.4876875e+01  -6.5341569e+01  -6.4174756e+01  -2.9462047e+01  -3.1358119e+02  -9.0719768e+01  -3.8796557e+01  -1.9252427e+01   1.1668137e+00  -8.6927623e+01  -6.6800086e+01  -2.8003530e+01  -2.3044571e+01   0.0000000e+00   0.0000000e+00   0.0000000e+00   0.0000000e+00
  -8.9844658e+01  -1.4876875e+01  -1.2251544e+01  -2.9432877e+02  -1.2572418e+02  -4.9297880e+01  -1.6335392e+01  -1.4585172e+01  -6.0382611e+01  -6.3007942e+01  -2.6545013e+01  -3.0891394e+02  -8.3718886e+01  -3.9088260e+01  -1.8085613e+01   3.2087378e+00  -8.2552072e+01  -6.1549425e+01  -2.5086495e+01  -1.9835834e+01   0.0000000e+00   0.0000000e+00   0.0000000e+00   0.0000000e+00
  -8.7802734e+01  -9.6262133e+00  -1.0793027e+01  -2.9899602e+02  -1.2164033e+02  -4.6672549e+01  -1.4585172e+01  -1.2834951e+01  -5.6298763e+01  -6.1257721e+01  -2.5669902e+01  -2.9928772e+02  -8.0218444e+01  -3.8796557e+01  -1.7502206e+01   4.9589584e+00  -7.9926741e+01  -5.7465577e+01  -2.4211385e+01  -1.7502206e+01   0.0000000e+00   0.0000000e+00   0.0000000e+00   0.0000000e+00
  -8.7802734e+01  -9.3345099e+00  -1.0793027e+01  -2.9695410e+02  -1.2134863e+02  -4.4922329e+01  -1.4293468e+01  -1.0501324e+01  -5.4256839e+01  -5.8924094e+01  -2.6253309e+01  -2.8528596e+02  -7.9926741e+01  -3.7046336e+01  -1.7210503e+01   5.8340687e+00  -7.8176520e+01  -5.5423652e+01  -2.5086495e+01  -1.6627096e+01   0.0000000e+00   0.0000000e+00   0.0000000e+00   0.0000000e+00
  -8.8677844e+01  -1.2251544e+01  -1.1959841e+01  -2.8791129e+02  -1.2309885e+02  -4.3172108e+01  -1.4876875e+01  -7.8759927e+00  -5.4840246e+01  -5.5715356e+01  -2.7420123e+01  -2.6953397e+02  -8.1385258e+01  -3.4421005e+01  -1.7210503e+01   6.4174756e+00  -7.6718003e+01  -5.4548542e+01  -2.6836716e+01  -1.6918799e+01   0.0000000e+00   0.0000000e+00   0.0000000e+00   0.0000000e+00
  -8.9552954e+01  -1.6918799e+01  -1.3710061e+01  -2.7478464e+02  -1.2339055e+02  -4.1130184e+01  -1.5460282e+01  -6.1257721e+00  -5.6590466e+01  -5.2798322e+01  -2.8586937e+01  -2.5378199e+02  -8.2843775e+01  -3.1503971e+01  -1.6918799e+01   6.4174756e+00  -7.4967783e+01  -5.4548542e+01  -2.8295233e+01  -1.7502206e+01   0.0000000e+00   0.0000000e+00   0.0000000e+00   0.0000000e+00
  -8.9261251e+01  -2.0419240e+01  -1.5168579e+01  -2.6136628e+02  -1.2076522e+02  -3.8796557e+01  -1.5751985e+01  -5.2506618e+00  -5.7757280e+01  -4.9881287e+01  -2.8878640e+01  -2.3978022e+02  -8.3427182e+01  -2.9170343e+01  -1.6627096e+01   5.8340687e+00  -7.2342452e+01  -5.4256839e+01  -2.8878640e+01  -1.8085613e+01   0.0000000e+00   0.0000000e+00   0.0000000e+00   0.0000000e+00
  -8.8386141e+01  -2.1877758e+01  -1.6043689e+01  -2.4969814e+02  -1.1638967e+02  -3.6754633e+01  -1.5460282e+01  -5.8340687e+00  -5.6590466e+01  -4.7839363e+01  -2.8295233e+01  -2.2840379e+02  -8.2552072e+01  -2.8295233e+01  -1.6627096e+01   5.2506618e+00  -6.9425417e+01  -5.3381728e+01  -2.8003530e+01  -1.7793909e+01   0.0000000e+00   0.0000000e+00   0.0000000e+00   0.0000000e+00
  -8.6927623e+01  -2.1002647e+01  -1.6335392e+01  -2.4036363e+02  -1.1230582e+02  -3.4129302e+01  -1.4585172e+01  -7.0008824e+00  -5.2506618e+01  -4.5505736e+01  -2.6836716e+01  -2.1906928e+02  -7.9343334e+01  -2.8003530e+01  -1.6043689e+01   4.6672549e+00  -6.6216680e+01  -5.1339804e+01  -2.5961606e+01  -1.6335392e+01   0.0000000e+00   0.0000000e+00   0.0000000e+00   0.0000000e+00
  -8.5177403e+01  -1.8960723e+01  -1.5751985e+01  -2.3190423e+02  -1.1026390e+02  -3.1503971e+01  -1.3418358e+01  -8.4593996e+00  -4.6672549e+01  -4.2880405e+01  -2.5086495e+01  -2.1119329e+02  -7.4384376e+01  -2.8295233e+01  -1.5460282e+01   4.0838481e+00  -6.2716238e+01  -4.8714474e+01  -2.2752868e+01  -1.4293468e+01   0.0000000e+00   0.0000000e+00   0.0000000e+00   0.0000000e+00
  -8.2260368e+01  -1.5751985e+01  -1.4293468e+01  -2.2169461e+02  -1.1026390e+02  -2.8586937e+01  -1.1376434e+01  -9.3345099e+00  -4.0255074e+01  -3.8796557e+01  -2.2461164e+01  -2.0302559e+02  -6.8258604e+01  -2.7711826e+01  -1.3710061e+01   4.3755515e+00  -5.9507501e+01  -4.4630625e+01  -1.8960723e+01  -1.1084730e+01   0.0000000e+00   0.0000000e+00   0.0000000e+00   0.0000000e+00
  -7.9051631e+01  -1.3710061e+01  -1.3418358e+01  -2.1060988e+02  -1.1201412e+02  -2.7128419e+01  -9.9179168e+00  -9.9179168e+00  -3.6171226e+01  -3.5296116e+01  -2.1586054e+01  -1.9514960e+02  -6.3883052e+01  -2.7711826e+01  -1.2834951e+01   3.7921446e+00  -5.8048983e+01  -4.1713591e+01  -1.6335392e+01  -8.7511030e+00   0.0000000e+00   0.0000000e+00   0.0000000e+00   0.0000000e+00
  -7.5551189e+01  -1.3126655e+01  -1.3126655e+01  -1.9748322e+02  -1.1259753e+02  -2.6545013e+01  -9.3345099e+00  -1.0209620e+01  -3.5004412e+01  -3.3837598e+01  -2.1586054e+01  -1.8610679e+02  -6.1841128e+01  -2.7128419e+01  -1.2251544e+01   2.9170343e+00  -5.7757280e+01  -3.9379964e+01  -1.4876875e+01  -7.5842893e+00   0.0000000e+00   0.0000000e+00   0.0000000e+00   0.0000000e+00
  -7.2050748e+01  -1.4293468e+01  -1.3710061e+01  -1.8348146e+02  -1.1113901e+02  -2.7128419e+01  -9.9179168e+00  -9.9179168e+00  -3.7629743e+01  -3.5296116e+01  -2.2752868e+01  -1.7589717e+02  -6.3299645e+01  -2.5669902e+01  -1.1668137e+01   1.7502206e+00  -5.8632390e+01  -3.8796557e+01  -1.5751985e+01  -8.1676962e+00   0.0000000e+00   0.0000000e+00   0.0000000e+00   0.0000000e+00
  -6.8550307e+01  -1.6627096e+01  -1.5168579e+01  -1.7093821e+02  -1.0793027e+02  -2.8295233e+01  -1.1084730e+01  -1.0501324e+01  -4.1421888e+01  -3.8504853e+01  -2.4794792e+01  -1.6452074e+02  -6.6800086e+01  -2.3044571e+01  -1.1376434e+01   8.7511030e-01  -5.9507501e+01  -3.9671667e+01  -1.7502206e+01  -9.6262133e+00   0.0000000e+00   0.0000000e+00   0.0000000e+00   0.0000000e+00
  -6.4466459e+01  -1.8085613e+01  -1.6335392e+01  -1.6102030e+02  -1.0355472e+02  -2.8878640e+01  -1.2251544e+01  -1.0793027e+01  -4.4630625e+01  -4.1713591e+01  -2.5961606e+01  -1.5372771e+02  -7.0008824e+01  -1.8960723e+01  -9.9179168e+00   1.4585172e+00  -5.9215797e+01  -4.0838481e+01  -1.9252427e+01  -1.1376434e+01   0.0000000e+00   0.0000000e+00   0.0000000e+00   0.0000000e+00
  -6.0382611e+01  -1.7793909e+01  -1.6918799e+01  -1.5401941e+02  -9.9762574e+01  -2.8003530e+01  -1.2251544e+01  -1.1084730e+01  -4.4630625e+01  -4.2588701e+01  -2.5961606e+01  -1.4556001e+02  -7.0883935e+01  -1.5168579e+01  -7.8759927e+00   3.2087378e+00  -5.6882170e+01  -4.1713591e+01  -1.9544130e+01  -1.2543248e+01   0.0000000e+00   0.0000000e+00   0.0000000e+00   0.0000000e+00
  -5.6007059e+01  -1.4585172e+01  -1.5751985e+01  -1.4906045e+02  -9.6553837e+01  -2.6253309e+01  -1.0793027e+01  -1.0501324e+01  -4.1130184e+01  -4.0838481e+01  -2.4503088e+01  -1.4089276e+02  -6.8550307e+01  -1.2251544e+01  -5.2506618e+00   5.5423652e+00  -5.3381728e+01  -4.0838481e+01  -1.7793909e+01  -1.2251544e+01   0.0000000e+00   0.0000000e+00   0.0000000e+00   0.0000000e+00
  -5.1923211e+01  -9.0428065e+00  -1.3418358e+01  -1.4351809e+02  -9.3636802e+01  -2.3919682e+01  -8.1676962e+00  -8.7511030e+00  -3.5296116e+01  -3.7629743e+01  -2.1294351e+01  -1.3972594e+02  -6.2424535e+01  -1.1376434e+01  -2.6253309e+00   7.5842893e+00  -4.9006177e+01  -3.7629743e+01  -1.4001765e+01  -1.0501324e+01   0.0000000e+00   0.0000000e+00   0.0000000e+00   0.0000000e+00
  -4.8422770e+01  -2.3336275e+00  -1.0501324e+01  -1.3593380e+02  -8.9552954e+01  -2.1877758e+01  -5.5423652e+00  -6.4174756e+00  -2.8878640e+01  -3.4712709e+01  -1.7793909e+01  -1.4060106e+02  -5.4548542e+01  -1.1668137e+01  -5.8340687e-01   8.7511030e+00  -4.4338922e+01  -3.3254191e+01  -9.3345099e+00  -7.5842893e+00   0.0000000e+00   0.0000000e+00   0.0000000e+00   0.0000000e+00
  -4.5505736e+01   3.5004412e+00  -7.8759927e+00  -1.2659929e+02  -8.4593996e+01  -2.1294351e+01  -3.2087378e+00  -4.3755515e+00  -2.3919682e+01  -3.2670785e+01  -1.4293468e+01  -1.4235128e+02  -4.6380846e+01  -1.2834951e+01   1.1668137e+00   9.3345099e+00  -4.0546777e+01  -2.8295233e+01  -4.9589584e+00  -4.6672549e+00   0.0000000e+00   0.0000000e+00   0.0000000e+00   0.0000000e+00
  -4.4047219e+01   6.7091790e+00  -7.0008824e+00  -1.1697308e+02  -7.8759927e+01  -2.1586054e+01  -2.0419240e+00  -3.7921446e+00  -2.1294351e+01  -3.2379081e+01  -1.1959841e+01  -1.4351809e+02  -4.0546777e+01  -1.4001765e+01   2.0419240e+00   9.0428065e+00  -3.7921446e+01  -2.4211385e+01  -2.3336275e+00  -2.3336275e+00   0.0000000e+00   0.0000000e+00   0.0000000e+00   0.0000000e+00
  -4.4338922e+01   7.0008824e+00  -7.8759927e+00  -1.0997219e+02  -7.2634155e+01  -2.2461164e+01  -2.0419240e+00  -4.9589584e+00  -2.0710944e+01  -3.3254191e+01  -1.1084730e+01  -1.4351809e+02  -3.7629743e+01  -1.4001765e+01   2.3336275e+00   8.1676962e+00  -3.6462929e+01  -2.1586054e+01  -1.4585172e+00  -1.7502206e+00   0.0000000e+00   0.0000000e+00   0.0000000e+00   0.0000000e+00
  -4.6672549e+01   4.3755515e+00  -1.0209620e+01  -1.0676346e+02  -6.7091790e+01  -2.3336275e+01  -2.9170343e+00  -6.7091790e+00  -2.1586054e+01  -3.4712709e+01  -1.1959841e+01  -1.4030935e+02  -3.8504853e+01  -1.3126655e+01   2.0419240e+00   7.0008824e+00  -3.5879522e+01  -2.1294351e+01  -2.9170343e+00  -2.6253309e+00   0.0000000e+00   0.0000000e+00   0.0000000e+00   0.0000000e+00
  -4.9881287e+01   2.9170343e-01  -1.2834951e+01  -1.0763857e+02  -6.2716238e+01  -2.4211385e+01  -4.3755515e+00  -8.1676962e+00  -2.2752868e+01  -3.6754633e+01  -1.4585172e+01  -1.3447528e+02  -4.1713591e+01  -1.1376434e+01   1.1668137e+00   5.8340687e+00  -3.5879522e+01  -2.2752868e+01  -5.5423652e+00  -4.6672549e+00   0.0000000e+00   0.0000000e+00   0.0000000e+00   0.0000000e+00
  -5.1923211e+01  -3.5004412e+00  -1.4585172e+01  -1.0909708e+02  -5.9507501e+01  -2.4503088e+01  -5.2506618e+00  -7.8759927e+00  -2.3044571e+01  -3.7921446e+01  -1.7502206e+01  -1.2630759e+02  -4.5797439e+01  -9.3345099e+00   5.8340687e-01   4.9589584e+00  -3.5587819e+01  -2.4503088e+01  -7.8759927e+00  -6.7091790e+00   0.0000000e+00   0.0000000e+00   0.0000000e+00   0.0000000e+00
  -5.2214915e+01  -5.5423652e+00  -1.4585172e+01  -1.0968049e+02  -5.7757280e+01  -2.4211385e+01  -5.8340687e+00  -6.4174756e+00  -2.2461164e+01  -3.7629743e+01  -2.0419240e+01  -1.1813989e+02  -4.8714474e+01  -7.0008824e+00   5.8340687e-01   3.7921446e+00  -3.4421005e+01  -2.5669902e+01  -9.0428065e+00  -7.8759927e+00   0.0000000e+00   0.0000000e+00   0.0000000e+00   0.0000000e+00
  -4.9881287e+01  -5.2506618e+00  -1.3126655e+01  -1.0851368e+02  -5.6298763e+01  -2.3044571e+01  -5.2506618e+00  -4.3755515e+00  -2.0710944e+01  -3.4712709e+01  -2.1586054e+01  -1.1143071e+02  -4.8422770e+01  -5.2506618e+00   1.4585172e+00   3.2087378e+00  -3.2087378e+01  -2.5086495e+01  -8.1676962e+00  -7.2925859e+00   0.0000000e+00   0.0000000e+00   0.0000000e+00   0.0000000e+00
  -4.5797439e+01  -1.7502206e+00  -1.0501324e+01  -1.0618005e+02  -5.4548542e+01  -2.0419240e+01  -3.2087378e+00  -2.6253309e+00  -1.7502206e+01  -2.9753750e+01  -2.1294351e+01  -1.0647175e+02  -4.4630625e+01  -3.7921446e+00   3.5004412e+00   3.5004412e+00  -2.8003530e+01  -2.2461164e+01  -4.9589584e+00  -5.2506618e+00   0.0000000e+00   0.0000000e+00   0.0000000e+00   0.0000000e+00
  -4.1130184e+01   3.2087378e+00  -7.2925859e+00  -1.0384642e+02  -5.2506618e+01  -1.6335392e+01  -5.8340687e-01  -1.4585172e+00  -1.3710061e+01  -2.3919682e+01  -1.8960723e+01  -1.0209620e+02  -3.7629743e+01  -2.6253309e+00   6.1257721e+00   4.6672549e+00  -2.3336275e+01  -1.8085613e+01  -8.7511030e-01  -1.7502206e+00   0.0000000e+00   0.0000000e+00   0.0000000e+00   0.0000000e+00
  -3.6754633e+01   8.1676962e+00  -4.0838481e+00  -1.0267961e+02  -5.0756398e+01  -1.1959841e+01   1.7502206e+00  -1.1668137e+00  -9.9179168e+00  -1.8960723e+01  -1.5751985e+01  -9.6553837e+01  -2.9170343e+01  -1.7502206e+00   8.4593996e+00   6.7091790e+00  -1.8960723e+01  -1.3126655e+01   2.9170343e+00   1.7502206e+00   0.0000000e+00   0.0000000e+00   0.0000000e+00   0.0000000e+00
  -3.3545895e+01   1.1084730e+01  -1.7502206e+00  -1.0238791e+02  -5.0464694e+01  -8.4593996e+00   2.6253309e+00  -1.4585172e+00  -7.2925859e+00  -1.6335392e+01  -1.3126655e+01  -9.0136361e+01  -2.2169461e+01  -1.1668137e+00   9.9179168e+00   8.4593996e+00  -1.5751985e+01  -9.0428065e+00   4.9589584e+00   4.0838481e+00   0.0000000e+00   0.0000000e+00   0.0000000e+00   0.0000000e+00
  -3.0920564e+01   1.1668137e+01   2.9170343e-01  -1.0122109e+02  -5.0464694e+01  -6.4174756e+00   2.6253309e+00  -1.4585172e+00  -5.8340687e+00  -1.5460282e+01  -1.1084730e+01  -8.2843775e+01  -1.7793909e+01  -2.9170343e-01   1.0793027e+01   9.6262133e+00  -1.4001765e+01  -6.1257721e+00   5.2506618e+00   5.2506618e+00   0.0000000e+00   0.0000000e+00   0.0000000e+00   0.0000000e+00
  -2.8878640e+01   9.6262133e+00   1.1668137e+00  -9.7428947e+01  -5.0464694e+01  -5.8340687e+00   1.7502206e+00  -2.0419240e+00  -5.5423652e+00  -1.6335392e+01  -1.0793027e+01  -7.6718003e+01  -1.7210503e+01   8.7511030e-01   1.0501324e+01   9.6262133e+00  -1.3710061e+01  -5.2506618e+00   3.2087378e+00   4.6672549e+00   0.0000000e+00   0.0000000e+00   0.0000000e+00   0.0000000e+00
  -2.7128419e+01   5.5423652e+00   5.8340687e-01  -9.1303175e+01  -4.9589584e+01  -6.1257721e+00   2.9170343e-01  -3.2087378e+00  -7.0008824e+00  -1.7793909e+01  -1.1668137e+01  -7.3217562e+01  -1.9544130e+01   2.6253309e+00   9.6262133e+00   8.1676962e+00  -1.4001765e+01  -6.1257721e+00   0.0000000e+00   2.3336275e+00   0.0000000e+00   0.0000000e+00   0.0000000e+00   0.0000000e+00
  -2.5961606e+01   2.9170343e-01  -1.1668137e+00  -8.2843775e+01  -4.7255956e+01  -5.5423652e+00  -2.9170343e-01  -4.3755515e+00  -9.0428065e+00  -1.8960723e+01  -1.3126655e+01  -7.1175638e+01  -2.2169461e+01   4.9589584e+00   8.7511030e+00   5.8340687e+00  -1.4293468e+01  -7.5842893e+00  -3.2087378e+00  -5.8340687e-01   0.0000000e+00   0.0000000e+00   0.0000000e+00   0.0000000e+00
  -2.5378199e+01  -3.7921446e+00  -2.9170343e+00  -7.4384376e+01  -4.4047219e+01  -3.2087378e+00   2.9170343e-01  -4.3755515e+00  -1.0209620e+01  -1.8960723e+01  -1.3418358e+01  -6.7966900e+01  -2.3044571e+01   7.8759927e+00   9.0428065e+00   4.3755515e+00  -1.2834951e+01  -8.1676962e+00  -4.3755515e+00  -2.0419240e+00   0.0000000e+00   0.0000000e+00   0.0000000e+00   0.0000000e+00
  -2.5086495e+01  -5.8340687e+00  -4.6672549e+00  -6.7091790e+01  -4.2296998e+01  -2.9170343e-01   1.4585172e+00  -3.7921446e+00  -1.0501324e+01  -1.8377316e+01  -1.2834951e+01  -6.2716238e+01  -2.0710944e+01   9.3345099e+00   9.6262133e+00   3.5004412e+00  -1.0501324e+01  -7.5842893e+00  -4.3755515e+00  -2.0419240e+00   0.0000000e+00   0.0000000e+00   0.0000000e+00   0.0000000e+00
  -2.4794792e+01  -5.2506618e+00  -5.5423652e+00  -6.1549425e+01  -4.3172108e+01   2.6253309e+00   3.2087378e+00  -2.9170343e+00  -8.7511030e+00  -1.6918799e+01  -1.1376434e+01  -5.4548542e+01  -1.5168579e+01   9.3345099e+00   1.0501324e+01   4.0838481e+00  -7.5842893e+00  -5.2506618e+00  -2.6253309e+00   0.0000000e+00   0.0000000e+00   0.0000000e+00   0.0000000e+00   0.0000000e+00
  -2.3627978e+01  -2.0419240e+00  -4.6672549e+00  -5.6590466e+01  -4.5505736e+01   4.6672549e+00   5.2506618e+00  -1.7502206e+00  -5.2506618e+00  -1.4293468e+01  -9.6262133e+00  -4.5505736e+01  -7.8759927e+00   7.5842893e+00   1.1668137e+01   5.5423652e+00  -4.3755515e+00  -1.4585172e+00   2.9170343e-01   3.2087378e+00   0.0000000e+00   0.0000000e+00   0.0000000e+00   0.0000000e+00
  -2.2461164e+01   2.6253309e+00  -2.9170343e+00  -5.2506618e+01  -4.7839363e+01   5.5423652e+00   6.4174756e+00  -1.1668137e+00  -1.4585172e+00  -1.0501324e+01  -8.7511030e+00  -3.7629743e+01  -8.7511030e-01   4.3755515e+00   1.1668137e+01   6.7091790e+00  -2.0419240e+00   2.6253309e+00   2.6253309e+00   6.7091790e+00   0.0000000e+00   0.0000000e+00   0.0000000e+00   0.0000000e+00
  -2.1002647e+01   7.2925859e+00  -5.8340687e-01  -4.6672549e+01  -4.7547660e+01   5.8340687e+00   7.5842893e+00  -5.8340687e-01   2.0419240e+00  -4.9589584e+00  -8.1676962e+00  -3.0920564e+01   4.3755515e+00   1.7502206e+00   1.1668137e+01   8.1676962e+00   2.9170343e-01   6.7091790e+00   4.3755515e+00   9.6262133e+00   0.0000000e+00   0.0000000e+00   0.0000000e+00   0.0000000e+00
  -2.0710944e+01   9.6262133e+00   1.1668137e+00  -3.8796557e+01  -4.4922329e+01   5.2506618e+00   7.5842893e+00  -8.7511030e-01   3.7921446e+00  -2.9170343e-01  -9.3345099e+00  -2.6836716e+01   6.1257721e+00  -2.9170343e-01   1.0793027e+01   8.7511030e+00   8.7511030e-01   9.0428065e+00   3.7921446e+00   1.1084730e+01   0.0000000e+00   0.0000000e+00   0.0000000e+00   0.0000000e+00
  -2.1002647e+01   9.3345099e+00   1.4585172e+00  -2.8295233e+01  -4.0546777e+01   4.0838481e+00   7.0008824e+00  -1.1668137e+00   3.2087378e+00   1.4585172e+00  -1.1084730e+01  -2.4503088e+01   4.6672549e+00  -2.9170343e-01   1.0209620e+01   9.3345099e+00   8.7511030e-01   9.6262133e+00   1.7502206e+00   1.1376434e+01   0.0000000e+00   0.0000000e+00   0.0000000e+00   0.0000000e+00
  -2.1294351e+01   6.1257721e+00   5.8340687e-01  -1.6627096e+01  -3.5004412e+01   2.6253309e+00   6.1257721e+00  -1.4585172e+00   8.7511030e-01  -5.8340687e-01  -1.3126655e+01  -2.4211385e+01   1.4585172e+00   2.6253309e+00   1.0501324e+01   1.0209620e+01   2.9170343e-01   8.7511030e+00  -5.8340687e-01   1.0501324e+01   0.0000000e+00   0.0000000e+00   0.0000000e+00   0.0000000e+00
  -2.2169461e+01   1.7502206e+00  -1.7502206e+00  -6.4174756e+00  -2.8586937e+01   2.0419240e+00   5.5423652e+00  -2.0419240e+00  -2.9170343e+00  -5.5423652e+00  -1.4293468e+01  -2.5378199e+01  -2.3336275e+00   7.2925859e+00   1.1959841e+01   1.1084730e+01  -2.9170343e-01   7.0008824e+00  -2.9170343e+00   9.3345099e+00   0.0000000e+00   0.0000000e+00   0.0000000e+00   0.0000000e+00
  -2.2461164e+01  -2.3336275e+00  -4.3755515e+00  -8.7511030e-01  -2.1877758e+01   2.3336275e+00   5.5423652e+00  -3.2087378e+00  -6.1257721e+00  -1.0501324e+01  -1.5168579e+01  -2.7420123e+01  -5.8340687e+00   1.1959841e+01   1.3710061e+01   1.1668137e+01  -2.9170343e-01   5.2506618e+00  -3.7921446e+00   7.8759927e+00   0.0000000e+00   0.0000000e+00   0.0000000e+00   0.0000000e+00
  -2.2169461e+01  -3.7921446e+00  -6.4174756e+00  -2.9170343e-01  -1.5460282e+01   4.3755515e+00   6.4174756e+00  -4.3755515e+00  -6.7091790e+00  -1.2543248e+01  -1.5168579e+01  -2.7711826e+01  -7.8759927e+00   1.4585172e+01   1.5460282e+01   1.1959841e+01   2.9170343e-01   4.6672549e+00  -2.9170343e+00   7.2925859e+00   0.0000000e+00   0.0000000e+00   0.0000000e+00   0.0000000e+00
  -2.1002647e+01  -2.6253309e+00  -7.5842893e+00  -3.7921446e+00  -1.1376434e+01   7.2925859e+00   7.8759927e+00  -5.2506618e+00  -4.6672549e+00  -1.1959841e+01  -1.4585172e+01  -2.5961606e+01  -8.4593996e+00   1.4293468e+01   1.6627096e+01   1.0793027e+01   1.4585172e+00   5.2506618e+00  -8.7511030e-01   7.0008824e+00   0.0000000e+00   0.0000000e+00   0.0000000e+00   0.0000000e+00
  -1.9544130e+01   1.1668137e+00  -7.5842893e+00  -1.0209620e+01  -1.0501324e+01   1.0209620e+01   9.0428065e+00  -5.8340687e+00  -1.7502206e+00  -1.0501324e+01  -1.3710061e+01  -2.2461164e+01  -7.5842893e+00   1.1668137e+01   1.6918799e+01   8.7511030e+00   2.3336275e+00   6.7091790e+00   1.7502206e+00   7.5842893e+00   0.0000000e+00   0.0000000e+00   0.0000000e+00   0.0000000e+00
  -1.7502206e+01   6.1257721e+00  -6.4174756e+00  -1.6627096e+01  -1.2834951e+01   1.2543248e+01   1.0501324e+01  -4.9589584e+00   1.1668137e+00  -1.0209620e+01  -1.2251544e+01  -1.8085613e+01  -5.2506618e+00   9.0428065e+00   1.7793909e+01   7.0008824e+00   3.5004412e+00   8.7511030e+00   4.9589584e+00   9.0428065e+00   0.0000000e+00   0.0000000e+00   0.0000000e+00   0.0000000e+00
  -1.5751985e+01   1.0501324e+01  -4.9589584e+00  -2.2461164e+01  -1.7502206e+01   1.3126655e+01   1.1084730e+01  -2.9170343e+00   8.7511030e-01  -1.2543248e+01  -1.0793027e+01  -1.5460282e+01  -2.9170343e+00   7.2925859e+00   1.8377316e+01   5.5423652e+00   4.0838481e+00   1.0501324e+01   7.2925859e+00   1.0793027e+01   0.0000000e+00   0.0000000e+00   0.0000000e+00   0.0000000e+00
  -1.5168579e+01   1.1959841e+01  -4.3755515e+00  -2.7420123e+01  -2.2461164e+01   1.1376434e+01   1.0793027e+01   0.0000000e+00  -3.2087378e+00  -1.6918799e+01  -1.0501324e+01  -1.5751985e+01  -1.7502206e+00   6.4174756e+00   1.8669020e+01   4.6672549e+00   3.7921446e+00   1.0793027e+01   8.1676962e+00   1.1959841e+01   0.0000000e+00   0.0000000e+00   0.0000000e+00   0.0000000e+00
  -1.5460282e+01   9.9179168e+00  -4.9589584e+00  -3.1503971e+01  -2.5961606e+01   7.8759927e+00   9.6262133e+00   4.0838481e+00  -9.6262133e+00  -2.0419240e+01  -1.1084730e+01  -1.7502206e+01  -2.3336275e+00   6.7091790e+00   1.8669020e+01   4.6672549e+00   2.3336275e+00   9.3345099e+00   7.2925859e+00   1.1959841e+01   0.0000000e+00   0.0000000e+00   0.0000000e+00   0.0000000e+00
  -1.6335392e+01   5.5423652e+00  -6.7091790e+00  -3.4421005e+01  -2.7420123e+01   4.0838481e+00   7.8759927e+00   8.1676962e+00  -1.6335392e+01  -2.1294351e+01  -1.2251544e+01  -1.8669020e+01  -5.2506618e+00   7.2925859e+00   1.7793909e+01   4.6672549e+00   5.8340687e-01   6.4174756e+00   4.9589584e+00   1.1084730e+01   0.0000000e+00   0.0000000e+00   0.0000000e+00   0.0000000e+00
  -1.7502206e+01   5.8340687e-01  -9.0428065e+00  -3.5296116e+01  -2.8295233e+01   8.7511030e-01   6.4174756e+00   1.1959841e+01  -2.0419240e+01  -1.9252427e+01  -1.3710061e+01  -1.6918799e+01  -9.0428065e+00   7.2925859e+00   1.6335392e+01   4.9589584e+00  -1.1668137e+00   2.9170343e+00   2.0419240e+00   9.3345099e+00   0.0000000e+00   0.0000000e+00   0.0000000e+00   0.0000000e+00
  -1.8377316e+01  -2.3336275e+00  -1.1084730e+01  -3.3837598e+01  -2.8878640e+01  -5.8340687e-01   4.9589584e+00   1.4876875e+01  -2.1002647e+01  -1.5460282e+01  -1.4293468e+01  -1.1376434e+01  -1.2251544e+01   7.0008824e+00   1.4585172e+01   5.2506618e+00  -2.0419240e+00   0.0000000e+00   0.0000000e+00   7.5842893e+00   0.0000000e+00   0.0000000e+00   0.0000000e+00   0.0000000e+00
  -1.8377316e+01  -1.4585172e+00  -1.2251544e+01  -3.0628861e+01  -3.0337157e+01   2.9170343e-01   4.3755515e+00   1.5751985e+01  -1.7793909e+01  -1.1376434e+01  -1.3418358e+01  -4.0838481e+00  -1.3710061e+01   5.8340687e+00   1.3710061e+01   5.8340687e+00  -2.0419240e+00  -1.4585172e+00  -2.9170343e-01   6.4174756e+00   0.0000000e+00   0.0000000e+00   0.0000000e+00   0.0000000e+00
  -1.7502206e+01   3.7921446e+00  -1.1376434e+01  -2.5961606e+01  -3.2087378e+01   2.9170343e+00   4.9589584e+00   1.5168579e+01  -1.2543248e+01  -8.1676962e+00  -1.0793027e+01   2.6253309e+00  -1.2834951e+01   4.3755515e+00   1.3710061e+01   6.7091790e+00  -8.7511030e-01  -8.7511030e-01   1.4585172e+00   7.0008824e+00   0.0000000e+00   0.0000000e+00   0.0000000e+00   0.0000000e+00
  -1.6335392e+01   1.1959841e+01  -9.6262133e+00  -2.2461164e+01  -3.5296116e+01   5.2506618e+00   5.8340687e+00   1.2543248e+01  -7.2925859e+00  -6.4174756e+00  -8.1676962e+00   6.1257721e+00  -1.1084730e+01   2.0419240e+00   1.3710061e+01   7.0008824e+00   0.0000000e+00   8.7511030e-01   3.7921446e+00   8.1676962e+00   0.0000000e+00   0.0000000e+00   0.0000000e+00   0.0000000e+00
  -1.4585172e+01   2.1294351e+01  -6.4174756e+00  -1.8669020e+01  -3.7921446e+01   7.0008824e+00   7.0008824e+00   1.0501324e+01  -2.3336275e+00  -5.8340687e+00  -5.2506618e+00   7.0008824e+00  -8.4593996e+00   0.0000000e+00   1.4876875e+01   7.8759927e+00   1.1668137e+00   3.5004412e+00   7.0008824e+00   1.0501324e+01   0.0000000e+00   0.0000000e+00   0.0000000e+00   0.0000000e+00
  -1.3418358e+01   2.8003530e+01  -3.2087378e+00  -1.4001765e+01  -4.0546777e+01   7.0008824e+00   7.8759927e+00   8.7511030e+00   1.1668137e+00  -6.7091790e+00  -4.0838481e+00   6.4174756e+00  -6.4174756e+00  -1.7502206e+00   1.5751985e+01   8.4593996e+00   1.4585172e+00   5.5423652e+00   8.7511030e+00   1.2543248e+01   0.0000000e+00   0.0000000e+00   0.0000000e+00   0.0000000e+00
  -1.3418358e+01   2.9753750e+01  -8.7511030e-01  -7.5842893e+00  -4.1713591e+01   6.4174756e+00   7.5842893e+00   7.8759927e+00   2.3336275e+00  -9.0428065e+00  -4.0838481e+00   6.4174756e+00  -5.8340687e+00  -2.3336275e+00   1.6043689e+01   9.3345099e+00   8.7511030e-01   6.4174756e+00   9.0428065e+00   1.3710061e+01   0.0000000e+00   0.0000000e+00   0.0000000e+00   0.0000000e+00
  -1.4585172e+01   2.5378199e+01   0.0000000e+00   1.1668137e+00  -4.0838481e+01   5.8340687e+00   7.0008824e+00   7.5842893e+00   1.4585172e+00  -1.2834951e+01  -5.2506618e+00   9.0428065e+00  -7.0008824e+00  -1.1668137e+00   1.6043689e+01   1.0209620e+01   0.0000000e+00   5.8340687e+00   7.8759927e+00   1.4001765e+01   0.0000000e+00   0.0000000e+00   0.0000000e+00   0.0000000e+00
  -1.5751985e+01   1.7210503e+01  -1.1668137e+00   1.0501324e+01  -3.7921446e+01   6.1257721e+00   6.7091790e+00   7.8759927e+00  -5.8340687e-01  -1.6627096e+01  -6.7091790e+00   1.2834951e+01  -9.6262133e+00   8.7511030e-01   1.5751985e+01   1.1084730e+01  -5.8340687e-01   4.0838481e+00   5.8340687e+00   1.3126655e+01   0.0000000e+00   0.0000000e+00   0.0000000e+00   0.0000000e+00
  -1.7210503e+01   6.7091790e+00  -4.0838481e+00   1.8669020e+01  -3.4421005e+01   6.7091790e+00   5.8340687e+00   7.0008824e+00  -4.0838481e+00  -2.0127537e+01  -9.0428065e+00   1.5460282e+01  -1.3710061e+01   2.3336275e+00   1.4585172e+01   1.0209620e+01  -1.4585172e+00   8.7511030e-01   2.9170343e+00   1.0793027e+01   0.0000000e+00   0.0000000e+00   0.0000000e+00   0.0000000e+00
  -1.7210503e+01  -1.7502206e+00  -6.7091790e+00   2.5378199e+01  -2.9170343e+01   9.0428065e+00   6.1257721e+00   6.4174756e+00  -5.5423652e+00  -2.1294351e+01  -1.0793027e+01   1.7210503e+01  -1.6043689e+01   3.5004412e+00   1.3710061e+01   8.7511030e+00  -8.7511030e-01  -1.4585172e+00   1.4585172e+00   9.0428065e+00   0.0000000e+00   0.0000000e+00   0.0000000e+00   0.0000000e+00
  -1.7210503e+01  -7.0008824e+00  -8.4593996e+00   2.8586937e+01  -2.4503088e+01   1.1376434e+01   6.4174756e+00   4.6672549e+00  -5.2506618e+00  -2.1877758e+01  -1.1959841e+01   1.6627096e+01  -1.6918799e+01   3.2087378e+00   1.2251544e+01   5.5423652e+00  -2.9170343e-01  -3.5004412e+00   8.7511030e-01   7.0008824e+00   0.0000000e+00   0.0000000e+00   0.0000000e+00   0.0000000e+00
  -1.5751985e+01  -7.8759927e+00  -8.1676962e+00   2.8878640e+01  -1.9252427e+01   1.4876875e+01   7.5842893e+00   3.2087378e+00  -2.0419240e+00  -2.0710944e+01  -1.1376434e+01   1.5460282e+01  -1.3710061e+01   2.6253309e+00   1.1376434e+01   2.6253309e+00   2.0419240e+00  -2.9170343e+00   2.3336275e+00   6.7091790e+00   0.0000000e+00   0.0000000e+00   0.0000000e+00   0.0000000e+00
  -1.4293468e+01  -5.5423652e+00  -6.1257721e+00   2.7128419e+01  -1.4293468e+01   1.8377316e+01   9.0428065e+00   1.4585172e+00   2.0419240e+00  -1.9544130e+01  -1.0209620e+01   1.3418358e+01  -8.4593996e+00   1.1668137e+00   1.0793027e+01   0.0000000e+00   4.9589584e+00  -8.7511030e-01   4.9589584e+00   7.2925859e+00   0.0000000e+00   0.0000000e+00   0.0000000e+00   0.0000000e+00
  -1.3126655e+01  -2.3336275e+00  -3.5004412e+00   2.4211385e+01  -1.0793027e+01   2.0710944e+01   1.0209620e+01  -5.8340687e-01   6.1257721e+00  -1.8960723e+01  -8.1676962e+00   1.1668137e+01  -2.9170343e+00   0.0000000e+00   1.0501324e+01  -1.4585172e+00   7.5842893e+00   1.7502206e+00   7.5842893e+00   8.4593996e+00   0.0000000e+00   0.0000000e+00   0.0000000e+00   0.0000000e+00
  -1.2251544e+01   2.9170343e-01  -1.1668137e+00   2.2169461e+01  -9.0428065e+00   2.1586054e+01   1.0793027e+01  -2.3336275e+00   9.0428065e+00  -1.8960723e+01  -6.4174756e+00   1.1084730e+01   8.7511030e-01  -5.8340687e-01   1.0501324e+01  -1.7502206e+00   9.3345099e+00   4.0838481e+00   9.3345099e+00   9.3345099e+00   0.0000000e+00   0.0000000e+00   0.0000000e+00   0.0000000e+00
  -1.2543248e+01   8.7511030e-01  -2.9170343e-01   1.9544130e+01  -8.7511030e+00   2.0127537e+01   1.0501324e+01  -3.7921446e+00   9.9179168e+00  -1.9544130e+01  -5.2506618e+00   1.1959841e+01   1.7502206e+00  -5.8340687e-01   1.0209620e+01  -1.4585172e+00   9.9179168e+00   4.9589584e+00   9.3345099e+00   9.3345099e+00   0.0000000e+00   0.0000000e+00   0.0000000e+00   0.0000000e+00
  -1.3710061e+01  -8.7511030e-01  -8.7511030e-01   1.5460282e+01  -8.7511030e+00   1.7210503e+01   9.6262133e+00  -4.6672549e+00   8.7511030e+00  -2.0127537e+01  -6.1257721e+00   1.4585172e+01  -8.7511030e-01   2.9170343e-01   9.6262133e+00  -1.1668137e+00   9.0428065e+00   3.7921446e+00   7.5842893e+00   7.8759927e+00   0.0000000e+00   0.0000000e+00   0.0000000e+00   0.0000000e+00
  -1.4293468e+01  -3.5004412e+00  -2.3336275e+00   1.0209620e+01  -8.1676962e+00   1.4001765e+01   8.7511030e+00  -4.0838481e+00   4.9589584e+00  -2.0419240e+01  -7.8759927e+00   1.8960723e+01  -4.9589584e+00   2.0419240e+00   8.7511030e+00  -1.1668137e+00   7.8759927e+00   1.4585172e+00   4.9589584e+00   6.1257721e+00   0.0000000e+00   0.0000000e+00   0.0000000e+00   0.0000000e+00
  -1.3710061e+01  -5.5423652e+00  -3.7921446e+00   5.2506618e+00  -7.2925859e+00   1.1668137e+01   8.1676962e+00  -2.0419240e+00  -2.9170343e-01  -1.9544130e+01  -9.9179168e+00   2.3627978e+01  -9.0428065e+00   4.3755515e+00   8.4593996e+00  -8.7511030e-01   7.2925859e+00  -1.1668137e+00   2.6253309e+00   4.6672549e+00   0.0000000e+00   0.0000000e+00   0.0000000e+00   0.0000000e+00
  -1.1668137e+01  -6.1257721e+00  -5.2506618e+00   2.6253309e+00  -8.1676962e+00   1.0501324e+01   7.8759927e+00   0.0000000e+00  -6.4174756e+00  -1.7793909e+01  -1.1668137e+01   2.6836716e+01  -1.1668137e+01   6.7091790e+00   8.1676962e+00  -5.8340687e-01   7.2925859e+00  -3.5004412e+00   1.4585172e+00   3.7921446e+00   0.0000000e+00   0.0000000e+00   0.0000000e+00   0.0000000e+00
  -8.7511030e+00  -4.3755515e+00  -6.1257721e+00   3.2087378e+00  -1.1668137e+01   1.0209620e+01   8.4593996e+00   2.0419240e+00  -1.0209620e+01  -1.4001765e+01  -1.1959841e+01   2.8586937e+01  -1.1084730e+01   7.8759927e+00   8.7511030e+00   2.9170343e-01   8.4593996e+00  -4.3755515e+00   2.0419240e+00   4.6672549e+00   0.0000000e+00   0.0000000e+00   0.0000000e+00   0.0000000e+00
  -6.4174756e+00  -1.1668137e+00  -5.8340687e+00   5.8340687e+00  -1.6335392e+01   1.1376434e+01   9.6262133e+00   2.9170343e+00  -1.0501324e+01  -7.8759927e+00  -1.1084730e+01   2.8295233e+01  -7.2925859e+00   8.1676962e+00   9.3345099e+00   1.7502206e+00   1.1084730e+01  -3.5004412e+00   4.0838481e+00   6.4174756e+00   0.0000000e+00   0.0000000e+00   0.0000000e+00   0.0000000e+00
  -5.5423652e+00   3.2087378e+00  -4.3755515e+00   9.3345099e+00  -1.9835834e+01   1.4001765e+01   1.1084730e+01   2.9170343e+00  -7.0008824e+00  -8.7511030e-01  -9.3345099e+00   2.8003530e+01  -8.7511030e-01   7.2925859e+00   1.0501324e+01   3.2087378e+00   1.4293468e+01  -8.7511030e-01   7.5842893e+00   9.3345099e+00   0.0000000e+00   0.0000000e+00   0.0000000e+00   0.0000000e+00
  -6.4174756e+00   7.0008824e+00  -2.3336275e+00   1.1959841e+01  -2.1002647e+01   1.7502206e+01   1.2251544e+01   2.0419240e+00  -1.7502206e+00   4.6672549e+00  -7.2925859e+00   2.9170343e+01   6.1257721e+00   6.7091790e+00   1.1668137e+01   4.6672549e+00   1.7793909e+01   2.6253309e+00   1.1084730e+01   1.2251544e+01   0.0000000e+00   0.0000000e+00   0.0000000e+00   0.0000000e+00
  -8.4593996e+00   9.9179168e+00   0.0000000e+00   1.4293468e+01  -1.9252427e+01   2.1294351e+01   1.3418358e+01   1.7502206e+00   2.9170343e+00   7.2925859e+00  -5.8340687e+00   3.3545895e+01   1.2251544e+01   8.1676962e+00   1.3126655e+01   5.5423652e+00   2.1002647e+01   6.4174756e+00   1.4001765e+01   1.5168579e+01   0.0000000e+00   0.0000000e+00   0.0000000e+00   0.0000000e+00
  -1.0501324e+01   1.1376434e+01   1.4585172e+00   1.7210503e+01  -1.6918799e+01   2.3044571e+01   1.3710061e+01   1.1668137e+00   4.6672549e+00   5.8340687e+00  -5.5423652e+00   3.9379964e+01   1.5460282e+01   1.0793027e+01   1.4876875e+01   6.1257721e+00   2.3044571e+01   9.3345099e+00   1.5460282e+01   1.6627096e+01   0.0000000e+00   0.0000000e+00   0.0000000e+00   0.0000000e+00
  -1.2834951e+01   1.1084730e+01   1.1668137e+00   2.2752868e+01  -1.5168579e+01   2.2752868e+01   1.2834951e+01   8.7511030e-01   3.5004412e+00   2.0419240e+00  -5.8340687e+00   4.5505736e+01   1.5168579e+01   1.4293468e+01   1.6043689e+01   5.8340687e+00   2.3919682e+01   1.0209620e+01   1.4876875e+01   1.6627096e+01   0.0000000e+00   0.0000000e+00   0.0000000e+00   0.0000000e+00
  -1.4876875e+01   9.0428065e+00  -2.9170343e-01   3.0628861e+01  -1.4585172e+01   2.0127537e+01   1.1376434e+01   5.8340687e-01   1.1668137e+00  -1.7502206e+00  -6.7091790e+00   4.9297880e+01   1.1959841e+01   1.7502206e+01   1.6627096e+01   5.2506618e+00   2.3919682e+01   9.3345099e+00   1.2834951e+01   1.5168579e+01   0.0000000e+00   0.0000000e+00   0.0000000e+00   0.0000000e+00
  -1.6335392e+01   6.7091790e+00  -2.3336275e+00   3.9088260e+01  -1.3710061e+01   1.7502206e+01   9.6262133e+00   0.0000000e+00  -5.8340687e-01  -3.7921446e+00  -7.5842893e+00   4.9881287e+01   8.4593996e+00   2.0127537e+01   1.6627096e+01   4.3755515e+00   2.3919682e+01   7.5842893e+00   1.0209620e+01   1.3126655e+01   0.0000000e+00   0.0000000e+00   0.0000000e+00   0.0000000e+00
  -1.7502206e+01   4.9589584e+00  -3.7921446e+00   4.4922329e+01  -1.2543248e+01   1.4876875e+01   8.1676962e+00  -8.7511030e-01   0.0000000e+00  -5.5423652e+00  -8.1676962e+00   4.6964253e+01   5.8340687e+00   2.1002647e+01   1.6043689e+01   2.9170343e+00   2.4211385e+01   5.5423652e+00   8.1676962e+00   1.0793027e+01   0.0000000e+00   0.0000000e+00   0.0000000e+00   0.0000000e+00
  -1.7210503e+01   5.5423652e+00  -4.0838481e+00   4.6380846e+01  -1.0793027e+01   1.3710061e+01   7.0008824e+00  -1.7502206e+00   2.6253309e+00  -7.0008824e+00  -8.4593996e+00   4.2005295e+01   6.1257721e+00   2.0710944e+01   1.5460282e+01   1.1668137e+00   2.5086495e+01   4.3755515e+00   7.2925859e+00   9.3345099e+00   0.0000000e+00   0.0000000e+00   0.0000000e+00   0.0000000e+00
  -1.5460282e+01   9.6262133e+00  -2.9170343e+00   4.3463812e+01  -9.6262133e+00   1.2834951e+01   6.4174756e+00  -2.3336275e+00   6.7091790e+00  -9.3345099e+00  -8.1676962e+00   3.6462929e+01   9.3345099e+00   1.9544130e+01   1.5168579e+01  -2.9170343e-01   2.6253309e+01   4.6672549e+00   8.1676962e+00   9.3345099e+00   0.0000000e+00   0.0000000e+00   0.0000000e+00   0.0000000e+00
  -1.2543248e+01   1.6627096e+01  -5.8340687e-01   3.8213150e+01  -9.3345099e+00   1.1668137e+01   6.4174756e+00  -2.3336275e+00   1.0793027e+01  -1.1376434e+01  -7.2925859e+00   3.2379081e+01   1.4876875e+01   1.8085613e+01   1.5168579e+01  -1.4585172e+00   2.7711826e+01   6.4174756e+00   9.9179168e+00   1.0209620e+01   0.0000000e+00   0.0000000e+00   0.0000000e+00   0.0000000e+00
  -9.0428065e+00   2.5378199e+01   2.3336275e+00   3.2087378e+01  -9.6262133e+00   9.9179168e+00   6.7091790e+00  -1.7502206e+00   1.4585172e+01  -1.2251544e+01  -5.8340687e+00   3.0337157e+01   2.1877758e+01   1.6918799e+01   1.6043689e+01  -8.7511030e-01   2.9170343e+01   9.0428065e+00   1.1959841e+01   1.2251544e+01   0.0000000e+00   0.0000000e+00   0.0000000e+00   0.0000000e+00
  -6.4174756e+00   3.2379081e+01   4.9589584e+00   2.7420123e+01  -9.0428065e+00   8.1676962e+00   6.7091790e+00  -8.7511030e-01   1.6043689e+01  -1.1084730e+01  -4.3755515e+00   2.9753750e+01   2.8295233e+01   1.6335392e+01   1.6627096e+01   8.7511030e-01   3.0337157e+01   1.1959841e+01   1.3126655e+01   1.4001765e+01   0.0000000e+00   0.0000000e+00   0.0000000e+00   0.0000000e+00
  -5.2506618e+00   3.5296116e+01   6.1257721e+00   2.5669902e+01  -7.2925859e+00   7.0008824e+00   6.7091790e+00   5.8340687e-01   1.4585172e+01  -8.4593996e+00  -4.0838481e+00   2.9462047e+01   3.1795674e+01   1.6918799e+01   1.6918799e+01   3.7921446e+00   3.0337157e+01   1.3710061e+01   1.2834951e+01   1.5168579e+01   0.0000000e+00   0.0000000e+00   0.0000000e+00   0.0000000e+00
  -4.9589584e+00   3.2670785e+01   5.5423652e+00   2.8003530e+01  -5.2506618e+00   6.4174756e+00   6.7091790e+00   2.6253309e+00   1.0501324e+01  -5.5423652e+00  -4.6672549e+00   3.0045454e+01   3.1503971e+01   1.8085613e+01   1.6627096e+01   6.4174756e+00   2.9462047e+01   1.3710061e+01   1.0501324e+01   1.5168579e+01   0.0000000e+00   0.0000000e+00   0.0000000e+00   0.0000000e+00
  -5.2506618e+00   2.6253309e+01   3.2087378e+00   3.4129302e+01  -3.2087378e+00   6.7091790e+00   6.7091790e+00   4.9589584e+00   5.5423652e+00  -3.7921446e+00  -6.4174756e+00   3.2670785e+01   2.8586937e+01   2.0127537e+01   1.6335392e+01   8.4593996e+00   2.8295233e+01   1.2251544e+01   7.2925859e+00   1.4001765e+01   0.0000000e+00   0.0000000e+00   0.0000000e+00   0.0000000e+00
  -4.9589584e+00   1.8085613e+01   5.8340687e-01   4.2296998e+01  -1.7502206e+00   8.4593996e+00   7.5842893e+00   7.2925859e+00   1.7502206e+00  -4.0838481e+00  -8.4593996e+00   3.8504853e+01   2.4503088e+01   2.2461164e+01   1.6043689e+01   9.6262133e+00   2.7128419e+01   1.0501324e+01   4.6672549e+00   1.2543248e+01   0.0000000e+00   0.0000000e+00   0.0000000e+00   0.0000000e+00
  -4.3755515e+00   1.1084730e+01  -1.7502206e+00   5.0172991e+01  -1.1668137e+00   1.0793027e+01   8.7511030e+00   8.4593996e+00   1.1668137e+00  -5.2506618e+00  -9.9179168e+00   4.6380846e+01   2.1877758e+01   2.4794792e+01   1.6335392e+01   1.0209620e+01   2.7128419e+01   9.0428065e+00   3.2087378e+00   1.1668137e+01   0.0000000e+00   0.0000000e+00   0.0000000e+00   0.0000000e+00
  -2.9170343e+00   7.8759927e+00  -2.9170343e+00   5.6007059e+01  -1.4585172e+00   1.3710061e+01   1.0501324e+01   8.4593996e+00   4.3755515e+00  -7.5842893e+00  -1.0501324e+01   5.4256839e+01   2.1586054e+01   2.5961606e+01   1.6627096e+01   9.9179168e+00   2.8295233e+01   9.0428065e+00   3.5004412e+00   1.1084730e+01   0.0000000e+00   0.0000000e+00   0.0000000e+00   0.0000000e+00
  -5.8340687e-01   8.7511030e+00  -2.3336275e+00   5.9799204e+01  -2.0419240e+00   1.7210503e+01   1.2834951e+01   7.5842893e+00   1.1084730e+01  -8.7511030e+00  -9.9179168e+00   6.0090907e+01   2.4503088e+01   2.6545013e+01   1.7793909e+01   9.9179168e+00   3.0920564e+01   1.0793027e+01   5.8340687e+00   1.1959841e+01   0.0000000e+00   0.0000000e+00   0.0000000e+00   0.0000000e+00
   1.4585172e+00   1.1959841e+01  -8.7511030e-01   6.0090907e+01  -2.9170343e+00   1.9835834e+01   1.5460282e+01   6.4174756e+00   1.8085613e+01  -9.0428065e+00  -8.7511030e+00   6.2716238e+01   2.9170343e+01   2.5378199e+01   1.8669020e+01   9.9179168e+00   3.3837598e+01   1.3418358e+01   8.7511030e+00   1.3418358e+01   0.0000000e+00   0.0000000e+00   0.0000000e+00   0.0000000e+00
   3.2087378e+00   1.5751985e+01   1.1668137e+00   5.7173873e+01  -2.6253309e+00   2.2169461e+01   1.8085613e+01   5.2506618e+00   2.3627978e+01  -7.8759927e+00  -7.2925859e+00   6.2424535e+01   3.4421005e+01   2.3919682e+01   1.9835834e+01   1.1084730e+01   3.6171226e+01   1.6627096e+01   1.1959841e+01   1.5751985e+01   0.0000000e+00   0.0000000e+00   0.0000000e+00   0.0000000e+00
   3.7921446e+00   1.8669020e+01   3.5004412e+00   5.1048101e+01  -1.1668137e+00   2.3627978e+01   2.0710944e+01   4.3755515e+00   2.6836716e+01  -5.5423652e+00  -5.2506618e+00   6.1257721e+01   3.8504853e+01   2.2169461e+01   2.1002647e+01   1.3126655e+01   3.7629743e+01   1.9544130e+01   1.4293468e+01   1.8377316e+01   0.0000000e+00   0.0000000e+00   0.0000000e+00   0.0000000e+00
   2.0419240e+00   1.8960723e+01   4.6672549e+00   4.2880405e+01   0.0000000e+00   2.3044571e+01   2.1877758e+01   3.2087378e+00   2.6253309e+01  -4.0838481e+00  -4.3755515e+00   5.8924094e+01   3.9379964e+01   2.0127537e+01   2.1002647e+01   1.4876875e+01   3.6754633e+01   2.0419240e+01   1.4585172e+01   1.8960723e+01   0.0000000e+00   0.0000000e+00   0.0000000e+00   0.0000000e+00
  -5.8340687e-01   1.7793909e+01   5.8340687e+00   3.5587819e+01   0.0000000e+00   2.1002647e+01   2.2169461e+01   2.6253309e+00   2.3336275e+01  -3.2087378e+00  -4.0838481e+00   5.7465577e+01   3.7338040e+01   1.8960723e+01   2.0710944e+01   1.6335392e+01   3.4712709e+01   1.9544130e+01   1.3418358e+01   1.8669020e+01   0.0000000e+00   0.0000000e+00   0.0000000e+00   0.0000000e+00
  -3.5004412e+00   1.5460282e+01   5.8340687e+00   3.0337157e+01  -1.4585172e+00   1.6918799e+01   2.1294351e+01   2.0419240e+00   1.8377316e+01  -4.0838481e+00  -5.2506618e+00   5.6298763e+01   3.2670785e+01   1.8377316e+01   1.9835834e+01   1.6627096e+01   3.1212267e+01   1.6918799e+01   1.0501324e+01   1.6918799e+01   0.0000000e+00   0.0000000e+00   0.0000000e+00   0.0000000e+00
  -5.8340687e+00   1.3126655e+01   5.2506618e+00   2.8003530e+01  -2.9170343e+00   1.3126655e+01   1.9544130e+01   2.3336275e+00   1.3418358e+01  -6.1257721e+00  -6.7091790e+00   5.5423652e+01   2.6836716e+01   1.8669020e+01   1.8960723e+01   1.6335392e+01   2.8003530e+01   1.3126655e+01   7.2925859e+00   1.4293468e+01   0.0000000e+00   0.0000000e+00   0.0000000e+00   0.0000000e+00
  -6.7091790e+00   1.2251544e+01   4.3755515e+00   2.8586937e+01  -3.2087378e+00   1.1084730e+01   1.8669020e+01   2.9170343e+00   1.0501324e+01  -8.1676962e+00  -8.1676962e+00   5.3965135e+01   2.2461164e+01   1.9835834e+01   1.8669020e+01   1.6335392e+01   2.5669902e+01   1.0209620e+01   5.5423652e+00   1.2543248e+01   0.0000000e+00   0.0000000e+00   0.0000000e+00   0.0000000e+00
  -6.4174756e+00   1.3126655e+01   4.0838481e+00   3.0628861e+01  -2.0419240e+00   1.1668137e+01   1.8960723e+01   3.7921446e+00   9.9179168e+00  -9.9179168e+00  -8.1676962e+00   5.1923211e+01   2.0419240e+01   2.0419240e+01   1.9252427e+01   1.6043689e+01   2.5086495e+01   8.7511030e+00   5.2506618e+00   1.1668137e+01   0.0000000e+00   0.0000000e+00   0.0000000e+00   0.0000000e+00
  -5.2506618e+00   1.5460282e+01   4.6672549e+00   3.3837598e+01  -8.7511030e-01   1.4876875e+01   2.0710944e+01   5.2506618e+00   1.1084730e+01  -1.0793027e+01  -7.5842893e+00   4.9589584e+01   2.1586054e+01   2.0127537e+01   2.0127537e+01   1.5751985e+01   2.5669902e+01   9.0428065e+00   7.0008824e+00   1.2834951e+01   0.0000000e+00   0.0000000e+00   0.0000000e+00   0.0000000e+00
  -3.5004412e+00   1.8377316e+01   5.8340687e+00   3.9088260e+01  -1.4585172e+00   1.8960723e+01   2.3336275e+01   7.8759927e+00   1.2834951e+01  -1.1376434e+01  -6.1257721e+00   4.6672549e+01   2.4794792e+01   1.8960723e+01   2.0710944e+01   1.5168579e+01   2.6836716e+01   1.0793027e+01   9.3345099e+00   1.4585172e+01   0.0000000e+00   0.0000000e+00   0.0000000e+00   0.0000000e+00
  -1.4585172e+00   2.1586054e+01   7.8759927e+00   4.7255956e+01  -3.7921446e+00   2.1877758e+01   2.6253309e+01   1.1084730e+01   1.2834951e+01  -1.1376434e+01  -5.2506618e+00   4.3755515e+01   2.9462047e+01   1.7210503e+01   2.1002647e+01   1.3710061e+01   2.8003530e+01   1.3126655e+01   1.1959841e+01   1.7210503e+01   0.0000000e+00   0.0000000e+00   0.0000000e+00   0.0000000e+00
   2.9170343e-01   2.3627978e+01   9.0428065e+00   5.6882170e+01  -6.7091790e+00   2.2461164e+01   2.8003530e+01   1.3418358e+01   9.6262133e+00  -1.0793027e+01  -5.5423652e+00   4.1130184e+01   3.3254191e+01   1.5168579e+01   2.0419240e+01   1.1376434e+01   2.7711826e+01   1.4876875e+01   1.2834951e+01   1.8377316e+01   0.0000000e+00   0.0000000e+00   0.0000000e+00   0.0000000e+00
   1.1668137e+00   2.4211385e+01   9.6262133e+00   6.5924976e+01  -8.4593996e+00   2.1294351e+01   2.8295233e+01   1.5460282e+01   3.7921446e+00  -9.0428065e+00  -6.7091790e+00   3.9963370e+01   3.5296116e+01   1.4293468e+01   1.9544130e+01   9.0428065e+00   2.6836716e+01   1.5168579e+01   1.2251544e+01   1.8377316e+01   0.0000000e+00   0.0000000e+00   0.0000000e+00   0.0000000e+00
   0.0000000e+00   2.2169461e+01   8.4593996e+00   7.0883935e+01  -8.7511030e+00   1.8085613e+01   2.6253309e+01   1.5751985e+01  -3.7921446e+00  -8.4593996e+00  -9.3345099e+00   3.9088260e+01   3.3254191e+01   1.3418358e+01   1.7210503e+01   7.0008824e+00   2.3919682e+01   1.2834951e+01   8.7511030e+00   1.6627096e+01   0.0000000e+00   0.0000000e+00   0.0000000e+00   0.0000000e+00
  -2.3336275e+00   1.8669020e+01   6.4174756e+00   7.0883935e+01  -7.2925859e+00   1.4876875e+01   2.3919682e+01   1.6335392e+01  -9.9179168e+00  -9.0428065e+00  -1.1668137e+01   3.9963370e+01   2.9170343e+01   1.3126655e+01   1.5168579e+01   6.7091790e+00   2.1294351e+01   9.3345099e+00   4.6672549e+00   1.4293468e+01   0.0000000e+00   0.0000000e+00   0.0000000e+00   0.0000000e+00
  -5.2506618e+00   1.4001765e+01   4.0838481e+00   6.7091790e+01  -6.1257721e+00   1.2251544e+01   2.1586054e+01   1.7210503e+01  -1.3710061e+01  -1.1668137e+01  -1.4001765e+01   4.2005295e+01   2.3336275e+01   1.2543248e+01   1.3418358e+01   7.2925859e+00   1.8669020e+01   4.9589584e+00   0.0000000e+00   1.1668137e+01   0.0000000e+00   0.0000000e+00   0.0000000e+00   0.0000000e+00
  -6.4174756e+00   1.1084730e+01   3.2087378e+00   6.2716238e+01  -5.2506618e+00   1.1959841e+01   2.1002647e+01   1.9544130e+01  -1.3126655e+01  -1.4585172e+01  -1.4293468e+01   4.6089143e+01   1.9544130e+01   1.2834951e+01   1.2543248e+01   9.9179168e+00   1.8085613e+01   2.0419240e+00  -2.6253309e+00   1.1084730e+01   0.0000000e+00   0.0000000e+00   0.0000000e+00   0.0000000e+00
  -4.9589584e+00   1.1376434e+01   5.2506618e+00   5.9507501e+01  -4.9589584e+00   1.4293468e+01   2.2461164e+01   2.2752868e+01  -9.0428065e+00  -1.6043689e+01  -1.2251544e+01   5.2506618e+01   1.9252427e+01   1.3126655e+01   1.3126655e+01   1.3418358e+01   2.0127537e+01   1.7502206e+00  -2.0419240e+00   1.2834951e+01   0.0000000e+00   0.0000000e+00   0.0000000e+00   0.0000000e+00
  -2.9170343e-01   1.6043689e+01   1.0793027e+01   5.8340687e+01  -3.5004412e+00   1.8669020e+01   2.5378199e+01   2.5669902e+01  -2.3336275e+00  -1.5168579e+01  -8.7511030e+00   6.0090907e+01   2.2752868e+01   1.3710061e+01   1.4876875e+01   1.7793909e+01   2.4211385e+01   4.3755515e+00   1.1668137e+00   1.6627096e+01   0.0000000e+00   0.0000000e+00   0.0000000e+00   0.0000000e+00
   4.9589584e+00   2.3044571e+01   1.7210503e+01   5.7465577e+01  -1.7502206e+00   2.3627978e+01   2.8295233e+01   2.6545013e+01   4.0838481e+00  -1.2834951e+01  -4.6672549e+00   6.6800086e+01   2.8586937e+01   1.3126655e+01   1.6627096e+01   2.1294351e+01   2.8295233e+01   8.4593996e+00   5.2506618e+00   2.1002647e+01   0.0000000e+00   0.0000000e+00   0.0000000e+00   0.0000000e+00
   9.6262133e+00   3.0045454e+01   2.2752868e+01   5.5131949e+01   0.0000000e+00   2.7420123e+01   3.0045454e+01   2.5669902e+01   9.3345099e+00  -1.0209620e+01  -1.1668137e+00   7.0300528e+01   3.3837598e+01   1.1376434e+01   1.7502206e+01   2.3627978e+01   3.1503971e+01   1.2251544e+01   8.4593996e+00   2.5086495e+01   0.0000000e+00   0.0000000e+00   0.0000000e+00   0.0000000e+00
   1.1668137e+01   3.2962488e+01   2.2169461e+01   4.8714474e+01   0.0000000e+00   2.8003530e+01   2.8586937e+01   2.1002647e+01   1.0793027e+01  -9.6262133e+00  -5.8340687e-01   6.8842010e+01   3.5004412e+01   7.8759927e+00   1.6043689e+01   2.3627978e+01   3.1212267e+01   1.3418358e+01   8.4593996e+00   2.5961606e+01   0.0000000e+00   0.0000000e+00   0.0000000e+00   0.0000000e+00
   9.3345099e+00   2.8586937e+01   1.2543248e+01   3.8796557e+01  -3.7921446e+00   2.3336275e+01   2.3336275e+01   1.2251544e+01   8.1676962e+00  -1.2251544e+01  -3.5004412e+00   6.2716238e+01   3.0920564e+01   3.2087378e+00   1.1959841e+01   2.0419240e+01   2.7128419e+01   1.0209620e+01   4.0838481e+00   2.2169461e+01   0.0000000e+00   0.0000000e+00   0.0000000e+00   0.0000000e+00
   3.5004412e+00   1.6627096e+01  -5.2506618e+00   2.8003530e+01  -1.0793027e+01   1.4001765e+01   1.4293468e+01   0.0000000e+00   2.6253309e+00  -1.7210503e+01  -1.0209620e+01   5.4548542e+01   2.1877758e+01  -2.3336275e+00   5.5423652e+00   1.4585172e+01   1.9544130e+01   2.9170343e+00  -4.0838481e+00   1.3710061e+01   0.0000000e+00   0.0000000e+00   0.0000000e+00   0.0000000e+00
  -4.0838481e+00   1.4585172e+00  -2.5086495e+01   2.0710944e+01  -1.7210503e+01   3.7921446e+00   4.9589584e+00  -1.1376434e+01  -2.3336275e+00  -2.1586054e+01  -1.6627096e+01   4.7839363e+01   1.1959841e+01  -6.1257721e+00  -5.8340687e-01   7.5842893e+00   1.1668137e+01  -4.9589584e+00  -1.2834951e+01   3.2087378e+00   0.0000000e+00   0.0000000e+00   0.0000000e+00   0.0000000e+00
  -9.6262133e+00  -1.1084730e+01  -3.9088260e+01   2.0127537e+01  -1.9544130e+01  -3.7921446e+00  -1.4585172e+00  -1.7502206e+01  -4.3755515e+00  -2.2169461e+01  -2.0710944e+01   4.4630625e+01   4.3755515e+00  -6.7091790e+00  -3.7921446e+00   2.3336275e+00   6.4174756e+00  -1.0793027e+01  -1.9252427e+01  -5.5423652e+00   0.0000000e+00   0.0000000e+00   0.0000000e+00   0.0000000e+00
  -1.0793027e+01  -1.4876875e+01  -4.0255074e+01   2.6836716e+01  -1.5460282e+01  -5.5423652e+00  -1.7502206e+00  -1.4293468e+01  -2.0419240e+00  -1.8085613e+01  -1.9835834e+01   4.5214032e+01   2.6253309e+00  -3.5004412e+00  -2.3336275e+00   1.1668137e+00   6.4174756e+00  -1.1376434e+01  -1.9835834e+01  -8.1676962e+00   0.0000000e+00   0.0000000e+00   0.0000000e+00   0.0000000e+00
  -5.8340687e+00  -6.4174756e+00  -2.6253309e+01   3.9963370e+01  -4.6672549e+00   2.9170343e-01   5.2506618e+00  -1.4585172e+00   4.3755515e+00  -9.0428065e+00  -1.3418358e+01   4.8131067e+01   7.5842893e+00   2.9170343e+00   3.7921446e+00   5.5423652e+00   1.2251544e+01  -5.5423652e+00  -1.4585172e+01  -2.9170343e+00   0.0000000e+00   0.0000000e+00   0.0000000e+00   0.0000000e+00
   2.9170343e+00   1.1959841e+01  -2.0419240e+00   5.4548542e+01   8.7511030e+00   1.1376434e+01   1.7502206e+01   1.6335392e+01   1.3418358e+01   2.0419240e+00  -4.0838481e+00   5.1631508e+01   1.7502206e+01   1.0501324e+01   1.2251544e+01   1.4001765e+01   2.1586054e+01   4.0838481e+00  -4.6672549e+00   8.7511030e+00   0.0000000e+00   0.0000000e+00   0.0000000e+00   0.0000000e+00
