nt = 4200
nc = 24
channels = F7 T3 T5 Fp1 F3 C3 P3 O1 F8 T4 T6 Fp2 F4 C4 P4 O2 Fz Cz Pz Oz TR SOn Occ RAp
ne = 20
type = B
fsmp = 600.0000000000
orig.file = s5_bl1-2
orig.nt = 555755
orig.sample_range = 73856 78055
orig.fsmp = 600
orig.subject = 5
orig.run = 14
   4.6473103e+01   1.7015742e+01   1.4820163e+01   1.2606287e+02   3.8056714e+01   2.1406902e+01   3.5312240e+01   1.2258653e+01   3.0006255e+01   1.8113532e+01   1.6466847e+01   1.1343828e+02   4.5192348e+01   2.3602481e+01   1.9028357e+01   6.4037740e+00   4.3179733e+01   2.0309112e+01   2.6346956e+01   1.2807548e+01   0.0000000e+00   0.0000000e+00   0.0000000e+00   0.0000000e+00
   3.9520434e+01   1.4088303e+01   1.1892723e+01   1.2606287e+02   3.6592994e+01   1.9943182e+01   2.7993641e+01   8.5993537e+00   2.8359571e+01   1.7381672e+01   1.1526793e+01   1.1398718e+02   4.3545663e+01   2.1955797e+01   1.7381672e+01   5.4889492e+00   3.9520434e+01   1.6466847e+01   2.4334341e+01   1.0611968e+01   0.0000000e+00   0.0000000e+00   0.0000000e+00   0.0000000e+00
   3.2567765e+01   1.1343828e+01   9.3312136e+00   1.2587990e+02   3.5495205e+01   1.8662427e+01   2.1589867e+01   5.3059842e+00   2.7261781e+01   1.7564637e+01   6.7697040e+00   1.1398718e+02   4.2447874e+01   2.0858007e+01   1.5734988e+01   4.5741243e+00   3.7141889e+01   1.2441618e+01   2.2687657e+01   8.7823187e+00   0.0000000e+00   0.0000000e+00   0.0000000e+00   0.0000000e+00
   2.8542536e+01   1.0429003e+01   8.2334237e+00   1.2587990e+02   3.4763345e+01   1.8479462e+01   1.8845392e+01   3.8422644e+00   2.7444746e+01   1.8479462e+01   4.3911593e+00   1.1398718e+02   4.2081944e+01   2.0858007e+01   1.5186093e+01   4.3911593e+00   3.7141889e+01   1.0246038e+01   2.2321727e+01   8.0504588e+00   0.0000000e+00   0.0000000e+00   0.0000000e+00   0.0000000e+00
   2.8359571e+01   1.1160863e+01   9.1482486e+00   1.2587990e+02   3.4397415e+01   1.8845392e+01   2.0675042e+01   4.5741243e+00   2.8542536e+01   2.0126147e+01   4.9400542e+00   1.1380421e+02   4.2813803e+01   2.1955797e+01   1.5917953e+01   4.7570893e+00   3.9154504e+01   1.0063073e+01   2.3419516e+01   8.5993537e+00   0.0000000e+00   0.0000000e+00   0.0000000e+00   0.0000000e+00
   3.2018870e+01   1.3173478e+01   1.1526793e+01   1.2533101e+02   3.4031485e+01   1.9760217e+01   2.6346956e+01   6.9526689e+00   3.0372185e+01   2.1223937e+01   8.4163887e+00   1.1362125e+02   4.4094558e+01   2.3602481e+01   1.7198707e+01   5.6719141e+00   4.2264909e+01   1.2258653e+01   2.4883236e+01   1.0063073e+01   0.0000000e+00   0.0000000e+00   0.0000000e+00   0.0000000e+00
   3.7873749e+01   1.5552023e+01   1.4637198e+01   1.2496508e+02   3.3848520e+01   2.0675042e+01   3.3665555e+01   1.0429003e+01   3.2933695e+01   2.2321727e+01   1.3173478e+01   1.1380421e+02   4.5741243e+01   2.5249166e+01   1.9028357e+01   6.5867390e+00   4.5558278e+01   1.5552023e+01   2.6529921e+01   1.1526793e+01   0.0000000e+00   0.0000000e+00   0.0000000e+00   0.0000000e+00
   4.4094558e+01   1.7381672e+01   1.7381672e+01   1.2459915e+02   3.3482590e+01   2.1406902e+01   4.0069329e+01   1.3356443e+01   3.5495205e+01   2.2870622e+01   1.7747602e+01   1.1398718e+02   4.7021998e+01   2.6346956e+01   2.0309112e+01   7.1356339e+00   4.7570893e+01   1.8845392e+01   2.7261781e+01   1.2624583e+01   0.0000000e+00   0.0000000e+00   0.0000000e+00   0.0000000e+00
   4.7753858e+01   1.7564637e+01   1.8296497e+01   1.2423322e+02   3.2933695e+01   2.1040972e+01   4.2630839e+01   1.4454233e+01   3.7507819e+01   2.2870622e+01   1.9760217e+01   1.1380421e+02   4.7570893e+01   2.6346956e+01   2.0492077e+01   6.9526689e+00   4.7753858e+01   2.0858007e+01   2.6712886e+01   1.2441618e+01   0.0000000e+00   0.0000000e+00   0.0000000e+00   0.0000000e+00
   4.8302753e+01   1.6649812e+01   1.7564637e+01   1.2441618e+02   3.2567765e+01   2.0309112e+01   4.1167119e+01   1.3722373e+01   3.8788574e+01   2.2687657e+01   1.9394287e+01   1.1362125e+02   4.7021998e+01   2.5432131e+01   1.9577252e+01   6.2208091e+00   4.6107173e+01   2.1040972e+01   2.5066201e+01   1.1343828e+01   0.0000000e+00   0.0000000e+00   0.0000000e+00   0.0000000e+00
   4.5192348e+01   1.4271268e+01   1.5186093e+01   1.2459915e+02   3.2201835e+01   1.9028357e+01   3.5129275e+01   1.1160863e+01   3.8971539e+01   2.1772832e+01   1.6100918e+01   1.1362125e+02   4.5375313e+01   2.3419516e+01   1.7747602e+01   5.1230192e+00   4.2996768e+01   1.9211322e+01   2.2138762e+01   9.3312136e+00   0.0000000e+00   0.0000000e+00   0.0000000e+00   0.0000000e+00
   3.9886364e+01   1.1526793e+01   1.1892723e+01   1.2496508e+02   3.1835905e+01   1.7747602e+01   2.7627711e+01   7.6845288e+00   3.8239679e+01   2.0492077e+01   1.1526793e+01   1.1380421e+02   4.3545663e+01   2.1406902e+01   1.5734988e+01   4.0252294e+00   3.9886364e+01   1.6283883e+01   1.9394287e+01   7.1356339e+00   0.0000000e+00   0.0000000e+00   0.0000000e+00   0.0000000e+00
   3.4031485e+01   9.3312136e+00   8.9652836e+00   1.2514804e+02   3.2018870e+01   1.6832777e+01   2.0675042e+01   4.5741243e+00   3.6775959e+01   1.9028357e+01   6.9526689e+00   1.1435311e+02   4.1533049e+01   1.9577252e+01   1.3722373e+01   3.1104045e+00   3.7873749e+01   1.3539408e+01   1.7198707e+01   5.1230192e+00   0.0000000e+00   0.0000000e+00   0.0000000e+00   0.0000000e+00
   3.0738115e+01   8.5993537e+00   7.5015639e+00   1.2551397e+02   3.2933695e+01   1.6649812e+01   1.7198707e+01   3.1104045e+00   3.5129275e+01   1.8479462e+01   4.5741243e+00   1.1471904e+02   4.0801189e+01   1.9028357e+01   1.2624583e+01   2.7444746e+00   3.7873749e+01   1.2258653e+01   1.6283883e+01   4.3911593e+00   0.0000000e+00   0.0000000e+00   0.0000000e+00   0.0000000e+00
   3.0372185e+01   9.1482486e+00   7.6845288e+00   1.2569694e+02   3.4214450e+01   1.7198707e+01   1.7747602e+01   3.6592994e+00   3.3665555e+01   1.8662427e+01   4.7570893e+00   1.1417014e+02   4.1167119e+01   1.9211322e+01   1.2258653e+01   2.7444746e+00   3.9886364e+01   1.2807548e+01   1.6466847e+01   4.5741243e+00   0.0000000e+00   0.0000000e+00   0.0000000e+00   0.0000000e+00
   3.4214450e+01   1.1160863e+01   9.6971435e+00   1.2587990e+02   3.6044100e+01   1.8113532e+01   2.2321727e+01   6.0378441e+00   3.3299625e+01   1.9943182e+01   7.6845288e+00   1.1270642e+02   4.2630839e+01   2.0309112e+01   1.2990513e+01   3.4763345e+00   4.3545663e+01   1.5186093e+01   1.7747602e+01   5.8548791e+00   0.0000000e+00   0.0000000e+00   0.0000000e+00   0.0000000e+00
   4.0252294e+01   1.3722373e+01   1.2258653e+01   1.2587990e+02   3.7873749e+01   1.9028357e+01   2.8542536e+01   9.1482486e+00   3.3665555e+01   2.1040972e+01   1.2258653e+01   1.1069381e+02   4.4460488e+01   2.1589867e+01   1.3905338e+01   4.3911593e+00   4.7387928e+01   1.8479462e+01   1.9028357e+01   7.3185989e+00   0.0000000e+00   0.0000000e+00   0.0000000e+00   0.0000000e+00
   4.6839033e+01   1.5917953e+01   1.4637198e+01   1.2569694e+02   3.9154504e+01   1.9394287e+01   3.3848520e+01   1.2075688e+01   3.4397415e+01   2.1223937e+01   1.6466847e+01   1.0868119e+02   4.5924208e+01   2.2504692e+01   1.4454233e+01   4.9400542e+00   4.9766472e+01   2.1589867e+01   1.9577252e+01   8.5993537e+00   0.0000000e+00   0.0000000e+00   0.0000000e+00   0.0000000e+00
   5.0864262e+01   1.6832777e+01   1.5186093e+01   1.2533101e+02   3.9520434e+01   1.8479462e+01   3.5495205e+01   1.2990513e+01   3.4397415e+01   2.0126147e+01   1.8479462e+01   1.0721747e+02   4.5924208e+01   2.2321727e+01   1.4088303e+01   4.7570893e+00   4.9400542e+01   2.3053586e+01   1.8662427e+01   8.2334237e+00   0.0000000e+00   0.0000000e+00   0.0000000e+00   0.0000000e+00
   5.1413157e+01   1.6466847e+01   1.4271268e+01   1.2514804e+02   3.9337469e+01   1.7198707e+01   3.2750730e+01   1.2258653e+01   3.3116660e+01   1.8113532e+01   1.7930567e+01   1.0666858e+02   4.5192348e+01   2.1406902e+01   1.2624583e+01   4.0252294e+00   4.7204963e+01   2.2687657e+01   1.6649812e+01   6.9526689e+00   0.0000000e+00   0.0000000e+00   0.0000000e+00   0.0000000e+00
   4.7936823e+01   1.4454233e+01   1.1160863e+01   1.2478211e+02   3.8788574e+01   1.5186093e+01   2.5615096e+01   8.9652836e+00   3.0555150e+01   1.5552023e+01   1.4271268e+01   1.0666858e+02   4.3179733e+01   1.9760217e+01   1.0063073e+01   2.7444746e+00   4.3179733e+01   1.9943182e+01   1.3356443e+01   4.2081944e+00   0.0000000e+00   0.0000000e+00   0.0000000e+00   0.0000000e+00
   4.2081944e+01   1.2075688e+01   7.5015639e+00   1.2496508e+02   3.8239679e+01   1.3356443e+01   1.6649812e+01   4.7570893e+00   2.7810676e+01   1.3905338e+01   9.1482486e+00   1.0721747e+02   4.1167119e+01   1.8113532e+01   7.3185989e+00   1.2807548e+00   3.9337469e+01   1.5917953e+01   1.0246038e+01   1.2807548e+00   0.0000000e+00   0.0000000e+00   0.0000000e+00   0.0000000e+00
   3.6227064e+01   1.0246038e+01   4.2081944e+00   1.2551397e+02   3.8422644e+01   1.2441618e+01   8.7823187e+00   1.0977898e+00   2.5798061e+01   1.3539408e+01   4.5741243e+00   1.0794933e+02   3.9703399e+01   1.7015742e+01   4.9400542e+00   0.0000000e+00   3.7141889e+01   1.2258653e+01   8.2334237e+00  -1.2807548e+00   0.0000000e+00   0.0000000e+00   0.0000000e+00   0.0000000e+00
   3.2933695e+01   9.8801085e+00   2.5615096e+00   1.2642880e+02   3.9154504e+01   1.2624583e+01   4.7570893e+00  -9.1482486e-01   2.5615096e+01   1.3905338e+01   1.8296497e+00   1.0849823e+02   3.9337469e+01   1.6832777e+01   3.6592994e+00  -5.4889492e-01   3.7324854e+01   1.0063073e+01   7.6845288e+00  -2.5615096e+00   0.0000000e+00   0.0000000e+00   0.0000000e+00   0.0000000e+00
   3.3116660e+01   1.1160863e+01   2.7444746e+00   1.2734362e+02   4.0435259e+01   1.3905338e+01   5.1230192e+00  -9.1482486e-01   2.6712886e+01   1.4454233e+01   2.0126147e+00   1.0886416e+02   4.0252294e+01   1.7747602e+01   3.6592994e+00  -7.3185989e-01   4.0069329e+01   9.8801085e+00   8.4163887e+00  -2.7444746e+00   0.0000000e+00   0.0000000e+00   0.0000000e+00   0.0000000e+00
   3.7324854e+01   1.4088303e+01   5.3059842e+00   1.2807548e+02   4.1898979e+01   1.6100918e+01   1.0063073e+01   1.4637198e+00   2.8725501e+01   1.5186093e+01   5.1230192e+00   1.0923009e+02   4.2447874e+01   1.9577252e+01   4.7570893e+00  -1.8296497e-01   4.4460488e+01   1.1892723e+01   1.0611968e+01  -1.4637198e+00   0.0000000e+00   0.0000000e+00   0.0000000e+00   0.0000000e+00
   4.4094558e+01   1.7747602e+01   8.4163887e+00   1.2880734e+02   4.3179733e+01   1.8296497e+01   1.7198707e+01   4.7570893e+00   3.0738115e+01   1.6100918e+01   9.6971435e+00   1.0941305e+02   4.5192348e+01   2.1589867e+01   6.5867390e+00   5.4889492e-01   4.8668683e+01   1.5369058e+01   1.2990513e+01   3.6592994e-01   0.0000000e+00   0.0000000e+00   0.0000000e+00   0.0000000e+00
   5.1047227e+01   2.1040972e+01   1.1526793e+01   1.2899031e+02   4.3911593e+01   2.0126147e+01   2.3785446e+01   7.6845288e+00   3.1835905e+01   1.7015742e+01   1.3722373e+01   1.0977898e+02   4.7387928e+01   2.2870622e+01   8.0504588e+00   9.1482486e-01   5.1779087e+01   1.8845392e+01   1.4820163e+01   1.6466847e+00   0.0000000e+00   0.0000000e+00   0.0000000e+00   0.0000000e+00
   5.5804317e+01   2.3053586e+01   1.2990513e+01   1.2899031e+02   4.4277523e+01   2.0858007e+01   2.6895851e+01   8.9652836e+00   3.2201835e+01   1.8113532e+01   1.5734988e+01   1.1069381e+02   4.8851648e+01   2.3236551e+01   8.7823187e+00   7.3185989e-01   5.2693912e+01   2.1040972e+01   1.5369058e+01   2.0126147e+00   0.0000000e+00   0.0000000e+00   0.0000000e+00   0.0000000e+00
   5.7268036e+01   2.3419516e+01   1.2990513e+01   1.2899031e+02   4.4277523e+01   2.0858007e+01   2.6163991e+01   8.4163887e+00   3.1652940e+01   1.9028357e+01   1.4820163e+01   1.1215753e+02   4.9217578e+01   2.2870622e+01   8.5993537e+00   1.8296497e-01   5.1596122e+01   2.1406902e+01   1.4820163e+01   1.0977898e+00   0.0000000e+00   0.0000000e+00   0.0000000e+00   0.0000000e+00
   5.5072457e+01   2.2504692e+01   1.1343828e+01   1.2899031e+02   4.3911593e+01   2.0309112e+01   2.1589867e+01   6.0378441e+00   3.0555150e+01   1.9028357e+01   1.1526793e+01   1.1417014e+02   4.8668683e+01   2.1772832e+01   7.5015639e+00  -7.3185989e-01   4.9400542e+01   1.9943182e+01   1.3356443e+01  -5.4889492e-01   0.0000000e+00   0.0000000e+00   0.0000000e+00   0.0000000e+00
   5.0681297e+01   2.1040972e+01   9.1482486e+00   1.2899031e+02   4.3545663e+01   1.9760217e+01   1.5734988e+01   2.9274396e+00   2.9640325e+01   1.7930567e+01   7.1356339e+00   1.1581683e+02   4.7936823e+01   2.0675042e+01   6.0378441e+00  -2.0126147e+00   4.7021998e+01   1.7564637e+01   1.2075688e+01  -2.3785446e+00   0.0000000e+00   0.0000000e+00   0.0000000e+00   0.0000000e+00
   4.6107173e+01   1.9943182e+01   7.3185989e+00   1.2917327e+02   4.3179733e+01   1.9577252e+01   1.0977898e+01   5.4889492e-01   2.9091431e+01   1.6100918e+01   3.2933695e+00   1.1728055e+02   4.7387928e+01   2.0126147e+01   5.3059842e+00  -2.9274396e+00   4.5558278e+01   1.5552023e+01   1.1526793e+01  -3.8422644e+00   0.0000000e+00   0.0000000e+00   0.0000000e+00   0.0000000e+00
   4.3179733e+01   1.9760217e+01   6.7697040e+00   1.2935624e+02   4.3362698e+01   2.0309112e+01   9.3312136e+00  -3.6592994e-01   2.9457361e+01   1.4454233e+01   1.2807548e+00   1.1819537e+02   4.7936823e+01   2.0675042e+01   5.4889492e+00  -3.1104045e+00   4.5924208e+01   1.4637198e+01   1.2258653e+01  -3.8422644e+00   0.0000000e+00   0.0000000e+00   0.0000000e+00   0.0000000e+00
   4.2813803e+01   2.0492077e+01   7.5015639e+00   1.2917327e+02   4.3545663e+01   2.1589867e+01   1.0977898e+01   3.6592994e-01   3.0189220e+01   1.3356443e+01   1.4637198e+00   1.1837834e+02   4.8851648e+01   2.1772832e+01   6.2208091e+00  -2.9274396e+00   4.7387928e+01   1.5186093e+01   1.3905338e+01  -3.1104045e+00   0.0000000e+00   0.0000000e+00   0.0000000e+00   0.0000000e+00
   4.5375313e+01   2.2138762e+01   9.5141786e+00   1.2899031e+02   4.4094558e+01   2.3236551e+01   1.5734988e+01   2.7444746e+00   3.1652940e+01   1.3539408e+01   4.0252294e+00   1.1819537e+02   5.0315367e+01   2.3602481e+01   8.0504588e+00  -2.1955797e+00   5.0315367e+01   1.7198707e+01   1.6283883e+01  -1.0977898e+00   0.0000000e+00   0.0000000e+00   0.0000000e+00   0.0000000e+00
   4.9766472e+01   2.4151376e+01   1.2258653e+01   1.2880734e+02   4.4643453e+01   2.4883236e+01   2.1955797e+01   5.8548791e+00   3.3116660e+01   1.4088303e+01   7.8674938e+00   1.1782944e+02   5.1962052e+01   2.5615096e+01   1.0246038e+01  -9.1482486e-01   5.3059842e+01   1.9943182e+01   1.8662427e+01   1.0977898e+00   0.0000000e+00   0.0000000e+00   0.0000000e+00   0.0000000e+00
   5.4157632e+01   2.5615096e+01   1.4454233e+01   1.2825845e+02   4.4643453e+01   2.5798061e+01   2.7444746e+01   8.5993537e+00   3.4214450e+01   1.4271268e+01   1.1343828e+01   1.1709758e+02   5.2876877e+01   2.6895851e+01   1.1892723e+01   0.0000000e+00   5.4706527e+01   2.2321727e+01   2.0492077e+01   2.9274396e+00   0.0000000e+00   0.0000000e+00   0.0000000e+00   0.0000000e+00
   5.7085071e+01   2.6163991e+01   1.5917953e+01   1.2825845e+02   4.4643453e+01   2.6163991e+01   3.0555150e+01   1.0429003e+01   3.4763345e+01   1.4454233e+01   1.3722373e+01   1.1691462e+02   5.3242807e+01   2.7810676e+01   1.3356443e+01   1.0977898e+00   5.4706527e+01   2.3785446e+01   2.1589867e+01   4.0252294e+00   0.0000000e+00   0.0000000e+00   0.0000000e+00   0.0000000e+00
   5.6719141e+01   2.5066201e+01   1.5552023e+01   1.2789252e+02   4.3728628e+01   2.5432131e+01   3.0006255e+01   1.0246038e+01   3.4031485e+01   1.3905338e+01   1.3539408e+01   1.1728055e+02   5.2327982e+01   2.7444746e+01   1.3539408e+01   1.0977898e+00   5.2876877e+01   2.3236551e+01   2.1223937e+01   3.8422644e+00   0.0000000e+00   0.0000000e+00   0.0000000e+00   0.0000000e+00
   5.2876877e+01   2.2687657e+01   1.3722373e+01   1.2770955e+02   4.2447874e+01   2.4151376e+01   2.5981026e+01   8.2334237e+00   3.2384800e+01   1.3539408e+01   1.0794933e+01   1.1837834e+02   5.0498332e+01   2.6346956e+01   1.2990513e+01   7.3185989e-01   4.9400542e+01   2.0858007e+01   2.0309112e+01   2.7444746e+00   0.0000000e+00   0.0000000e+00   0.0000000e+00   0.0000000e+00
   4.7204963e+01   2.0126147e+01   1.1343828e+01   1.2752659e+02   4.1350084e+01   2.3053586e+01   2.0309112e+01   5.4889492e+00   3.0738115e+01   1.3539408e+01   7.1356339e+00   1.2002502e+02   4.8485718e+01   2.5249166e+01   1.2258653e+01   1.8296497e-01   4.6290138e+01   1.7747602e+01   1.9394287e+01   1.6466847e+00   0.0000000e+00   0.0000000e+00   0.0000000e+00   0.0000000e+00
   4.1533049e+01   1.8113532e+01   9.3312136e+00   1.2770955e+02   4.0801189e+01   2.2687657e+01   1.5369058e+01   3.1104045e+00   2.9640325e+01   1.3722373e+01   3.6592994e+00   1.2167171e+02   4.6839033e+01   2.4334341e+01   1.1892723e+01  -3.6592994e-01   4.4277523e+01   1.4637198e+01   1.9211322e+01   1.2807548e+00   0.0000000e+00   0.0000000e+00   0.0000000e+00   0.0000000e+00
   3.7507819e+01   1.7198707e+01   8.4163887e+00   1.2752659e+02   4.0801189e+01   2.3053586e+01   1.3356443e+01   2.0126147e+00   2.9091431e+01   1.4088303e+01   1.8296497e+00   1.2203764e+02   4.5741243e+01   2.4151376e+01   1.2075688e+01  -5.4889492e-01   4.4094558e+01   1.2807548e+01   1.9943182e+01   1.6466847e+00   0.0000000e+00   0.0000000e+00   0.0000000e+00   0.0000000e+00
   3.7141889e+01   1.7930567e+01   9.3312136e+00   1.2752659e+02   4.1716014e+01   2.4334341e+01   1.5734988e+01   2.9274396e+00   2.9274396e+01   1.5003128e+01   2.7444746e+00   1.2148874e+02   4.5741243e+01   2.4883236e+01   1.3356443e+01   0.0000000e+00   4.5924208e+01   1.2807548e+01   2.2138762e+01   3.4763345e+00   0.0000000e+00   0.0000000e+00   0.0000000e+00   0.0000000e+00
   4.0252294e+01   2.0126147e+01   1.1892723e+01   1.2752659e+02   4.2813803e+01   2.6163991e+01   2.2870622e+01   5.8548791e+00   3.0189220e+01   1.6283883e+01   6.4037740e+00   1.1965909e+02   4.6473103e+01   2.6346956e+01   1.5552023e+01   1.0977898e+00   4.9034613e+01   1.5003128e+01   2.5249166e+01   6.4037740e+00   0.0000000e+00   0.0000000e+00   0.0000000e+00   0.0000000e+00
   4.5924208e+01   2.2870622e+01   1.5186093e+01   1.2734362e+02   4.4094558e+01   2.7993641e+01   3.3116660e+01   9.6971435e+00   3.1287010e+01   1.7747602e+01   1.1343828e+01   1.1728055e+02   4.7570893e+01   2.8176606e+01   1.8296497e+01   2.5615096e+00   5.2327982e+01   1.8296497e+01   2.8542536e+01   9.6971435e+00   0.0000000e+00   0.0000000e+00   0.0000000e+00   0.0000000e+00
   5.2145017e+01   2.5249166e+01   1.8479462e+01   1.2716066e+02   4.5009383e+01   2.9457361e+01   4.3728628e+01   1.3722373e+01   3.2750730e+01   1.9394287e+01   1.6466847e+01   1.1471904e+02   4.8668683e+01   2.9640325e+01   2.0858007e+01   4.2081944e+00   5.4706527e+01   2.2138762e+01   3.1287010e+01   1.2624583e+01   0.0000000e+00   0.0000000e+00   0.0000000e+00   0.0000000e+00
   5.6353211e+01   2.6163991e+01   2.0309112e+01   1.2661176e+02   4.5192348e+01   2.9823290e+01   5.1596122e+01   1.6283883e+01   3.3665555e+01   1.9760217e+01   1.9760217e+01   1.1234049e+02   4.8851648e+01   3.0006255e+01   2.2504692e+01   5.3059842e+00   5.4889492e+01   2.4883236e+01   3.2567765e+01   1.4454233e+01   0.0000000e+00   0.0000000e+00   0.0000000e+00   0.0000000e+00
   5.7268036e+01   2.5615096e+01   2.0492077e+01   1.2587990e+02   4.4643453e+01   2.9274396e+01   5.4889492e+01   1.7015742e+01   3.4031485e+01   1.9028357e+01   2.0309112e+01   1.1051084e+02   4.8302753e+01   2.9274396e+01   2.2870622e+01   6.2208091e+00   5.3242807e+01   2.5615096e+01   3.2567765e+01   1.5003128e+01   0.0000000e+00   0.0000000e+00   0.0000000e+00   0.0000000e+00
   5.3974667e+01   2.3419516e+01   1.8662427e+01   1.2533101e+02   4.3362698e+01   2.7993641e+01   5.2145017e+01   1.5552023e+01   3.2933695e+01   1.7015742e+01   1.7747602e+01   1.0959602e+02   4.6839033e+01   2.7261781e+01   2.1955797e+01   6.4037740e+00   4.9583507e+01   2.3968411e+01   3.1104045e+01   1.4088303e+01   0.0000000e+00   0.0000000e+00   0.0000000e+00   0.0000000e+00
   4.7936823e+01   2.0126147e+01   1.5734988e+01   1.2459915e+02   4.1898979e+01   2.6529921e+01   4.5375313e+01   1.2807548e+01   3.0921080e+01   1.4820163e+01   1.3539408e+01   1.0904712e+02   4.5009383e+01   2.4883236e+01   2.0309112e+01   6.2208091e+00   4.5558278e+01   2.0675042e+01   2.9091431e+01   1.2624583e+01   0.0000000e+00   0.0000000e+00   0.0000000e+00   0.0000000e+00
   4.1167119e+01   1.7015742e+01   1.2990513e+01   1.2405025e+02   4.0618224e+01   2.5249166e+01   3.7507819e+01   1.0429003e+01   2.9274396e+01   1.3356443e+01   9.3312136e+00   1.0941305e+02   4.3545663e+01   2.3053586e+01   1.9028357e+01   6.0378441e+00   4.2447874e+01   1.7381672e+01   2.7627711e+01   1.1343828e+01   0.0000000e+00   0.0000000e+00   0.0000000e+00   0.0000000e+00
   3.6227064e+01   1.5003128e+01   1.1160863e+01   1.2368432e+02   3.9886364e+01   2.4517306e+01   3.1652940e+01   9.3312136e+00   2.8359571e+01   1.3356443e+01   7.1356339e+00   1.0959602e+02   4.2813803e+01   2.1955797e+01   1.8296497e+01   6.4037740e+00   4.1350084e+01   1.5003128e+01   2.7261781e+01   1.1160863e+01   0.0000000e+00   0.0000000e+00   0.0000000e+00   0.0000000e+00
   3.4946310e+01   1.4454233e+01   1.1160863e+01   1.2350136e+02   3.9703399e+01   2.4700271e+01   2.9823290e+01   1.0063073e+01   2.8725501e+01   1.4454233e+01   7.8674938e+00   1.0996195e+02   4.2996768e+01   2.2138762e+01   1.9028357e+01   7.1356339e+00   4.2447874e+01   1.4637198e+01   2.8176606e+01   1.2075688e+01   0.0000000e+00   0.0000000e+00   0.0000000e+00   0.0000000e+00
   3.7690784e+01   1.5552023e+01   1.2807548e+01   1.2331839e+02   4.0252294e+01   2.5249166e+01   3.2933695e+01   1.2807548e+01   3.0006255e+01   1.6100918e+01   1.1526793e+01   1.1014491e+02   4.4277523e+01   2.3419516e+01   2.0858007e+01   8.4163887e+00   4.5375313e+01   1.6466847e+01   3.0189220e+01   1.4088303e+01   0.0000000e+00   0.0000000e+00   0.0000000e+00   0.0000000e+00
   4.2813803e+01   1.7015742e+01   1.5003128e+01   1.2313543e+02   4.0618224e+01   2.5798061e+01   3.8605609e+01   1.6100918e+01   3.1287010e+01   1.7381672e+01   1.6283883e+01   1.0996195e+02   4.5558278e+01   2.4517306e+01   2.2870622e+01   9.5141786e+00   4.8302753e+01   1.9028357e+01   3.2018870e+01   1.6100918e+01   0.0000000e+00   0.0000000e+00   0.0000000e+00   0.0000000e+00
   4.8485718e+01   1.8479462e+01   1.7015742e+01   1.2295246e+02   4.0984154e+01   2.5798061e+01   4.4826418e+01   1.9028357e+01   3.1652940e+01   1.8296497e+01   2.0858007e+01   1.0977898e+02   4.6656068e+01   2.5249166e+01   2.4700271e+01   1.0246038e+01   5.0498332e+01   2.1772832e+01   3.2933695e+01   1.7747602e+01   0.0000000e+00   0.0000000e+00   0.0000000e+00   0.0000000e+00
   5.1962052e+01   1.8479462e+01   1.7381672e+01   1.2295246e+02   4.0801189e+01   2.5066201e+01   4.8485718e+01   2.0126147e+01   3.0738115e+01   1.9028357e+01   2.3419516e+01   1.0977898e+02   4.6656068e+01   2.5066201e+01   2.5615096e+01   1.0429003e+01   5.0498332e+01   2.3053586e+01   3.2567765e+01   1.8113532e+01   0.0000000e+00   0.0000000e+00   0.0000000e+00   0.0000000e+00
   5.2327982e+01   1.7198707e+01   1.5917953e+01   1.2295246e+02   4.0435259e+01   2.3785446e+01   4.7936823e+01   1.9211322e+01   2.9091431e+01   2.0126147e+01   2.3419516e+01   1.1014491e+02   4.5924208e+01   2.4334341e+01   2.5432131e+01   1.0246038e+01   4.8851648e+01   2.2504692e+01   3.0921080e+01   1.7381672e+01   0.0000000e+00   0.0000000e+00   0.0000000e+00   0.0000000e+00
   4.8302753e+01   1.4637198e+01   1.2807548e+01   1.2313543e+02   3.9520434e+01   2.1955797e+01   4.2630839e+01   1.6100918e+01   2.7261781e+01   2.0675042e+01   2.0126147e+01   1.1105974e+02   4.3911593e+01   2.2687657e+01   2.4151376e+01   9.3312136e+00   4.5558278e+01   1.9760217e+01   2.7993641e+01   1.5552023e+01   0.0000000e+00   0.0000000e+00   0.0000000e+00   0.0000000e+00
   4.1898979e+01   1.1343828e+01   8.7823187e+00   1.2313543e+02   3.8605609e+01   1.9943182e+01   3.4580380e+01   1.2258653e+01   2.5798061e+01   2.1040972e+01   1.5552023e+01   1.1197456e+02   4.1898979e+01   2.1040972e+01   2.2321727e+01   8.0504588e+00   4.2081944e+01   1.6100918e+01   2.4883236e+01   1.3173478e+01   0.0000000e+00   0.0000000e+00   0.0000000e+00   0.0000000e+00
   3.5495205e+01   8.7823187e+00   5.4889492e+00   1.2331839e+02   3.8239679e+01   1.8479462e+01   2.6895851e+01   8.7823187e+00   2.5615096e+01   2.1223937e+01   1.1343828e+01   1.1343828e+02   4.0435259e+01   1.9943182e+01   2.0858007e+01   7.3185989e+00   3.9886364e+01   1.2624583e+01   2.2687657e+01   1.1343828e+01   0.0000000e+00   0.0000000e+00   0.0000000e+00   0.0000000e+00
   3.1469975e+01   7.3185989e+00   3.4763345e+00   1.2331839e+02   3.8056714e+01   1.7747602e+01   2.1772832e+01   6.7697040e+00   2.6529921e+01   2.0492077e+01   9.3312136e+00   1.1471904e+02   3.9886364e+01   1.9760217e+01   1.9943182e+01   6.9526689e+00   3.9520434e+01   1.0429003e+01   2.1406902e+01   1.0246038e+01   0.0000000e+00   0.0000000e+00   0.0000000e+00   0.0000000e+00
   3.1104045e+01   7.5015639e+00   3.4763345e+00   1.2331839e+02   3.8239679e+01   1.7747602e+01   2.1223937e+01   6.9526689e+00   2.8542536e+01   1.9943182e+01   9.8801085e+00   1.1636572e+02   4.0252294e+01   2.0675042e+01   1.9943182e+01   6.9526689e+00   4.1350084e+01   1.0429003e+01   2.1589867e+01   1.0246038e+01   0.0000000e+00   0.0000000e+00   0.0000000e+00   0.0000000e+00
   3.4397415e+01   9.1482486e+00   4.9400542e+00   1.2331839e+02   3.8788574e+01   1.8113532e+01   2.4517306e+01   8.5993537e+00   3.0921080e+01   1.9577252e+01   1.3173478e+01   1.1819537e+02   4.1350084e+01   2.2138762e+01   2.0675042e+01   7.1356339e+00   4.4460488e+01   1.2075688e+01   2.2504692e+01   1.1160863e+01   0.0000000e+00   0.0000000e+00   0.0000000e+00   0.0000000e+00
   4.0252294e+01   1.1526793e+01   7.3185989e+00   1.2350136e+02   3.9520434e+01   1.8845392e+01   3.0006255e+01   1.1526793e+01   3.3665555e+01   1.9943182e+01   1.7747602e+01   1.2057392e+02   4.2996768e+01   2.3968411e+01   2.1955797e+01   7.5015639e+00   4.7936823e+01   1.5003128e+01   2.3785446e+01   1.2441618e+01   0.0000000e+00   0.0000000e+00   0.0000000e+00   0.0000000e+00
   4.6473103e+01   1.3722373e+01   9.5141786e+00   1.2386729e+02   4.0069329e+01   1.9394287e+01   3.5495205e+01   1.4271268e+01   3.5678170e+01   2.0492077e+01   2.2138762e+01   1.2276950e+02   4.4277523e+01   2.5432131e+01   2.3053586e+01   8.0504588e+00   5.0681297e+01   1.8296497e+01   2.4517306e+01   1.3539408e+01   0.0000000e+00   0.0000000e+00   0.0000000e+00   0.0000000e+00
   5.1047227e+01   1.5186093e+01   1.0794933e+01   1.2423322e+02   4.0252294e+01   1.9760217e+01   3.8971539e+01   1.5734988e+01   3.7141889e+01   2.0858007e+01   2.4883236e+01   1.2405025e+02   4.5009383e+01   2.6163991e+01   2.3602481e+01   8.0504588e+00   5.1779087e+01   2.0492077e+01   2.4334341e+01   1.3722373e+01   0.0000000e+00   0.0000000e+00   0.0000000e+00   0.0000000e+00
   5.3059842e+01   1.5552023e+01   1.0794933e+01   1.2478211e+02   4.0618224e+01   1.9760217e+01   3.9154504e+01   1.5917953e+01   3.7873749e+01   2.0675042e+01   2.5249166e+01   1.2386729e+02   4.5558278e+01   2.6346956e+01   2.3602481e+01   8.0504588e+00   5.1596122e+01   2.1589867e+01   2.3419516e+01   1.3173478e+01   0.0000000e+00   0.0000000e+00   0.0000000e+00   0.0000000e+00
   5.1596122e+01   1.4637198e+01   9.3312136e+00   1.2551397e+02   4.0618224e+01   1.9211322e+01   3.5312240e+01   1.4271268e+01   3.7873749e+01   1.9577252e+01   2.2687657e+01   1.2222060e+02   4.5375313e+01   2.5432131e+01   2.2504692e+01   7.3185989e+00   4.9949437e+01   2.0858007e+01   2.1223937e+01   1.1343828e+01   0.0000000e+00   0.0000000e+00   0.0000000e+00   0.0000000e+00
   4.7570893e+01   1.3173478e+01   7.1356339e+00   1.2642880e+02   4.0984154e+01   1.8662427e+01   2.8908466e+01   1.1526793e+01   3.7690784e+01   1.8296497e+01   1.8296497e+01   1.1984206e+02   4.5192348e+01   2.4334341e+01   2.0492077e+01   6.2208091e+00   4.7936823e+01   1.8845392e+01   1.8845392e+01   9.1482486e+00   0.0000000e+00   0.0000000e+00   0.0000000e+00   0.0000000e+00
   4.2630839e+01   1.1526793e+01   4.9400542e+00   1.2734362e+02   4.1533049e+01   1.8296497e+01   2.1955797e+01   8.4163887e+00   3.6958924e+01   1.7198707e+01   1.3356443e+01   1.1764648e+02   4.5009383e+01   2.3236551e+01   1.8296497e+01   5.1230192e+00   4.6656068e+01   1.6283883e+01   1.6832777e+01   6.7697040e+00   0.0000000e+00   0.0000000e+00   0.0000000e+00   0.0000000e+00
   3.9154504e+01   1.1160863e+01   4.0252294e+00   1.2844141e+02   4.2447874e+01   1.8845392e+01   1.7198707e+01   6.5867390e+00   3.6227064e+01   1.7198707e+01   9.6971435e+00   1.1581683e+02   4.5375313e+01   2.2870622e+01   1.6649812e+01   4.2081944e+00   4.7021998e+01   1.4454233e+01   1.5734988e+01   5.4889492e+00   0.0000000e+00   0.0000000e+00   0.0000000e+00   0.0000000e+00
   3.8422644e+01   1.2075688e+01   4.7570893e+00   1.2899031e+02   4.3362698e+01   2.0126147e+01   1.6466847e+01   6.5867390e+00   3.5495205e+01   1.7930567e+01   8.5993537e+00   1.1398718e+02   4.6107173e+01   2.3236551e+01   1.5917953e+01   4.0252294e+00   4.8851648e+01   1.4271268e+01   1.5734988e+01   5.1230192e+00   0.0000000e+00   0.0000000e+00   0.0000000e+00   0.0000000e+00
   4.1167119e+01   1.4637198e+01   7.5015639e+00   1.2917327e+02   4.4277523e+01   2.2138762e+01   1.9943182e+01   8.5993537e+00   3.5312240e+01   1.9211322e+01   1.0611968e+01   1.1197456e+02   4.7753858e+01   2.4517306e+01   1.6283883e+01   4.3911593e+00   5.1779087e+01   1.6100918e+01   1.7015742e+01   6.0378441e+00   0.0000000e+00   0.0000000e+00   0.0000000e+00   0.0000000e+00
   4.5741243e+01   1.7381672e+01   1.0611968e+01   1.2844141e+02   4.4277523e+01   2.3968411e+01   2.5249166e+01   1.1343828e+01   3.5129275e+01   1.9577252e+01   1.3722373e+01   1.0923009e+02   4.9217578e+01   2.5615096e+01   1.7015742e+01   4.7570893e+00   5.3974667e+01   1.8662427e+01   1.7930567e+01   7.1356339e+00   0.0000000e+00   0.0000000e+00   0.0000000e+00   0.0000000e+00
   5.0864262e+01   2.0126147e+01   1.3905338e+01   1.2734362e+02   4.3911593e+01   2.5432131e+01   3.0921080e+01   1.4088303e+01   3.4946310e+01   1.9760217e+01   1.7381672e+01   1.0648561e+02   5.0315367e+01   2.6529921e+01   1.7747602e+01   5.3059842e+00   5.5255422e+01   2.1406902e+01   1.8662427e+01   8.0504588e+00   0.0000000e+00   0.0000000e+00   0.0000000e+00   0.0000000e+00
   5.3608737e+01   2.1040972e+01   1.5186093e+01   1.2551397e+02   4.2447874e+01   2.5432131e+01   3.3299625e+01   1.5003128e+01   3.4214450e+01   1.9211322e+01   1.8845392e+01   1.0447300e+02   5.0315367e+01   2.6163991e+01   1.7381672e+01   4.9400542e+00   5.3974667e+01   2.2504692e+01   1.7930567e+01   7.6845288e+00   0.0000000e+00   0.0000000e+00   0.0000000e+00   0.0000000e+00
   5.3425772e+01   2.0675042e+01   1.5003128e+01   1.2405025e+02   4.0984154e+01   2.4700271e+01   3.1835905e+01   1.4271268e+01   3.3482590e+01   1.9394287e+01   1.7930567e+01   1.0410707e+02   4.9400542e+01   2.5066201e+01   1.6283883e+01   4.3911593e+00   5.1230192e+01   2.1955797e+01   1.6466847e+01   6.2208091e+00   0.0000000e+00   0.0000000e+00   0.0000000e+00   0.0000000e+00
   4.9400542e+01   1.8479462e+01   1.2807548e+01   1.2240357e+02   3.8971539e+01   2.2870622e+01   2.5981026e+01   1.1343828e+01   3.1835905e+01   1.9394287e+01   1.4271268e+01   1.0483893e+02   4.7021998e+01   2.2870622e+01   1.4088303e+01   2.9274396e+00   4.6290138e+01   1.9028357e+01   1.3722373e+01   3.6592994e+00   0.0000000e+00   0.0000000e+00   0.0000000e+00   0.0000000e+00
   4.2813803e+01   1.5734988e+01   9.6971435e+00   1.2093985e+02   3.7141889e+01   2.1223937e+01   1.7930567e+01   7.3185989e+00   3.0372185e+01   1.9760217e+01   9.1482486e+00   1.0666858e+02   4.4460488e+01   2.0858007e+01   1.1526793e+01   1.4637198e+00   4.1533049e+01   1.5003128e+01   1.1160863e+01   5.4889492e-01   0.0000000e+00   0.0000000e+00   0.0000000e+00   0.0000000e+00
   3.5678170e+01   1.3173478e+01   6.7697040e+00   1.1965909e+02   3.5678170e+01   1.9943182e+01   1.0246038e+01   3.8422644e+00   2.9274396e+01   1.9577252e+01   4.3911593e+00   1.0813230e+02   4.2081944e+01   1.9028357e+01   9.5141786e+00   1.8296497e-01   3.7690784e+01   1.0977898e+01   9.1482486e+00  -1.8296497e+00   0.0000000e+00   0.0000000e+00   0.0000000e+00   0.0000000e+00
   3.0921080e+01   1.2258653e+01   5.6719141e+00   1.1874427e+02   3.5312240e+01   1.9943182e+01   5.8548791e+00   2.0126147e+00   2.9091431e+01   1.9394287e+01   1.8296497e+00   1.0923009e+02   4.0618224e+01   1.8662427e+01   8.7823187e+00  -5.4889492e-01   3.6410029e+01   8.5993537e+00   8.7823187e+00  -3.1104045e+00   0.0000000e+00   0.0000000e+00   0.0000000e+00   0.0000000e+00
   3.0006255e+01   1.3173478e+01   6.5867390e+00   1.1819537e+02   3.5861135e+01   2.1223937e+01   6.4037740e+00   2.5615096e+00   3.0189220e+01   1.9577252e+01   2.3785446e+00   1.0959602e+02   4.0801189e+01   1.9394287e+01   9.5141786e+00  -3.6592994e-01   3.8056714e+01   8.5993537e+00   1.0429003e+01  -2.7444746e+00   0.0000000e+00   0.0000000e+00   0.0000000e+00   0.0000000e+00
   3.2750730e+01   1.5369058e+01   8.9652836e+00   1.1746351e+02   3.6958924e+01   2.2870622e+01   1.1160863e+01   5.1230192e+00   3.1652940e+01   1.9943182e+01   5.4889492e+00   1.0923009e+02   4.1898979e+01   2.0858007e+01   1.1160863e+01   3.6592994e-01   4.1350084e+01   1.0611968e+01   1.2807548e+01  -1.2807548e+00   0.0000000e+00   0.0000000e+00   0.0000000e+00   0.0000000e+00
   3.8056714e+01   1.8296497e+01   1.2258653e+01   1.1709758e+02   3.8422644e+01   2.4700271e+01   1.8296497e+01   8.5993537e+00   3.3116660e+01   2.0309112e+01   1.0063073e+01   1.0849823e+02   4.3545663e+01   2.2687657e+01   1.3173478e+01   1.4637198e+00   4.5192348e+01   1.4088303e+01   1.5734988e+01   5.4889492e-01   0.0000000e+00   0.0000000e+00   0.0000000e+00   0.0000000e+00
   4.3728628e+01   2.0492077e+01   1.5186093e+01   1.1654869e+02   3.9337469e+01   2.5615096e+01   2.5432131e+01   1.1892723e+01   3.3848520e+01   2.0126147e+01   1.4637198e+01   1.0740044e+02   4.5009383e+01   2.3968411e+01   1.5003128e+01   2.5615096e+00   4.7936823e+01   1.7381672e+01   1.7747602e+01   2.1955797e+00   0.0000000e+00   0.0000000e+00   0.0000000e+00   0.0000000e+00
   4.7570893e+01   2.1772832e+01   1.6832777e+01   1.1599979e+02   3.9703399e+01   2.5798061e+01   3.0189220e+01   1.3905338e+01   3.3848520e+01   1.9577252e+01   1.7564637e+01   1.0666858e+02   4.5741243e+01   2.4334341e+01   1.6100918e+01   3.2933695e+00   4.9034613e+01   1.9760217e+01   1.8845392e+01   2.9274396e+00   0.0000000e+00   0.0000000e+00   0.0000000e+00   0.0000000e+00
   4.8119788e+01   2.1406902e+01   1.6832777e+01   1.1545090e+02   3.9154504e+01   2.5066201e+01   3.0921080e+01   1.3905338e+01   3.2750730e+01   1.8662427e+01   1.8113532e+01   1.0648561e+02   4.5192348e+01   2.3785446e+01   1.6100918e+01   3.4763345e+00   4.7753858e+01   2.0675042e+01   1.8479462e+01   2.9274396e+00   0.0000000e+00   0.0000000e+00   0.0000000e+00   0.0000000e+00
   4.4643453e+01   1.9394287e+01   1.4820163e+01   1.1490200e+02   3.7690784e+01   2.3236551e+01   2.7261781e+01   1.1892723e+01   3.0738115e+01   1.7930567e+01   1.5734988e+01   1.0648561e+02   4.3179733e+01   2.1955797e+01   1.4820163e+01   2.9274396e+00   4.4643453e+01   1.9211322e+01   1.6832777e+01   1.6466847e+00   0.0000000e+00   0.0000000e+00   0.0000000e+00   0.0000000e+00
   3.8239679e+01   1.6283883e+01   1.1709758e+01   1.1435311e+02   3.5861135e+01   2.1223937e+01   2.0492077e+01   8.5993537e+00   2.8359571e+01   1.7381672e+01   1.1526793e+01   1.0703451e+02   4.0252294e+01   1.9211322e+01   1.2807548e+01   2.1955797e+00   4.0618224e+01   1.6283883e+01   1.4637198e+01   0.0000000e+00   0.0000000e+00   0.0000000e+00   0.0000000e+00   0.0000000e+00
   3.0921080e+01   1.3173478e+01   8.4163887e+00   1.1362125e+02   3.4031485e+01   1.9394287e+01   1.3173478e+01   5.3059842e+00   2.5981026e+01   1.7198707e+01   6.9526689e+00   1.0740044e+02   3.6958924e+01   1.6649812e+01   1.0794933e+01   1.2807548e+00   3.7141889e+01   1.2807548e+01   1.2990513e+01  -1.4637198e+00   0.0000000e+00   0.0000000e+00   0.0000000e+00   0.0000000e+00
   2.5066201e+01   1.0794933e+01   6.4037740e+00   1.1270642e+02   3.2384800e+01   1.8113532e+01   8.2334237e+00   3.2933695e+00   2.4700271e+01   1.7015742e+01   4.0252294e+00   1.0721747e+02   3.4580380e+01   1.5003128e+01   9.3312136e+00   7.3185989e-01   3.5495205e+01   1.0246038e+01   1.2624583e+01  -2.0126147e+00   0.0000000e+00   0.0000000e+00   0.0000000e+00   0.0000000e+00
   2.2321727e+01   1.0063073e+01   5.8548791e+00   1.1179160e+02   3.1287010e+01   1.7564637e+01   7.5015639e+00   3.1104045e+00   2.4151376e+01   1.6466847e+01   3.4763345e+00   1.0611968e+02   3.3299625e+01   1.4271268e+01   8.9652836e+00   9.1482486e-01   3.5678170e+01   9.1482486e+00   1.3356443e+01  -1.2807548e+00   0.0000000e+00   0.0000000e+00   0.0000000e+00   0.0000000e+00
   2.3236551e+01   1.0794933e+01   7.3185989e+00   1.1069381e+02   3.0372185e+01   1.7747602e+01   1.0977898e+01   4.9400542e+00   2.4700271e+01   1.5917953e+01   5.8548791e+00   1.0447300e+02   3.3299625e+01   1.4637198e+01   1.0063073e+01   1.6466847e+00   3.7324854e+01   1.0246038e+01   1.5369058e+01   5.4889492e-01   0.0000000e+00   0.0000000e+00   0.0000000e+00   0.0000000e+00
   2.6529921e+01   1.2258653e+01   9.5141786e+00   1.0923009e+02   2.9274396e+01   1.7930567e+01   1.7015742e+01   7.6845288e+00   2.5615096e+01   1.5369058e+01   9.6971435e+00   1.0227742e+02   3.3848520e+01   1.5186093e+01   1.1526793e+01   2.7444746e+00   3.9154504e+01   1.2258653e+01   1.7381672e+01   2.9274396e+00   0.0000000e+00   0.0000000e+00   0.0000000e+00   0.0000000e+00
   3.0738115e+01   1.4088303e+01   1.1709758e+01   1.0794933e+02   2.8176606e+01   1.7930567e+01   2.3419516e+01   1.0611968e+01   2.6529921e+01   1.5917953e+01   1.3905338e+01   1.0008184e+02   3.4580380e+01   1.5917953e+01   1.3356443e+01   3.8422644e+00   4.0069329e+01   1.4637198e+01   1.9211322e+01   5.1230192e+00   0.0000000e+00   0.0000000e+00   0.0000000e+00   0.0000000e+00
   3.3299625e+01   1.5003128e+01   1.2990513e+01   1.0648561e+02   2.6529921e+01   1.7198707e+01   2.7078816e+01   1.2258653e+01   2.7078816e+01   1.7015742e+01   1.6466847e+01   9.8252190e+01   3.4580380e+01   1.5734988e+01   1.4271268e+01   4.5741243e+00   3.9154504e+01   1.6100918e+01   1.9760217e+01   6.5867390e+00   0.0000000e+00   0.0000000e+00   0.0000000e+00   0.0000000e+00
   3.3299625e+01   1.4637198e+01   1.2807548e+01   1.0520486e+02   2.4700271e+01   1.5917953e+01   2.7261781e+01   1.2258653e+01   2.7078816e+01   1.8113532e+01   1.6649812e+01   9.6971435e+01   3.3848520e+01   1.4820163e+01   1.4271268e+01   4.7570893e+00   3.6592994e+01   1.5917953e+01   1.9028357e+01   6.9526689e+00   0.0000000e+00   0.0000000e+00   0.0000000e+00   0.0000000e+00
   3.0189220e+01   1.2990513e+01   1.0977898e+01   1.0392410e+02   2.2870622e+01   1.4088303e+01   2.3236551e+01   1.0429003e+01   2.5981026e+01   1.8296497e+01   1.4271268e+01   9.6239575e+01   3.2567765e+01   1.3356443e+01   1.3356443e+01   4.3911593e+00   3.2567765e+01   1.3722373e+01   1.7381672e+01   6.0378441e+00   0.0000000e+00   0.0000000e+00   0.0000000e+00   0.0000000e+00
   2.4700271e+01   1.0611968e+01   8.4163887e+00   1.0282631e+02   2.1040972e+01   1.2441618e+01   1.7015742e+01   7.6845288e+00   2.4151376e+01   1.7381672e+01   1.0246038e+01   9.5690680e+01   3.1104045e+01   1.1526793e+01   1.1709758e+01   3.8422644e+00   2.8359571e+01   1.0246038e+01   1.5369058e+01   4.7570893e+00   0.0000000e+00   0.0000000e+00   0.0000000e+00   0.0000000e+00
   1.8479462e+01   8.2334237e+00   5.8548791e+00   1.0172852e+02   1.9394287e+01   1.1160863e+01   1.0429003e+01   4.9400542e+00   2.2321727e+01   1.5734988e+01   5.8548791e+00   9.5324750e+01   2.9823290e+01   1.0063073e+01   9.8801085e+00   3.2933695e+00   2.5066201e+01   6.4037740e+00   1.3539408e+01   3.4763345e+00   0.0000000e+00   0.0000000e+00   0.0000000e+00   0.0000000e+00
   1.3905338e+01   7.1356339e+00   4.2081944e+00   1.0081370e+02   1.8479462e+01   1.0794933e+01   6.2208091e+00   3.4763345e+00   2.1040972e+01   1.4271268e+01   3.1104045e+00   9.4592891e+01   2.9457361e+01   9.6971435e+00   8.9652836e+00   3.1104045e+00   2.3602481e+01   3.6592994e+00   1.2807548e+01   2.9274396e+00   0.0000000e+00   0.0000000e+00   0.0000000e+00   0.0000000e+00
   1.2624583e+01   7.8674938e+00   4.3911593e+00   1.0008184e+02   1.8479462e+01   1.1709758e+01   6.4037740e+00   3.8422644e+00   2.1223937e+01   1.3905338e+01   2.7444746e+00   9.3861031e+01   2.9823290e+01   1.0246038e+01   9.3312136e+00   3.2933695e+00   2.4517306e+01   2.9274396e+00   1.3539408e+01   3.6592994e+00   0.0000000e+00   0.0000000e+00   0.0000000e+00   0.0000000e+00
   1.5186093e+01   1.0063073e+01   6.2208091e+00   9.9898875e+01   1.9211322e+01   1.3356443e+01   1.0794933e+01   6.2208091e+00   2.2687657e+01   1.4454233e+01   5.3059842e+00   9.2946206e+01   3.1104045e+01   1.2075688e+01   1.0429003e+01   4.0252294e+00   2.7261781e+01   4.5741243e+00   1.5552023e+01   5.1230192e+00   0.0000000e+00   0.0000000e+00   0.0000000e+00   0.0000000e+00
   2.0858007e+01   1.2807548e+01   8.7823187e+00   9.9715910e+01   2.0675042e+01   1.5369058e+01   1.7564637e+01   9.5141786e+00   2.4883236e+01   1.5369058e+01   9.3312136e+00   9.2031381e+01   3.2567765e+01   1.4088303e+01   1.2258653e+01   4.7570893e+00   3.0738115e+01   7.5015639e+00   1.7747602e+01   7.1356339e+00   0.0000000e+00   0.0000000e+00   0.0000000e+00   0.0000000e+00
   2.7444746e+01   1.5186093e+01   1.1343828e+01   1.0008184e+02   2.2321727e+01   1.7381672e+01   2.4517306e+01   1.2624583e+01   2.7444746e+01   1.6100918e+01   1.3539408e+01   9.1299521e+01   3.4031485e+01   1.6100918e+01   1.3905338e+01   5.3059842e+00   3.3665555e+01   1.0794933e+01   1.9760217e+01   8.5993537e+00   0.0000000e+00   0.0000000e+00   0.0000000e+00   0.0000000e+00
   3.2750730e+01   1.6466847e+01   1.2990513e+01   1.0044777e+02   2.3968411e+01   1.8662427e+01   2.8908466e+01   1.4454233e+01   2.9274396e+01   1.5917953e+01   1.6100918e+01   9.1116556e+01   3.4580380e+01   1.7381672e+01   1.5003128e+01   5.3059842e+00   3.5129275e+01   1.3356443e+01   2.0675042e+01   9.3312136e+00   0.0000000e+00   0.0000000e+00   0.0000000e+00   0.0000000e+00
   3.5312240e+01   1.6649812e+01   1.2990513e+01   1.0136259e+02   2.5615096e+01   1.9211322e+01   2.9640325e+01   1.4454233e+01   3.0189220e+01   1.5186093e+01   1.6466847e+01   9.1665451e+01   3.4580380e+01   1.7930567e+01   1.5186093e+01   4.9400542e+00   3.5129275e+01   1.4271268e+01   2.0858007e+01   9.1482486e+00   0.0000000e+00   0.0000000e+00   0.0000000e+00   0.0000000e+00
   3.4580380e+01   1.5734988e+01   1.1709758e+01   1.0246038e+02   2.6895851e+01   1.9394287e+01   2.6712886e+01   1.2624583e+01   3.0006255e+01   1.4271268e+01   1.4271268e+01   9.3129171e+01   3.3665555e+01   1.7747602e+01   1.4637198e+01   4.2081944e+00   3.3482590e+01   1.3539408e+01   2.0126147e+01   7.8674938e+00   0.0000000e+00   0.0000000e+00   0.0000000e+00   0.0000000e+00
   3.1835905e+01   1.4454233e+01   1.0063073e+01   1.0410707e+02   2.8542536e+01   1.9760217e+01   2.2138762e+01   1.0063073e+01   2.8725501e+01   1.4454233e+01   1.0977898e+01   9.5141786e+01   3.2933695e+01   1.7564637e+01   1.3905338e+01   3.4763345e+00   3.2018870e+01   1.2075688e+01   1.9577252e+01   6.7697040e+00   0.0000000e+00   0.0000000e+00   0.0000000e+00   0.0000000e+00
   2.8542536e+01   1.3722373e+01   8.5993537e+00   1.0575375e+02   3.0189220e+01   2.0309112e+01   1.7564637e+01   7.6845288e+00   2.7261781e+01   1.5552023e+01   7.8674938e+00   9.7337365e+01   3.2384800e+01   1.7381672e+01   1.3539408e+01   2.9274396e+00   3.1469975e+01   1.0611968e+01   1.9577252e+01   5.8548791e+00   0.0000000e+00   0.0000000e+00   0.0000000e+00   0.0000000e+00
   2.6346956e+01   1.3356443e+01   8.0504588e+00   1.0703451e+02   3.1835905e+01   2.1040972e+01   1.5003128e+01   6.4037740e+00   2.5798061e+01   1.7198707e+01   5.8548791e+00   9.8618120e+01   3.2384800e+01   1.7564637e+01   1.3722373e+01   2.3785446e+00   3.2018870e+01   9.6971435e+00   2.0126147e+01   5.6719141e+00   0.0000000e+00   0.0000000e+00   0.0000000e+00   0.0000000e+00
   2.6346956e+01   1.3905338e+01   8.7823187e+00   1.0813230e+02   3.3116660e+01   2.1955797e+01   1.5734988e+01   6.5867390e+00   2.5249166e+01   1.9211322e+01   5.8548791e+00   9.8984050e+01   3.3116660e+01   1.8479462e+01   1.4820163e+01   2.5615096e+00   3.3848520e+01   1.0063073e+01   2.1772832e+01   6.5867390e+00   0.0000000e+00   0.0000000e+00   0.0000000e+00   0.0000000e+00
   2.9274396e+01   1.5369058e+01   1.0794933e+01   1.0868119e+02   3.4214450e+01   2.3053586e+01   1.9943182e+01   8.5993537e+00   2.5798061e+01   2.0858007e+01   8.2334237e+00   9.8252190e+01   3.4580380e+01   1.9577252e+01   1.6649812e+01   3.2933695e+00   3.6958924e+01   1.1892723e+01   2.3968411e+01   8.4163887e+00   0.0000000e+00   0.0000000e+00   0.0000000e+00   0.0000000e+00
   3.3848520e+01   1.7198707e+01   1.3722373e+01   1.0868119e+02   3.4763345e+01   2.3968411e+01   2.6163991e+01   1.1709758e+01   2.6895851e+01   2.2138762e+01   1.2258653e+01   9.6971435e+01   3.6227064e+01   2.1040972e+01   1.8845392e+01   4.3911593e+00   3.9886364e+01   1.4637198e+01   2.6346956e+01   1.0611968e+01   0.0000000e+00   0.0000000e+00   0.0000000e+00   0.0000000e+00
   3.9154504e+01   1.8662427e+01   1.6466847e+01   1.0849823e+02   3.4580380e+01   2.4334341e+01   3.2750730e+01   1.4820163e+01   2.7810676e+01   2.2870622e+01   1.6283883e+01   9.5507715e+01   3.7507819e+01   2.1955797e+01   2.1040972e+01   5.6719141e+00   4.1898979e+01   1.7564637e+01   2.8359571e+01   1.2990513e+01   0.0000000e+00   0.0000000e+00   0.0000000e+00   0.0000000e+00
   4.2447874e+01   1.9028357e+01   1.8296497e+01   1.0776637e+02   3.3299625e+01   2.3785446e+01   3.6958924e+01   1.6832777e+01   2.7993641e+01   2.3053586e+01   1.8845392e+01   9.4043996e+01   3.7324854e+01   2.1589867e+01   2.2321727e+01   6.5867390e+00   4.1533049e+01   1.9028357e+01   2.9274396e+01   1.4454233e+01   0.0000000e+00   0.0000000e+00   0.0000000e+00   0.0000000e+00
   4.2447874e+01   1.8113532e+01   1.8479462e+01   1.0648561e+02   3.1104045e+01   2.2138762e+01   3.7690784e+01   1.7015742e+01   2.7078816e+01   2.2321727e+01   1.9028357e+01   9.2580276e+01   3.6044100e+01   2.0126147e+01   2.2687657e+01   6.9526689e+00   3.8971539e+01   1.8845392e+01   2.8725501e+01   1.4637198e+01   0.0000000e+00   0.0000000e+00   0.0000000e+00   0.0000000e+00
   3.8605609e+01   1.5369058e+01   1.6649812e+01   1.0483893e+02   2.8359571e+01   1.9577252e+01   3.4031485e+01   1.4820163e+01   2.5249166e+01   2.0675042e+01   1.6283883e+01   9.0750626e+01   3.3299625e+01   1.7564637e+01   2.1772832e+01   6.5867390e+00   3.4214450e+01   1.6283883e+01   2.7078816e+01   1.3539408e+01   0.0000000e+00   0.0000000e+00   0.0000000e+00   0.0000000e+00
   3.1835905e+01   1.2075688e+01   1.4088303e+01   1.0300928e+02   2.5249166e+01   1.6832777e+01   2.7993641e+01   1.1709758e+01   2.3053586e+01   1.8845392e+01   1.1892723e+01   8.9103941e+01   3.0006255e+01   1.4454233e+01   2.0126147e+01   6.0378441e+00   2.9091431e+01   1.2258653e+01   2.4883236e+01   1.1892723e+01   0.0000000e+00   0.0000000e+00   0.0000000e+00   0.0000000e+00
   2.4334341e+01   8.7823187e+00   1.1526793e+01   1.0099666e+02   2.2504692e+01   1.4454233e+01   2.1406902e+01   8.4163887e+00   2.1589867e+01   1.7015742e+01   7.3185989e+00   8.7640222e+01   2.6712886e+01   1.1892723e+01   1.8479462e+01   5.6719141e+00   2.4700271e+01   7.8674938e+00   2.2870622e+01   1.0246038e+01   0.0000000e+00   0.0000000e+00   0.0000000e+00   0.0000000e+00
   1.8662427e+01   6.7697040e+00   9.8801085e+00   9.9167015e+01   2.0309112e+01   1.2807548e+01   1.7015742e+01   6.5867390e+00   2.1040972e+01   1.5369058e+01   4.5741243e+00   8.6359467e+01   2.4700271e+01   1.0063073e+01   1.7564637e+01   5.4889492e+00   2.2321727e+01   4.5741243e+00   2.2138762e+01   9.5141786e+00   0.0000000e+00   0.0000000e+00   0.0000000e+00   0.0000000e+00
   1.7015742e+01   6.5867390e+00   1.0429003e+01   9.7886260e+01   1.9211322e+01   1.2441618e+01   1.6649812e+01   7.1356339e+00   2.2321727e+01   1.4820163e+01   4.9400542e+00   8.5627607e+01   2.4151376e+01   9.8801085e+00   1.7747602e+01   6.2208091e+00   2.2504692e+01   3.6592994e+00   2.2687657e+01   1.0063073e+01   0.0000000e+00   0.0000000e+00   0.0000000e+00   0.0000000e+00
   1.9211322e+01   7.8674938e+00   1.2258653e+01   9.6422540e+01   1.8662427e+01   1.2624583e+01   2.0126147e+01   9.3312136e+00   2.4334341e+01   1.4271268e+01   7.8674938e+00   8.4529817e+01   2.4334341e+01   1.0429003e+01   1.8479462e+01   6.9526689e+00   2.4151376e+01   4.7570893e+00   2.4151376e+01   1.1343828e+01   0.0000000e+00   0.0000000e+00   0.0000000e+00   0.0000000e+00
   2.4517306e+01   1.0063073e+01   1.5003128e+01   9.5324750e+01   1.8662427e+01   1.3356443e+01   2.5798061e+01   1.2807548e+01   2.6346956e+01   1.4088303e+01   1.2624583e+01   8.3797957e+01   2.5432131e+01   1.1343828e+01   1.9943182e+01   7.8674938e+00   2.6346956e+01   7.5015639e+00   2.5615096e+01   1.3173478e+01   0.0000000e+00   0.0000000e+00   0.0000000e+00   0.0000000e+00
   3.0372185e+01   1.1709758e+01   1.7198707e+01   9.4043996e+01   1.8479462e+01   1.3356443e+01   3.1287010e+01   1.5369058e+01   2.6895851e+01   1.3539408e+01   1.6649812e+01   8.2883132e+01   2.5981026e+01   1.1892723e+01   2.0858007e+01   8.0504588e+00   2.7627711e+01   1.0246038e+01   2.6163991e+01   1.4088303e+01   0.0000000e+00   0.0000000e+00   0.0000000e+00   0.0000000e+00
   3.4214450e+01   1.2258653e+01   1.7930567e+01   9.3312136e+01   1.8296497e+01   1.2990513e+01   3.4214450e+01   1.6283883e+01   2.5798061e+01   1.3356443e+01   1.8845392e+01   8.2334237e+01   2.6346956e+01   1.1709758e+01   2.0858007e+01   7.6845288e+00   2.7261781e+01   1.1709758e+01   2.5432131e+01   1.3905338e+01   0.0000000e+00   0.0000000e+00   0.0000000e+00   0.0000000e+00
   3.5312240e+01   1.1526793e+01   1.6832777e+01   9.2763241e+01   1.8296497e+01   1.2258653e+01   3.3848520e+01   1.5186093e+01   2.3419516e+01   1.3722373e+01   1.8296497e+01   8.2517202e+01   2.6346956e+01   1.1343828e+01   1.9943182e+01   6.7697040e+00   2.5615096e+01   1.1526793e+01   2.3602481e+01   1.2624583e+01   0.0000000e+00   0.0000000e+00   0.0000000e+00   0.0000000e+00
   3.2933695e+01   9.5141786e+00   1.4271268e+01   9.2763241e+01   1.8479462e+01   1.1160863e+01   3.0006255e+01   1.2441618e+01   2.0492077e+01   1.4820163e+01   1.5186093e+01   8.3432027e+01   2.6163991e+01   1.0611968e+01   1.8113532e+01   5.4889492e+00   2.2870622e+01   9.6971435e+00   2.0858007e+01   1.0429003e+01   0.0000000e+00   0.0000000e+00   0.0000000e+00   0.0000000e+00
   2.8725501e+01   7.3185989e+00   1.0977898e+01   9.3312136e+01   1.9028357e+01   1.0246038e+01   2.4334341e+01   8.9652836e+00   1.8113532e+01   1.6283883e+01   1.0977898e+01   8.4895747e+01   2.6163991e+01   1.0063073e+01   1.6283883e+01   4.0252294e+00   2.0492077e+01   6.9526689e+00   1.7930567e+01   8.0504588e+00   0.0000000e+00   0.0000000e+00   0.0000000e+00   0.0000000e+00
   2.4151376e+01   5.6719141e+00   8.0504588e+00   9.4226961e+01   1.9943182e+01   9.8801085e+00   1.8479462e+01   5.8548791e+00   1.6832777e+01   1.7381672e+01   6.7697040e+00   8.6725397e+01   2.6712886e+01   9.8801085e+00   1.4454233e+01   2.5615096e+00   1.9394287e+01   4.5741243e+00   1.5734988e+01   5.8548791e+00   0.0000000e+00   0.0000000e+00   0.0000000e+00   0.0000000e+00
   2.1406902e+01   5.3059842e+00   6.4037740e+00   9.5324750e+01   2.1589867e+01   1.0246038e+01   1.4637198e+01   4.0252294e+00   1.7015742e+01   1.8113532e+01   4.2081944e+00   8.8738011e+01   2.7810676e+01   1.0611968e+01   1.3356443e+01   1.8296497e+00   2.0309112e+01   3.4763345e+00   1.4271268e+01   4.5741243e+00   0.0000000e+00   0.0000000e+00   0.0000000e+00   0.0000000e+00
   2.1406902e+01   6.2208091e+00   6.2208091e+00   9.6239575e+01   2.3419516e+01   1.0977898e+01   1.3539408e+01   3.8422644e+00   1.7930567e+01   1.8113532e+01   3.8422644e+00   9.0201731e+01   2.9274396e+01   1.1709758e+01   1.2807548e+01   1.0977898e+00   2.3053586e+01   3.8422644e+00   1.3905338e+01   4.0252294e+00   0.0000000e+00   0.0000000e+00   0.0000000e+00   0.0000000e+00
   2.4700271e+01   8.2334237e+00   7.3185989e+00   9.6788470e+01   2.5432131e+01   1.2258653e+01   1.5552023e+01   5.1230192e+00   1.9760217e+01   1.8479462e+01   5.6719141e+00   9.0933591e+01   3.1287010e+01   1.3173478e+01   1.2807548e+01   7.3185989e-01   2.7261781e+01   5.8548791e+00   1.4088303e+01   4.2081944e+00   0.0000000e+00   0.0000000e+00   0.0000000e+00   0.0000000e+00
   3.0738115e+01   1.0977898e+01   9.5141786e+00   9.7154400e+01   2.7444746e+01   1.3539408e+01   2.0126147e+01   7.6845288e+00   2.1955797e+01   1.9760217e+01   9.3312136e+00   9.1482486e+01   3.3482590e+01   1.5003128e+01   1.3539408e+01   9.1482486e-01   3.1835905e+01   9.1482486e+00   1.5003128e+01   5.1230192e+00   0.0000000e+00   0.0000000e+00   0.0000000e+00   0.0000000e+00
   3.6958924e+01   1.3173478e+01   1.1343828e+01   9.6788470e+01   2.8725501e+01   1.4454233e+01   2.4517306e+01   1.0063073e+01   2.3785446e+01   2.1223937e+01   1.2807548e+01   9.1299521e+01   3.4763345e+01   1.6283883e+01   1.4088303e+01   9.1482486e-01   3.4946310e+01   1.2258653e+01   1.5186093e+01   5.4889492e+00   0.0000000e+00   0.0000000e+00   0.0000000e+00   0.0000000e+00
   4.1716014e+01   1.4454233e+01   1.2258653e+01   9.6422540e+01   2.9457361e+01   1.4820163e+01   2.6895851e+01   1.1160863e+01   2.5249166e+01   2.2504692e+01   1.4820163e+01   9.1482486e+01   3.5495205e+01   1.7198707e+01   1.4271268e+01   9.1482486e-01   3.6044100e+01   1.4454233e+01   1.4637198e+01   5.3059842e+00   0.0000000e+00   0.0000000e+00   0.0000000e+00   0.0000000e+00
   4.2813803e+01   1.4454233e+01   1.1343828e+01   9.6239575e+01   2.9457361e+01   1.4454233e+01   2.5798061e+01   1.0611968e+01   2.5798061e+01   2.2687657e+01   1.4454233e+01   9.1482486e+01   3.4946310e+01   1.7015742e+01   1.3539408e+01   5.4889492e-01   3.4946310e+01   1.4820163e+01   1.2990513e+01   4.2081944e+00   0.0000000e+00   0.0000000e+00   0.0000000e+00   0.0000000e+00
   4.0069329e+01   1.2624583e+01   8.7823187e+00   9.5873645e+01   2.8542536e+01   1.3356443e+01   2.0675042e+01   7.6845288e+00   2.5432131e+01   2.1406902e+01   1.1160863e+01   9.1665451e+01   3.3299625e+01   1.5734988e+01   1.1892723e+01  -5.4889492e-01   3.1652940e+01   1.2990513e+01   1.0429003e+01   1.8296497e+00   0.0000000e+00   0.0000000e+00   0.0000000e+00   0.0000000e+00
   3.4580380e+01   1.0246038e+01   5.1230192e+00   9.5873645e+01   2.7810676e+01   1.2258653e+01   1.3539408e+01   3.6592994e+00   2.4883236e+01   1.9394287e+01   6.2208091e+00   9.2031381e+01   3.1287010e+01   1.4454233e+01   9.8801085e+00  -2.0126147e+00   2.8176606e+01   9.8801085e+00   7.6845288e+00  -9.1482486e-01   0.0000000e+00   0.0000000e+00   0.0000000e+00   0.0000000e+00
   2.8542536e+01   8.0504588e+00   1.8296497e+00   9.6056610e+01   2.7444746e+01   1.1526793e+01   6.2208091e+00  -1.8296497e-01   2.4883236e+01   1.7747602e+01   1.2807548e+00   9.2214346e+01   2.9823290e+01   1.3722373e+01   8.0504588e+00  -3.1104045e+00   2.5615096e+01   6.7697040e+00   5.8548791e+00  -3.4763345e+00   0.0000000e+00   0.0000000e+00   0.0000000e+00   0.0000000e+00
   2.4517306e+01   7.1356339e+00  -3.6592994e-01   9.6422540e+01   2.7810676e+01   1.1709758e+01   1.4637198e+00  -2.5615096e+00   2.5798061e+01   1.7381672e+01  -1.6466847e+00   9.2397311e+01   2.9457361e+01   1.3905338e+01   6.9526689e+00  -3.8422644e+00   2.5249166e+01   4.5741243e+00   5.4889492e+00  -4.7570893e+00   0.0000000e+00   0.0000000e+00   0.0000000e+00   0.0000000e+00
   2.3419516e+01   7.6845288e+00  -1.0977898e+00   9.6605505e+01   2.8359571e+01   1.2624583e+01   1.8296497e-01  -3.1104045e+00   2.7444746e+01   1.8113532e+01  -2.1955797e+00   9.2214346e+01   3.0006255e+01   1.5003128e+01   6.9526689e+00  -4.2081944e+00   2.6712886e+01   4.0252294e+00   6.4037740e+00  -4.9400542e+00   0.0000000e+00   0.0000000e+00   0.0000000e+00   0.0000000e+00
   2.6346956e+01   9.6971435e+00   0.0000000e+00   9.6605505e+01   2.9457361e+01   1.4454233e+01   3.1104045e+00  -1.6466847e+00   2.9457361e+01   1.9577252e+01   1.8296497e-01   9.1848416e+01   3.1469975e+01   1.7015742e+01   8.0504588e+00  -3.6592994e+00   2.9457361e+01   5.4889492e+00   8.4163887e+00  -3.6592994e+00   0.0000000e+00   0.0000000e+00   0.0000000e+00   0.0000000e+00
   3.1652940e+01   1.2624583e+01   2.1955797e+00   9.6788470e+01   3.0372185e+01   1.6649812e+01   8.4163887e+00   1.2807548e+00   3.1104045e+01   2.0675042e+01   4.3911593e+00   9.1299521e+01   3.3116660e+01   1.9028357e+01   9.6971435e+00  -2.7444746e+00   3.2384800e+01   8.0504588e+00   1.0977898e+01  -1.6466847e+00   0.0000000e+00   0.0000000e+00   0.0000000e+00   0.0000000e+00
   3.7690784e+01   1.5186093e+01   4.3911593e+00   9.6971435e+01   3.0921080e+01   1.8479462e+01   1.4088303e+01   4.0252294e+00   3.1835905e+01   2.1223937e+01   8.5993537e+00   9.0750626e+01   3.4397415e+01   2.0492077e+01   1.1160863e+01  -2.1955797e+00   3.4214450e+01   1.0977898e+01   1.2807548e+01   0.0000000e+00   0.0000000e+00   0.0000000e+00   0.0000000e+00   0.0000000e+00
   4.2081944e+01   1.6832777e+01   5.6719141e+00   9.7520330e+01   3.1104045e+01   1.9577252e+01   1.7564637e+01   5.4889492e+00   3.1469975e+01   2.1223937e+01   1.1343828e+01   9.0750626e+01   3.4946310e+01   2.0858007e+01   1.1709758e+01  -1.8296497e+00   3.4397415e+01   1.2990513e+01   1.3722373e+01   9.1482486e-01   0.0000000e+00   0.0000000e+00   0.0000000e+00   0.0000000e+00
   4.3911593e+01   1.7198707e+01   5.6719141e+00   9.8252190e+01   3.1104045e+01   1.9943182e+01   1.7930567e+01   5.4889492e+00   3.0372185e+01   2.1040972e+01   1.1892723e+01   9.1299521e+01   3.4763345e+01   2.0126147e+01   1.1526793e+01  -2.1955797e+00   3.2933695e+01   1.3539408e+01   1.3722373e+01   7.3185989e-01   0.0000000e+00   0.0000000e+00   0.0000000e+00   0.0000000e+00
   4.2447874e+01   1.6100918e+01   4.2081944e+00   9.8801085e+01   3.0738115e+01   1.9577252e+01   1.4820163e+01   3.4763345e+00   2.8725501e+01   2.0675042e+01   9.6971435e+00   9.1848416e+01   3.3482590e+01   1.8662427e+01   1.0063073e+01  -3.1104045e+00   3.0189220e+01   1.2258653e+01   1.2441618e+01  -5.4889492e-01   0.0000000e+00   0.0000000e+00   0.0000000e+00   0.0000000e+00
   3.8788574e+01   1.4637198e+01   2.0126147e+00   9.9349980e+01   3.0738115e+01   1.9211322e+01   9.6971435e+00   7.3185989e-01   2.7078816e+01   2.0309112e+01   6.2208091e+00   9.2397311e+01   3.2018870e+01   1.7198707e+01   8.4163887e+00  -4.0252294e+00   2.7810676e+01   1.0063073e+01   1.1160863e+01  -2.0126147e+00   0.0000000e+00   0.0000000e+00   0.0000000e+00   0.0000000e+00
   3.4031485e+01   1.3173478e+01  -1.8296497e-01   9.9715910e+01   3.0738115e+01   1.9211322e+01   4.2081944e+00  -2.0126147e+00   2.5249166e+01   1.9394287e+01   2.5615096e+00   9.2763241e+01   3.0555150e+01   1.6100918e+01   6.9526689e+00  -4.7570893e+00   2.6163991e+01   7.8674938e+00   1.0063073e+01  -3.4763345e+00   0.0000000e+00   0.0000000e+00   0.0000000e+00   0.0000000e+00
   3.0738115e+01   1.2624583e+01  -1.0977898e+00   9.9898875e+01   3.1287010e+01   1.9760217e+01   7.3185989e-01  -3.4763345e+00   2.3968411e+01   1.8479462e+01   1.8296497e-01   9.2763241e+01   3.0006255e+01   1.6100918e+01   6.2208091e+00  -4.7570893e+00   2.6529921e+01   6.4037740e+00   1.0063073e+01  -4.0252294e+00   0.0000000e+00   0.0000000e+00   0.0000000e+00   0.0000000e+00
   2.9823290e+01   1.2990513e+01  -7.3185989e-01   9.9898875e+01   3.1835905e+01   2.0675042e+01   5.4889492e-01  -3.4763345e+00   2.3236551e+01   1.7747602e+01   1.8296497e-01   9.2397311e+01   3.0372185e+01   1.7015742e+01   6.4037740e+00  -4.3911593e+00   2.8359571e+01   6.5867390e+00   1.0977898e+01  -3.8422644e+00   0.0000000e+00   0.0000000e+00   0.0000000e+00   0.0000000e+00
   3.2750730e+01   1.4820163e+01   1.2807548e+00   1.0026480e+02   3.2750730e+01   2.2138762e+01   4.2081944e+00  -1.6466847e+00   2.3419516e+01   1.7930567e+01   2.7444746e+00   9.2031381e+01   3.1835905e+01   1.9028357e+01   7.6845288e+00  -3.2933695e+00   3.2018870e+01   8.7823187e+00   1.2990513e+01  -2.5615096e+00   0.0000000e+00   0.0000000e+00   0.0000000e+00   0.0000000e+00
   3.8239679e+01   1.7381672e+01   4.5741243e+00   1.0099666e+02   3.4031485e+01   2.3602481e+01   1.0246038e+01   1.4637198e+00   2.4517306e+01   1.9577252e+01   6.9526689e+00   9.2031381e+01   3.4214450e+01   2.1589867e+01   9.5141786e+00  -2.0126147e+00   3.6227064e+01   1.2258653e+01   1.5186093e+01  -7.3185989e-01   0.0000000e+00   0.0000000e+00   0.0000000e+00   0.0000000e+00
   4.4460488e+01   1.9394287e+01   7.3185989e+00   1.0172852e+02   3.4946310e+01   2.4334341e+01   1.6100918e+01   4.3911593e+00   2.5798061e+01   2.1772832e+01   1.1343828e+01   9.2031381e+01   3.6410029e+01   2.3968411e+01   1.1160863e+01  -9.1482486e-01   3.9520434e+01   1.5917953e+01   1.6832777e+01   5.4889492e-01   0.0000000e+00   0.0000000e+00   0.0000000e+00   0.0000000e+00
   4.9034613e+01   2.0309112e+01   8.9652836e+00   1.0264335e+02   3.5312240e+01   2.3785446e+01   1.9394287e+01   6.2208091e+00   2.6712886e+01   2.3785446e+01   1.4088303e+01   9.2763241e+01   3.7873749e+01   2.5432131e+01   1.1709758e+01  -3.6592994e-01   4.0618224e+01   1.8113532e+01   1.6832777e+01   1.0977898e+00   0.0000000e+00   0.0000000e+00   0.0000000e+00   0.0000000e+00
   4.9949437e+01   1.9577252e+01   8.7823187e+00   1.0355817e+02   3.4763345e+01   2.2321727e+01   1.8479462e+01   6.0378441e+00   2.7078816e+01   2.4517306e+01   1.4271268e+01   9.3861031e+01   3.8239679e+01   2.5798061e+01   1.1160863e+01  -3.6592994e-01   3.9703399e+01   1.8296497e+01   1.5369058e+01   3.6592994e-01   0.0000000e+00   0.0000000e+00   0.0000000e+00   0.0000000e+00
   4.6656068e+01   1.7015742e+01   6.7697040e+00   1.0392410e+02   3.3482590e+01   1.9760217e+01   1.3173478e+01   3.6592994e+00   2.6346956e+01   2.3785446e+01   1.1160863e+01   9.5141786e+01   3.7324854e+01   2.4517306e+01   9.1482486e+00  -1.2807548e+00   3.6592994e+01   1.6100918e+01   1.2441618e+01  -1.4637198e+00   0.0000000e+00   0.0000000e+00   0.0000000e+00   0.0000000e+00
   4.0435259e+01   1.3722373e+01   3.6592994e+00   1.0429003e+02   3.1835905e+01   1.6832777e+01   5.4889492e+00   0.0000000e+00   2.5432131e+01   2.2138762e+01   6.4037740e+00   9.6605505e+01   3.5861135e+01   2.2687657e+01   6.4037740e+00  -2.3785446e+00   3.2933695e+01   1.2441618e+01   8.9652836e+00  -4.0252294e+00   0.0000000e+00   0.0000000e+00   0.0000000e+00   0.0000000e+00
   3.3482590e+01   1.0611968e+01   9.1482486e-01   1.0483893e+02   3.0738115e+01   1.4454233e+01  -1.8296497e+00  -3.4763345e+00   2.5066201e+01   2.1040972e+01   1.4637198e+00   9.7703295e+01   3.4397415e+01   2.0675042e+01   3.8422644e+00  -3.2933695e+00   3.0189220e+01   8.5993537e+00   6.0378441e+00  -6.0378441e+00   0.0000000e+00   0.0000000e+00   0.0000000e+00   0.0000000e+00
   2.8176606e+01   8.4163887e+00  -9.1482486e-01   1.0502189e+02   3.0006255e+01   1.2807548e+01  -6.5867390e+00  -5.6719141e+00   2.5066201e+01   2.0309112e+01  -2.1955797e+00   9.7886260e+01   3.3482590e+01   1.9211322e+01   1.8296497e+00  -4.2081944e+00   2.9274396e+01   5.4889492e+00   4.2081944e+00  -7.3185989e+00   0.0000000e+00   0.0000000e+00   0.0000000e+00   0.0000000e+00
   2.6346956e+01   8.0504588e+00  -9.1482486e-01   1.0538782e+02   3.0372185e+01   1.2075688e+01  -6.9526689e+00  -5.6719141e+00   2.5798061e+01   2.0492077e+01  -2.9274396e+00   9.7154400e+01   3.3665555e+01   1.8479462e+01   1.0977898e+00  -4.2081944e+00   3.0372185e+01   4.2081944e+00   4.0252294e+00  -7.1356339e+00   0.0000000e+00   0.0000000e+00   0.0000000e+00   0.0000000e+00
   2.8176606e+01   9.3312136e+00   9.1482486e-01   1.0538782e+02   3.1287010e+01   1.2441618e+01  -3.1104045e+00  -3.6592994e+00   2.7261781e+01   2.0675042e+01  -7.3185989e-01   9.6056610e+01   3.4580380e+01   1.8845392e+01   1.6466847e+00  -3.4763345e+00   3.3299625e+01   4.9400542e+00   5.3059842e+00  -5.4889492e+00   0.0000000e+00   0.0000000e+00   0.0000000e+00   0.0000000e+00
   3.2750730e+01   1.1160863e+01   3.6592994e+00   1.0483893e+02   3.2201835e+01   1.3173478e+01   3.1104045e+00  -3.6592994e-01   2.8725501e+01   2.0858007e+01   3.1104045e+00   9.4226961e+01   3.5861135e+01   1.9577252e+01   3.1104045e+00  -2.5615096e+00   3.6592994e+01   6.9526689e+00   6.9526689e+00  -3.2933695e+00   0.0000000e+00   0.0000000e+00   0.0000000e+00   0.0000000e+00
   3.8056714e+01   1.3173478e+01   6.4037740e+00   1.0429003e+02   3.3116660e+01   1.3722373e+01   9.5141786e+00   3.1104045e+00   3.0006255e+01   2.1406902e+01   7.5015639e+00   9.2580276e+01   3.7141889e+01   2.0309112e+01   4.9400542e+00  -1.4637198e+00   3.9337469e+01   9.5141786e+00   8.5993537e+00  -1.0977898e+00   0.0000000e+00   0.0000000e+00   0.0000000e+00   0.0000000e+00
   4.2081944e+01   1.4271268e+01   8.0504588e+00   1.0337521e+02   3.3482590e+01   1.3722373e+01   1.3905338e+01   5.3059842e+00   3.0372185e+01   2.1772832e+01   1.0611968e+01   9.1116556e+01   3.7507819e+01   2.0309112e+01   6.2208091e+00  -5.4889492e-01   4.0435259e+01   1.1160863e+01   9.3312136e+00   5.4889492e-01   0.0000000e+00   0.0000000e+00   0.0000000e+00   0.0000000e+00
   4.3362698e+01   1.4088303e+01   8.5993537e+00   1.0227742e+02   3.3482590e+01   1.3173478e+01   1.4820163e+01   6.0378441e+00   3.0189220e+01   2.1955797e+01   1.1526793e+01   9.0384696e+01   3.6958924e+01   1.9394287e+01   6.7697040e+00   0.0000000e+00   3.9703399e+01   1.1892723e+01   9.3312136e+00   1.0977898e+00   0.0000000e+00   0.0000000e+00   0.0000000e+00   0.0000000e+00
   4.1350084e+01   1.2441618e+01   7.3185989e+00   1.0099666e+02   3.2750730e+01   1.1892723e+01   1.2258653e+01   4.7570893e+00   2.9274396e+01   2.1589867e+01   9.6971435e+00   8.9835801e+01   3.5129275e+01   1.7747602e+01   6.0378441e+00   0.0000000e+00   3.7141889e+01   1.0611968e+01   8.4163887e+00   3.6592994e-01   0.0000000e+00   0.0000000e+00   0.0000000e+00   0.0000000e+00
   3.7507819e+01   1.0611968e+01   5.8548791e+00   1.0026480e+02   3.2201835e+01   1.1160863e+01   7.6845288e+00   3.1104045e+00   2.8176606e+01   2.0858007e+01   6.7697040e+00   9.0384696e+01   3.3299625e+01   1.6100918e+01   5.4889492e+00  -1.8296497e-01   3.4580380e+01   8.5993537e+00   7.6845288e+00  -3.6592994e-01   0.0000000e+00   0.0000000e+00   0.0000000e+00   0.0000000e+00
   3.3116660e+01   9.1482486e+00   4.2081944e+00   9.9715910e+01   3.1469975e+01   1.0794933e+01   3.1104045e+00   1.2807548e+00   2.7444746e+01   1.9760217e+01   3.4763345e+00   9.1482486e+01   3.1469975e+01   1.5003128e+01   4.7570893e+00  -1.8296497e-01   3.2384800e+01   6.4037740e+00   7.5015639e+00  -9.1482486e-01   0.0000000e+00   0.0000000e+00   0.0000000e+00   0.0000000e+00
   3.0006255e+01   8.5993537e+00   3.6592994e+00   9.9349980e+01   3.1104045e+01   1.1160863e+01   7.3185989e-01   3.6592994e-01   2.7444746e+01   1.9028357e+01   1.4637198e+00   9.3129171e+01   3.0372185e+01   1.4637198e+01   4.9400542e+00   0.0000000e+00   3.1469975e+01   5.1230192e+00   8.4163887e+00  -5.4889492e-01   0.0000000e+00   0.0000000e+00   0.0000000e+00   0.0000000e+00
   2.9823290e+01   9.8801085e+00   4.9400542e+00   9.9715910e+01   3.1287010e+01   1.2807548e+01   2.1955797e+00   1.6466847e+00   2.8908466e+01   1.9211322e+01   1.8296497e+00   9.5141786e+01   3.0555150e+01   1.5552023e+01   6.4037740e+00   7.3185989e-01   3.2384800e+01   5.8548791e+00   1.0794933e+01   9.1482486e-01   0.0000000e+00   0.0000000e+00   0.0000000e+00   0.0000000e+00
   3.2750730e+01   1.2441618e+01   7.6845288e+00   9.9898875e+01   3.1652940e+01   1.5186093e+01   7.6845288e+00   4.3911593e+00   3.1287010e+01   2.0126147e+01   4.7570893e+00   9.6605505e+01   3.1469975e+01   1.7381672e+01   8.7823187e+00   1.8296497e+00   3.4580380e+01   8.4163887e+00   1.4088303e+01   3.2933695e+00   0.0000000e+00   0.0000000e+00   0.0000000e+00   0.0000000e+00
   3.8239679e+01   1.5734988e+01   1.1526793e+01   9.9898875e+01   3.1835905e+01   1.7747602e+01   1.5369058e+01   8.2334237e+00   3.3665555e+01   2.1589867e+01   9.5141786e+00   9.7520330e+01   3.2750730e+01   1.9394287e+01   1.1709758e+01   3.2933695e+00   3.7141889e+01   1.2258653e+01   1.7930567e+01   6.0378441e+00   0.0000000e+00   0.0000000e+00   0.0000000e+00   0.0000000e+00
   4.3911593e+01   1.8479462e+01   1.5003128e+01   9.9532945e+01   3.1835905e+01   1.9760217e+01   2.2687657e+01   1.1709758e+01   3.4763345e+01   2.1955797e+01   1.4088303e+01   9.7520330e+01   3.3482590e+01   2.1040972e+01   1.4454233e+01   4.5741243e+00   3.8605609e+01   1.6100918e+01   2.1040972e+01   8.4163887e+00   0.0000000e+00   0.0000000e+00   0.0000000e+00   0.0000000e+00
   4.7570893e+01   1.9943182e+01   1.7198707e+01   9.8618120e+01   3.1287010e+01   2.1040972e+01   2.7078816e+01   1.3722373e+01   3.3848520e+01   2.1223937e+01   1.6832777e+01   9.6605505e+01   3.3299625e+01   2.1589867e+01   1.6100918e+01   5.4889492e+00   3.8056714e+01   1.8296497e+01   2.2870622e+01   9.6971435e+00   0.0000000e+00   0.0000000e+00   0.0000000e+00   0.0000000e+00
   4.7753858e+01   1.9943182e+01   1.7564637e+01   9.7703295e+01   3.0372185e+01   2.1406902e+01   2.7078816e+01   1.3722373e+01   3.0921080e+01   1.9760217e+01   1.6832777e+01   9.5507715e+01   3.2201835e+01   2.1406902e+01   1.7015742e+01   5.8548791e+00   3.5495205e+01   1.8296497e+01   2.3602481e+01   9.8801085e+00   0.0000000e+00   0.0000000e+00   0.0000000e+00   0.0000000e+00
   4.4826418e+01   1.8662427e+01   1.6466847e+01   9.6971435e+01   2.9091431e+01   2.1406902e+01   2.3236551e+01   1.2258653e+01   2.7078816e+01   1.8662427e+01   1.4820163e+01   9.4592891e+01   3.0555150e+01   2.0492077e+01   1.6832777e+01   5.8548791e+00   3.1652940e+01   1.6649812e+01   2.3785446e+01   9.1482486e+00   0.0000000e+00   0.0000000e+00   0.0000000e+00   0.0000000e+00
   3.9337469e+01   1.6832777e+01   1.4271268e+01   9.6056610e+01   2.7993641e+01   2.1406902e+01   1.7381672e+01   9.6971435e+00   2.3053586e+01   1.8113532e+01   1.0977898e+01   9.3678066e+01   2.8542536e+01   1.9577252e+01   1.6283883e+01   5.4889492e+00   2.7627711e+01   1.3722373e+01   2.3419516e+01   7.8674938e+00   0.0000000e+00   0.0000000e+00   0.0000000e+00   0.0000000e+00
   3.3116660e+01   1.5186093e+01   1.2075688e+01   9.5507715e+01   2.7078816e+01   2.1589867e+01   1.1526793e+01   7.1356339e+00   1.9943182e+01   1.8845392e+01   7.3185989e+00   9.2946206e+01   2.7261781e+01   1.9211322e+01   1.5734988e+01   5.3059842e+00   2.4517306e+01   1.0794933e+01   2.3602481e+01   6.9526689e+00   0.0000000e+00   0.0000000e+00   0.0000000e+00   0.0000000e+00
   2.8542536e+01   1.4637198e+01   1.0977898e+01   9.5324750e+01   2.6895851e+01   2.2321727e+01   8.2334237e+00   5.8548791e+00   1.8296497e+01   2.0126147e+01   5.1230192e+00   9.2214346e+01   2.6895851e+01   1.9760217e+01   1.6100918e+01   5.4889492e+00   2.3602481e+01   8.9652836e+00   2.4700271e+01   6.7697040e+00   0.0000000e+00   0.0000000e+00   0.0000000e+00   0.0000000e+00
   2.6712886e+01   1.5186093e+01   1.1526793e+01   9.5507715e+01   2.7261781e+01   2.3602481e+01   8.5993537e+00   6.0378441e+00   1.8113532e+01   2.1406902e+01   4.9400542e+00   9.0933591e+01   2.7993641e+01   2.1406902e+01   1.7198707e+01   6.0378441e+00   2.4700271e+01   8.7823187e+00   2.6712886e+01   7.6845288e+00   0.0000000e+00   0.0000000e+00   0.0000000e+00   0.0000000e+00
   2.8908466e+01   1.7381672e+01   1.3722373e+01   9.5873645e+01   2.8542536e+01   2.5432131e+01   1.3356443e+01   8.2334237e+00   1.9577252e+01   2.2687657e+01   7.6845288e+00   8.9835801e+01   3.0189220e+01   2.4151376e+01   1.9394287e+01   7.1356339e+00   2.8176606e+01   1.0611968e+01   2.9823290e+01   9.6971435e+00   0.0000000e+00   0.0000000e+00   0.0000000e+00   0.0000000e+00
   3.3848520e+01   1.9943182e+01   1.6832777e+01   9.6056610e+01   2.9457361e+01   2.7078816e+01   2.0492077e+01   1.1160863e+01   2.1406902e+01   2.3602481e+01   1.1892723e+01   8.8006152e+01   3.2567765e+01   2.7078816e+01   2.1772832e+01   8.0504588e+00   3.2018870e+01   1.3722373e+01   3.2750730e+01   1.1709758e+01   0.0000000e+00   0.0000000e+00   0.0000000e+00   0.0000000e+00
   4.0069329e+01   2.2687657e+01   2.0309112e+01   9.6239575e+01   3.0555150e+01   2.8359571e+01   2.8176606e+01   1.4637198e+01   2.3602481e+01   2.4883236e+01   1.6466847e+01   8.6908362e+01   3.5129275e+01   2.9823290e+01   2.4151376e+01   8.9652836e+00   3.5678170e+01   1.7564637e+01   3.5129275e+01   1.3722373e+01   0.0000000e+00   0.0000000e+00   0.0000000e+00   0.0000000e+00
   4.5375313e+01   2.4700271e+01   2.2504692e+01   9.6605505e+01   3.1469975e+01   2.9274396e+01   3.3482590e+01   1.6832777e+01   2.5249166e+01   2.5981026e+01   1.9760217e+01   8.6542432e+01   3.7141889e+01   3.1469975e+01   2.5615096e+01   9.6971435e+00   3.7690784e+01   2.0675042e+01   3.6227064e+01   1.4637198e+01   0.0000000e+00   0.0000000e+00   0.0000000e+00   0.0000000e+00
   4.7570893e+01   2.5249166e+01   2.3053586e+01   9.6971435e+01   3.1835905e+01   2.9274396e+01   3.4763345e+01   1.7015742e+01   2.5981026e+01   2.6163991e+01   2.0492077e+01   8.7274292e+01   3.8056714e+01   3.2201835e+01   2.5981026e+01   9.6971435e+00   3.7507819e+01   2.1955797e+01   3.5861135e+01   1.4271268e+01   0.0000000e+00   0.0000000e+00   0.0000000e+00   0.0000000e+00
   4.5924208e+01   2.3968411e+01   2.1223937e+01   9.7337365e+01   3.1652940e+01   2.8359571e+01   3.1652940e+01   1.5003128e+01   2.5432131e+01   2.5066201e+01   1.7930567e+01   8.8920976e+01   3.8056714e+01   3.1469975e+01   2.4883236e+01   8.7823187e+00   3.5495205e+01   2.1223937e+01   3.4031485e+01   1.2258653e+01   0.0000000e+00   0.0000000e+00   0.0000000e+00   0.0000000e+00
   4.1533049e+01   2.1955797e+01   1.8113532e+01   9.7886260e+01   3.1652940e+01   2.7261781e+01   2.5798061e+01   1.1526793e+01   2.4517306e+01   2.2870622e+01   1.3539408e+01   9.1482486e+01   3.7690784e+01   3.0189220e+01   2.3053586e+01   7.5015639e+00   3.2750730e+01   1.9028357e+01   3.1652940e+01   9.6971435e+00   0.0000000e+00   0.0000000e+00   0.0000000e+00   0.0000000e+00
   3.6592994e+01   1.9577252e+01   1.5003128e+01   9.8801085e+01   3.2018870e+01   2.6346956e+01   1.9577252e+01   8.2334237e+00   2.3968411e+01   2.0858007e+01   9.1482486e+00   9.4226961e+01   3.7141889e+01   2.9274396e+01   2.1223937e+01   6.4037740e+00   3.0921080e+01   1.6466847e+01   2.9823290e+01   7.5015639e+00   0.0000000e+00   0.0000000e+00   0.0000000e+00   0.0000000e+00
   3.2750730e+01   1.7930567e+01   1.2807548e+01   9.9715910e+01   3.2750730e+01   2.5981026e+01   1.5552023e+01   5.6719141e+00   2.3785446e+01   1.9577252e+01   5.6719141e+00   9.6605505e+01   3.6958924e+01   2.8725501e+01   1.9760217e+01   5.4889492e+00   3.0372185e+01   1.4454233e+01   2.8725501e+01   5.8548791e+00   0.0000000e+00   0.0000000e+00   0.0000000e+00   0.0000000e+00
   3.1835905e+01   1.7564637e+01   1.1892723e+01   1.0044777e+02   3.4214450e+01   2.6163991e+01   1.4820163e+01   4.9400542e+00   2.4517306e+01   1.9760217e+01   4.7570893e+00   9.7703295e+01   3.6958924e+01   2.8908466e+01   1.9211322e+01   4.9400542e+00   3.1652940e+01   1.3905338e+01   2.8542536e+01   5.4889492e+00   0.0000000e+00   0.0000000e+00   0.0000000e+00   0.0000000e+00
   3.4397415e+01   1.8296497e+01   1.2624583e+01   1.0099666e+02   3.5861135e+01   2.6895851e+01   1.7747602e+01   6.2208091e+00   2.5432131e+01   2.1040972e+01   6.5867390e+00   9.7520330e+01   3.7873749e+01   3.0006255e+01   1.9760217e+01   5.1230192e+00   3.4580380e+01   1.5369058e+01   2.9457361e+01   6.4037740e+00   0.0000000e+00   0.0000000e+00   0.0000000e+00   0.0000000e+00
   3.9337469e+01   1.9577252e+01   1.4088303e+01   1.0117963e+02   3.7507819e+01   2.7810676e+01   2.3053586e+01   8.5993537e+00   2.6346956e+01   2.3053586e+01   1.0429003e+01   9.6422540e+01   3.9154504e+01   3.1104045e+01   2.0858007e+01   5.8548791e+00   3.7873749e+01   1.7930567e+01   3.0555150e+01   7.8674938e+00   0.0000000e+00   0.0000000e+00   0.0000000e+00   0.0000000e+00
   4.5192348e+01   2.1040972e+01   1.5917953e+01   1.0117963e+02   3.8971539e+01   2.8359571e+01   2.8542536e+01   1.1343828e+01   2.7261781e+01   2.4883236e+01   1.4820163e+01   9.5324750e+01   4.0801189e+01   3.2384800e+01   2.1955797e+01   6.5867390e+00   4.0984154e+01   2.1040972e+01   3.1469975e+01   9.3312136e+00   0.0000000e+00   0.0000000e+00   0.0000000e+00   0.0000000e+00
   4.9217578e+01   2.1406902e+01   1.6283883e+01   1.0063073e+02   3.9520434e+01   2.7444746e+01   3.1104045e+01   1.2441618e+01   2.7627711e+01   2.5981026e+01   1.7747602e+01   9.4409926e+01   4.1716014e+01   3.2384800e+01   2.2138762e+01   6.7697040e+00   4.2081944e+01   2.2870622e+01   3.0921080e+01   9.6971435e+00   0.0000000e+00   0.0000000e+00   0.0000000e+00   0.0000000e+00
   5.0498332e+01   2.0492077e+01   1.5369058e+01   1.0026480e+02   3.9520434e+01   2.5798061e+01   3.0189220e+01   1.2258653e+01   2.7993641e+01   2.6895851e+01   1.8479462e+01   9.4592891e+01   4.2264909e+01   3.1835905e+01   2.1589867e+01   6.7697040e+00   4.1898979e+01   2.3236551e+01   2.9457361e+01   9.3312136e+00   0.0000000e+00   0.0000000e+00   0.0000000e+00   0.0000000e+00
   4.7570893e+01   1.7930567e+01   1.2807548e+01   9.9532945e+01   3.8605609e+01   2.3236551e+01   2.5066201e+01   9.6971435e+00   2.7627711e+01   2.7444746e+01   1.6100918e+01   9.4775856e+01   4.1350084e+01   3.0189220e+01   1.9760217e+01   6.0378441e+00   3.9886364e+01   2.1040972e+01   2.6712886e+01   7.5015639e+00   0.0000000e+00   0.0000000e+00   0.0000000e+00   0.0000000e+00
   4.2081944e+01   1.4820163e+01   9.3312136e+00   9.8984050e+01   3.7507819e+01   2.0675042e+01   1.7747602e+01   6.2208091e+00   2.7078816e+01   2.7993641e+01   1.2258653e+01   9.5324750e+01   4.0069329e+01   2.8359571e+01   1.7381672e+01   5.1230192e+00   3.7324854e+01   1.7747602e+01   2.3602481e+01   5.4889492e+00   0.0000000e+00   0.0000000e+00   0.0000000e+00   0.0000000e+00
   3.5495205e+01   1.1526793e+01   6.2208091e+00   9.8618120e+01   3.6044100e+01   1.8662427e+01   1.0429003e+01   2.9274396e+00   2.6712886e+01   2.8176606e+01   7.8674938e+00   9.5873645e+01   3.8788574e+01   2.6895851e+01   1.5369058e+01   4.3911593e+00   3.5312240e+01   1.4088303e+01   2.0858007e+01   3.6592994e+00   0.0000000e+00   0.0000000e+00   0.0000000e+00   0.0000000e+00
   2.9823290e+01   9.1482486e+00   3.8422644e+00   9.7886260e+01   3.4763345e+01   1.7198707e+01   5.4889492e+00   5.4889492e-01   2.6163991e+01   2.7993641e+01   4.7570893e+00   9.6056610e+01   3.7873749e+01   2.5981026e+01   1.3722373e+01   4.0252294e+00   3.4580380e+01   1.1160863e+01   1.9211322e+01   2.7444746e+00   0.0000000e+00   0.0000000e+00   0.0000000e+00   0.0000000e+00
   2.6712886e+01   8.0504588e+00   3.1104045e+00   9.6788470e+01   3.3482590e+01   1.6466847e+01   4.2081944e+00   1.8296497e-01   2.5981026e+01   2.7810676e+01   4.0252294e+00   9.6056610e+01   3.7690784e+01   2.5798061e+01   1.3173478e+01   4.2081944e+00   3.5312240e+01   9.6971435e+00   1.8662427e+01   2.7444746e+00   0.0000000e+00   0.0000000e+00   0.0000000e+00   0.0000000e+00
   2.7261781e+01   8.5993537e+00   4.0252294e+00   9.5873645e+01   3.2750730e+01   1.6466847e+01   7.1356339e+00   1.6466847e+00   2.6346956e+01   2.7993641e+01   5.8548791e+00   9.5873645e+01   3.8239679e+01   2.6529921e+01   1.3539408e+01   5.1230192e+00   3.7507819e+01   1.0246038e+01   1.9211322e+01   3.8422644e+00   0.0000000e+00   0.0000000e+00   0.0000000e+00   0.0000000e+00
   3.0738115e+01   1.0063073e+01   6.0378441e+00   9.5141786e+01   3.2201835e+01   1.6649812e+01   1.2807548e+01   4.7570893e+00   2.7444746e+01   2.8725501e+01   9.6971435e+00   9.5141786e+01   3.9337469e+01   2.7627711e+01   1.4820163e+01   6.4037740e+00   4.0069329e+01   1.2258653e+01   2.0492077e+01   5.8548791e+00   0.0000000e+00   0.0000000e+00   0.0000000e+00   0.0000000e+00
   3.5495205e+01   1.1892723e+01   8.4163887e+00   9.4592891e+01   3.1652940e+01   1.6832777e+01   1.8479462e+01   8.0504588e+00   2.8908466e+01   2.9274396e+01   1.4088303e+01   9.3678066e+01   4.0435259e+01   2.8542536e+01   1.6100918e+01   7.6845288e+00   4.2081944e+01   1.4820163e+01   2.1772832e+01   7.6845288e+00   0.0000000e+00   0.0000000e+00   0.0000000e+00   0.0000000e+00
   3.9886364e+01   1.3173478e+01   1.0246038e+01   9.4226961e+01   3.0921080e+01   1.6466847e+01   2.2138762e+01   1.0611968e+01   3.0555150e+01   2.9640325e+01   1.7564637e+01   9.2214346e+01   4.1167119e+01   2.9091431e+01   1.7198707e+01   8.7823187e+00   4.2630839e+01   1.7198707e+01   2.2321727e+01   8.9652836e+00   0.0000000e+00   0.0000000e+00   0.0000000e+00   0.0000000e+00
   4.1533049e+01   1.3173478e+01   1.0794933e+01   9.4043996e+01   2.9823290e+01   1.5734988e+01   2.1406902e+01   1.1160863e+01   3.1469975e+01   2.8908466e+01   1.8662427e+01   9.0933591e+01   4.0984154e+01   2.8725501e+01   1.7564637e+01   8.9652836e+00   4.1167119e+01   1.7930567e+01   2.1589867e+01   9.1482486e+00   0.0000000e+00   0.0000000e+00   0.0000000e+00   0.0000000e+00
   4.0069329e+01   1.2075688e+01   9.8801085e+00   9.4043996e+01   2.8725501e+01   1.4637198e+01   1.6649812e+01   9.8801085e+00   3.1652940e+01   2.7627711e+01   1.7015742e+01   9.0567661e+01   4.0069329e+01   2.7810676e+01   1.7198707e+01   8.5993537e+00   3.8056714e+01   1.7198707e+01   2.0126147e+01   8.2334237e+00   0.0000000e+00   0.0000000e+00   0.0000000e+00   0.0000000e+00
   3.6044100e+01   1.0429003e+01   8.0504588e+00   9.4592891e+01   2.8176606e+01   1.3905338e+01   9.6971435e+00   7.3185989e+00   3.1287010e+01   2.6346956e+01   1.3539408e+01   9.1116556e+01   3.8971539e+01   2.6529921e+01   1.6283883e+01   7.8674938e+00   3.4763345e+01   1.5186093e+01   1.8296497e+01   6.9526689e+00   0.0000000e+00   0.0000000e+00   0.0000000e+00   0.0000000e+00
   3.1104045e+01   9.3312136e+00   6.2208091e+00   9.5690680e+01   2.8542536e+01   1.3539408e+01   3.1104045e+00   4.5741243e+00   3.0555150e+01   2.5249166e+01   9.6971435e+00   9.2031381e+01   3.8056714e+01   2.5615096e+01   1.5369058e+01   7.3185989e+00   3.2567765e+01   1.2990513e+01   1.7015742e+01   5.4889492e+00   0.0000000e+00   0.0000000e+00   0.0000000e+00   0.0000000e+00
   2.7627711e+01   8.9652836e+00   5.1230192e+00   9.6605505e+01   2.9640325e+01   1.3905338e+01  -3.6592994e-01   2.7444746e+00   3.0006255e+01   2.4700271e+01   6.9526689e+00   9.2580276e+01   3.7873749e+01   2.5066201e+01   1.4820163e+01   6.5867390e+00   3.2201835e+01   1.1526793e+01   1.6649812e+01   4.5741243e+00   0.0000000e+00   0.0000000e+00   0.0000000e+00   0.0000000e+00
   2.7261781e+01   1.0246038e+01   5.6719141e+00   9.7703295e+01   3.1469975e+01   1.5186093e+01   1.0977898e+00   2.7444746e+00   2.9823290e+01   2.4700271e+01   6.9526689e+00   9.2763241e+01   3.8605609e+01   2.5798061e+01   1.5552023e+01   6.5867390e+00   3.4031485e+01   1.1892723e+01   1.7564637e+01   4.9400542e+00   0.0000000e+00   0.0000000e+00   0.0000000e+00   0.0000000e+00
   3.0189220e+01   1.2807548e+01   7.6845288e+00   9.8252190e+01   3.3482590e+01   1.7015742e+01   6.9526689e+00   4.5741243e+00   3.0189220e+01   2.4700271e+01   9.1482486e+00   9.1848416e+01   3.9703399e+01   2.6895851e+01   1.6649812e+01   6.5867390e+00   3.7324854e+01   1.3905338e+01   1.9211322e+01   6.0378441e+00   0.0000000e+00   0.0000000e+00   0.0000000e+00   0.0000000e+00
   3.6227064e+01   1.6100918e+01   1.0794933e+01   9.8618120e+01   3.5495205e+01   1.9211322e+01   1.5369058e+01   7.6845288e+00   3.0921080e+01   2.4700271e+01   1.3539408e+01   9.0750626e+01   4.1350084e+01   2.8725501e+01   1.8662427e+01   6.9526689e+00   4.0984154e+01   1.7381672e+01   2.1406902e+01   7.8674938e+00   0.0000000e+00   0.0000000e+00   0.0000000e+00   0.0000000e+00
   4.2813803e+01   1.9211322e+01   1.3722373e+01   9.8252190e+01   3.6958924e+01   2.1040972e+01   2.3053586e+01   1.0611968e+01   3.0921080e+01   2.4517306e+01   1.7747602e+01   8.9469871e+01   4.2447874e+01   3.0006255e+01   2.0309112e+01   7.1356339e+00   4.3728628e+01   2.0858007e+01   2.2870622e+01   9.3312136e+00   0.0000000e+00   0.0000000e+00   0.0000000e+00   0.0000000e+00
   4.7570893e+01   2.1223937e+01   1.5369058e+01   9.7520330e+01   3.7690784e+01   2.1955797e+01   2.6712886e+01   1.2258653e+01   2.9457361e+01   2.4151376e+01   2.0309112e+01   8.8555047e+01   4.2447874e+01   3.0372185e+01   2.1223937e+01   6.7697040e+00   4.4094558e+01   2.3053586e+01   2.3236551e+01   9.6971435e+00   0.0000000e+00   0.0000000e+00   0.0000000e+00   0.0000000e+00
   4.8851648e+01   2.1406902e+01   1.5369058e+01   9.6422540e+01   3.7324854e+01   2.1955797e+01   2.5249166e+01   1.1526793e+01   2.6346956e+01   2.3785446e+01   1.9760217e+01   8.8006152e+01   4.1167119e+01   2.9274396e+01   2.0675042e+01   5.8548791e+00   4.2447874e+01   2.3053586e+01   2.1772832e+01   8.5993537e+00   0.0000000e+00   0.0000000e+00   0.0000000e+00   0.0000000e+00
   4.6473103e+01   1.9943182e+01   1.3539408e+01   9.5507715e+01   3.6592994e+01   2.1223937e+01   1.8845392e+01   8.7823187e+00   2.2504692e+01   2.3419516e+01   1.6466847e+01   8.8189117e+01   3.9154504e+01   2.7444746e+01   1.8845392e+01   4.3911593e+00   3.8971539e+01   2.0858007e+01   1.9394287e+01   6.4037740e+00   0.0000000e+00   0.0000000e+00   0.0000000e+00   0.0000000e+00
   4.0984154e+01   1.7747602e+01   1.0794933e+01   9.4958821e+01   3.5678170e+01   2.0309112e+01   1.0063073e+01   5.1230192e+00   1.8662427e+01   2.2870622e+01   1.1343828e+01   8.9103941e+01   3.6592994e+01   2.5249166e+01   1.6466847e+01   2.9274396e+00   3.5129275e+01   1.7015742e+01   1.6466847e+01   3.6592994e+00   0.0000000e+00   0.0000000e+00   0.0000000e+00   0.0000000e+00
   3.4763345e+01   1.5917953e+01   8.0504588e+00   9.4409926e+01   3.4763345e+01   1.9394287e+01   1.8296497e+00   1.2807548e+00   1.5917953e+01   2.2138762e+01   6.0378441e+00   9.0567661e+01   3.4397415e+01   2.3236551e+01   1.3722373e+01   1.4637198e+00   3.1835905e+01   1.2990513e+01   1.3722373e+01   1.0977898e+00   0.0000000e+00   0.0000000e+00   0.0000000e+00   0.0000000e+00
   3.0006255e+01   1.5003128e+01   6.4037740e+00   9.4226961e+01   3.4031485e+01   1.9211322e+01  -2.9274396e+00  -9.1482486e-01   1.5186093e+01   2.0858007e+01   2.3785446e+00   9.2580276e+01   3.3116660e+01   2.2138762e+01   1.1892723e+01   5.4889492e-01   3.0372185e+01   1.0063073e+01   1.2075688e+01  -3.6592994e-01   0.0000000e+00   0.0000000e+00   0.0000000e+00   0.0000000e+00
   2.8725501e+01   1.5917953e+01   6.7697040e+00   9.4043996e+01   3.4031485e+01   1.9943182e+01  -2.7444746e+00  -1.0977898e+00   1.6466847e+01   2.0126147e+01   1.4637198e+00   9.5141786e+01   3.3116660e+01   2.2138762e+01   1.1343828e+01   5.4889492e-01   3.1287010e+01   9.3312136e+00   1.2258653e+01  -3.6592994e-01   0.0000000e+00   0.0000000e+00   0.0000000e+00   0.0000000e+00
   3.1104045e+01   1.8479462e+01   8.7823187e+00   9.4226961e+01   3.4580380e+01   2.1589867e+01   2.3785446e+00   9.1482486e-01   1.9028357e+01   2.0126147e+01   3.4763345e+00   9.7886260e+01   3.4397415e+01   2.3236551e+01   1.1892723e+01   1.2807548e+00   3.3848520e+01   1.0794933e+01   1.3539408e+01   9.1482486e-01   0.0000000e+00   0.0000000e+00   0.0000000e+00   0.0000000e+00
   3.6592994e+01   2.1589867e+01   1.1709758e+01   9.4226961e+01   3.5129275e+01   2.3236551e+01   1.0063073e+01   4.0252294e+00   2.1772832e+01   2.0492077e+01   7.1356339e+00   1.0044777e+02   3.6227064e+01   2.4883236e+01   1.3356443e+01   2.0126147e+00   3.7141889e+01   1.3722373e+01   1.5369058e+01   2.7444746e+00   0.0000000e+00   0.0000000e+00   0.0000000e+00   0.0000000e+00
   4.3179733e+01   2.4883236e+01   1.4454233e+01   9.4592891e+01   3.5861135e+01   2.4700271e+01   1.7930567e+01   7.3185989e+00   2.3968411e+01   2.1040972e+01   1.1709758e+01   1.0227742e+02   3.8056714e+01   2.6712886e+01   1.5186093e+01   2.9274396e+00   3.9886364e+01   1.7198707e+01   1.7381672e+01   4.5741243e+00   0.0000000e+00   0.0000000e+00   0.0000000e+00   0.0000000e+00
   4.8485718e+01   2.6712886e+01   1.5917953e+01   9.4958821e+01   3.6044100e+01   2.5432131e+01   2.2504692e+01   9.3312136e+00   2.4700271e+01   2.1040972e+01   1.4637198e+01   1.0246038e+02   3.8971539e+01   2.7810676e+01   1.6466847e+01   3.4763345e+00   4.0984154e+01   1.9394287e+01   1.8479462e+01   5.4889492e+00   0.0000000e+00   0.0000000e+00   0.0000000e+00   0.0000000e+00
   5.0132402e+01   2.6895851e+01   1.5552023e+01   9.4958821e+01   3.5678170e+01   2.5066201e+01   2.2321727e+01   9.3312136e+00   2.3785446e+01   1.9943182e+01   1.4820163e+01   1.0063073e+02   3.8422644e+01   2.7993641e+01   1.6466847e+01   3.2933695e+00   3.9703399e+01   1.9760217e+01   1.8296497e+01   5.1230192e+00   0.0000000e+00   0.0000000e+00   0.0000000e+00   0.0000000e+00
   4.7936823e+01   2.5249166e+01   1.3356443e+01   9.4958821e+01   3.4763345e+01   2.3968411e+01   1.7564637e+01   7.3185989e+00   2.1406902e+01   1.8662427e+01   1.2441618e+01   9.7886260e+01   3.6775959e+01   2.7261781e+01   1.5734988e+01   2.7444746e+00   3.6958924e+01   1.8113532e+01   1.7381672e+01   3.6592994e+00   0.0000000e+00   0.0000000e+00   0.0000000e+00   0.0000000e+00
   4.2996768e+01   2.2870622e+01   1.0429003e+01   9.4409926e+01   3.3848520e+01   2.2504692e+01   1.0246038e+01   4.2081944e+00   1.8479462e+01   1.7564637e+01   8.4163887e+00   9.4592891e+01   3.4946310e+01   2.5981026e+01   1.4454233e+01   1.8296497e+00   3.3482590e+01   1.5186093e+01   1.6100918e+01   1.8296497e+00   0.0000000e+00   0.0000000e+00   0.0000000e+00   0.0000000e+00
   3.6958924e+01   2.0309112e+01   7.3185989e+00   9.3861031e+01   3.2933695e+01   2.1406902e+01   3.2933695e+00   1.0977898e+00   1.5552023e+01   1.7198707e+01   4.2081944e+00   9.1299521e+01   3.3482590e+01   2.4700271e+01   1.2990513e+01   9.1482486e-01   3.0921080e+01   1.2075688e+01   1.5369058e+01   1.8296497e-01   0.0000000e+00   0.0000000e+00   0.0000000e+00   0.0000000e+00
   3.2384800e+01   1.8662427e+01   5.6719141e+00   9.2946206e+01   3.2750730e+01   2.0858007e+01  -7.3185989e-01  -7.3185989e-01   1.3539408e+01   1.7564637e+01   1.6466847e+00   8.8006152e+01   3.2933695e+01   2.4151376e+01   1.2441618e+01   5.4889492e-01   3.0189220e+01   1.0063073e+01   1.5552023e+01  -3.6592994e-01   0.0000000e+00   0.0000000e+00   0.0000000e+00   0.0000000e+00
   3.1104045e+01   1.8113532e+01   5.6719141e+00   9.2214346e+01   3.2933695e+01   2.1040972e+01  -3.6592994e-01  -5.4889492e-01   1.2624583e+01   1.7930567e+01   1.6466847e+00   8.4712782e+01   3.3665555e+01   2.4334341e+01   1.2807548e+01   9.1482486e-01   3.1652940e+01   1.0063073e+01   1.7198707e+01   3.6592994e-01   0.0000000e+00   0.0000000e+00   0.0000000e+00   0.0000000e+00
   3.2933695e+01   1.8662427e+01   7.1356339e+00   9.1299521e+01   3.3299625e+01   2.1589867e+01   4.0252294e+00   1.6466847e+00   1.2807548e+01   1.7930567e+01   4.0252294e+00   8.1053483e+01   3.4946310e+01   2.5066201e+01   1.3905338e+01   1.6466847e+00   3.4580380e+01   1.1526793e+01   1.9577252e+01   1.8296497e+00   0.0000000e+00   0.0000000e+00   0.0000000e+00   0.0000000e+00
   3.7324854e+01   1.9943182e+01   9.8801085e+00   9.0567661e+01   3.3665555e+01   2.2321727e+01   1.0794933e+01   4.7570893e+00   1.3539408e+01   1.7747602e+01   8.2334237e+00   7.7943078e+01   3.6775959e+01   2.5798061e+01   1.5552023e+01   2.7444746e+00   3.7690784e+01   1.4271268e+01   2.2138762e+01   4.0252294e+00   0.0000000e+00   0.0000000e+00   0.0000000e+00   0.0000000e+00
   4.2264909e+01   2.1223937e+01   1.2441618e+01   8.9652836e+01   3.3848520e+01   2.2504692e+01   1.7564637e+01   8.2334237e+00   1.4637198e+01   1.7930567e+01   1.2624583e+01   7.5564534e+01   3.8239679e+01   2.5981026e+01   1.7015742e+01   3.8422644e+00   3.9886364e+01   1.7381672e+01   2.4334341e+01   6.2208091e+00   0.0000000e+00   0.0000000e+00   0.0000000e+00   0.0000000e+00
   4.5741243e+01   2.1406902e+01   1.4088303e+01   8.8738011e+01   3.3116660e+01   2.2138762e+01   2.1772832e+01   1.0429003e+01   1.5734988e+01   1.8113532e+01   1.5552023e+01   7.4466744e+01   3.8971539e+01   2.5249166e+01   1.8113532e+01   4.5741243e+00   4.0069329e+01   1.9211322e+01   2.5615096e+01   7.5015639e+00   0.0000000e+00   0.0000000e+00   0.0000000e+00   0.0000000e+00
   4.6290138e+01   2.0309112e+01   1.4271268e+01   8.7640222e+01   3.2018870e+01   2.0858007e+01   2.2321727e+01   1.0977898e+01   1.6283883e+01   1.8662427e+01   1.6100918e+01   7.4466744e+01   3.8422644e+01   2.3419516e+01   1.8296497e+01   4.9400542e+00   3.8056714e+01   1.9577252e+01   2.5615096e+01   7.8674938e+00   0.0000000e+00   0.0000000e+00   0.0000000e+00   0.0000000e+00
   4.3545663e+01   1.8296497e+01   1.2990513e+01   8.6908362e+01   3.0555150e+01   1.9211322e+01   1.9028357e+01   1.0063073e+01   1.6466847e+01   1.8845392e+01   1.4454233e+01   7.5930463e+01   3.7324854e+01   2.1223937e+01   1.7930567e+01   4.9400542e+00   3.4580380e+01   1.8296497e+01   2.5066201e+01   7.6845288e+00   0.0000000e+00   0.0000000e+00   0.0000000e+00   0.0000000e+00
   3.8056714e+01   1.5186093e+01   1.0429003e+01   8.6359467e+01   2.9091431e+01   1.7198707e+01   1.2807548e+01   7.5015639e+00   1.6100918e+01   1.7930567e+01   1.0611968e+01   7.7577148e+01   3.5312240e+01   1.8479462e+01   1.6832777e+01   4.5741243e+00   3.0555150e+01   1.5369058e+01   2.3968411e+01   6.5867390e+00   0.0000000e+00   0.0000000e+00   0.0000000e+00   0.0000000e+00
   3.1652940e+01   1.2258653e+01   7.6845288e+00   8.6176502e+01   2.7993641e+01   1.5734988e+01   6.4037740e+00   4.9400542e+00   1.6100918e+01   1.6466847e+01   6.7697040e+00   7.9223833e+01   3.3482590e+01   1.6283883e+01   1.5917953e+01   4.3911593e+00   2.7078816e+01   1.2075688e+01   2.3236551e+01   5.6719141e+00   0.0000000e+00   0.0000000e+00   0.0000000e+00   0.0000000e+00
   2.6529921e+01   1.0429003e+01   6.0378441e+00   8.6176502e+01   2.7444746e+01   1.5003128e+01   2.0126147e+00   3.2933695e+00   1.6466847e+01   1.5186093e+01   4.0252294e+00   8.0321623e+01   3.2018870e+01   1.5186093e+01   1.5552023e+01   4.3911593e+00   2.5249166e+01   9.5141786e+00   2.3602481e+01   5.6719141e+00   0.0000000e+00   0.0000000e+00   0.0000000e+00   0.0000000e+00
   2.4334341e+01   1.0063073e+01   5.8548791e+00   8.6359467e+01   2.7444746e+01   1.5186093e+01   1.6466847e+00   3.4763345e+00   1.7198707e+01   1.4820163e+01   3.6592994e+00   8.0504588e+01   3.1652940e+01   1.5186093e+01   1.6283883e+01   4.7570893e+00   2.5249166e+01   8.5993537e+00   2.5066201e+01   6.5867390e+00   0.0000000e+00   0.0000000e+00   0.0000000e+00   0.0000000e+00
   2.5981026e+01   1.1343828e+01   7.8674938e+00   8.6542432e+01   2.8176606e+01   1.6466847e+01   5.6719141e+00   5.4889492e+00   1.8479462e+01   1.5552023e+01   6.0378441e+00   8.0321623e+01   3.2018870e+01   1.6466847e+01   1.8113532e+01   5.8548791e+00   2.7078816e+01   9.8801085e+00   2.7810676e+01   8.7823187e+00   0.0000000e+00   0.0000000e+00   0.0000000e+00   0.0000000e+00
   3.0372185e+01   1.3539408e+01   1.0977898e+01   8.6359467e+01   2.8725501e+01   1.7747602e+01   1.2624583e+01   8.7823187e+00   1.9394287e+01   1.6466847e+01   1.0246038e+01   7.9406798e+01   3.2750730e+01   1.8113532e+01   2.0492077e+01   7.1356339e+00   2.9640325e+01   1.2624583e+01   3.0921080e+01   1.1709758e+01   0.0000000e+00   0.0000000e+00   0.0000000e+00   0.0000000e+00
   3.6227064e+01   1.5917953e+01   1.4454233e+01   8.6176502e+01   2.9274396e+01   1.9028357e+01   2.0492077e+01   1.2258653e+01   2.0126147e+01   1.7198707e+01   1.5186093e+01   7.9040868e+01   3.3665555e+01   1.9943182e+01   2.3053586e+01   8.4163887e+00   3.2018870e+01   1.6100918e+01   3.3665555e+01   1.4454233e+01   0.0000000e+00   0.0000000e+00   0.0000000e+00   0.0000000e+00
   4.1167119e+01   1.7381672e+01   1.7015742e+01   8.5810572e+01   2.9457361e+01   1.9577252e+01   2.6346956e+01   1.4820163e+01   1.9943182e+01   1.6832777e+01   1.8662427e+01   7.9223833e+01   3.4031485e+01   2.1223937e+01   2.4700271e+01   9.3312136e+00   3.2750730e+01   1.8845392e+01   3.5495205e+01   1.6283883e+01   0.0000000e+00   0.0000000e+00   0.0000000e+00   0.0000000e+00
   4.3362698e+01   1.7930567e+01   1.8113532e+01   8.5810572e+01   2.9457361e+01   1.9577252e+01   2.8359571e+01   1.5734988e+01   1.9211322e+01   1.5552023e+01   1.9760217e+01   8.0504588e+01   3.3665555e+01   2.1589867e+01   2.5432131e+01   9.8801085e+00   3.2018870e+01   2.0126147e+01   3.5861135e+01   1.7198707e+01   0.0000000e+00   0.0000000e+00   0.0000000e+00   0.0000000e+00
   4.2447874e+01   1.7015742e+01   1.7564637e+01   8.5993537e+01   2.9091431e+01   1.9211322e+01   2.6163991e+01   1.4820163e+01   1.8113532e+01   1.4271268e+01   1.8296497e+01   8.2334237e+01   3.2567765e+01   2.1040972e+01   2.5066201e+01   9.8801085e+00   2.9640325e+01   1.9577252e+01   3.5129275e+01   1.6832777e+01   0.0000000e+00   0.0000000e+00   0.0000000e+00   0.0000000e+00
   3.8422644e+01   1.5369058e+01   1.5917953e+01   8.6359467e+01   2.8725501e+01   1.8479462e+01   2.1040972e+01   1.2441618e+01   1.7015742e+01   1.3356443e+01   1.4637198e+01   8.3797957e+01   3.0555150e+01   2.0126147e+01   2.3968411e+01   9.3312136e+00   2.6712886e+01   1.7564637e+01   3.3848520e+01   1.5552023e+01   0.0000000e+00   0.0000000e+00   0.0000000e+00   0.0000000e+00
   3.3482590e+01   1.3539408e+01   1.3905338e+01   8.6542432e+01   2.8176606e+01   1.7930567e+01   1.5552023e+01   9.8801085e+00   1.6100918e+01   1.2990513e+01   1.0246038e+01   8.4712782e+01   2.8359571e+01   1.8845392e+01   2.2687657e+01   8.5993537e+00   2.4151376e+01   1.5003128e+01   3.2384800e+01   1.4271268e+01   0.0000000e+00   0.0000000e+00   0.0000000e+00   0.0000000e+00
   2.9640325e+01   1.2807548e+01   1.2990513e+01   8.6908362e+01   2.7993641e+01   1.7930567e+01   1.2075688e+01   8.4163887e+00   1.5917953e+01   1.3356443e+01   7.5015639e+00   8.4895747e+01   2.6895851e+01   1.8479462e+01   2.2138762e+01   8.2334237e+00   2.3419516e+01   1.3356443e+01   3.2018870e+01   1.3722373e+01   0.0000000e+00   0.0000000e+00   0.0000000e+00   0.0000000e+00
   2.8542536e+01   1.3539408e+01   1.3173478e+01   8.6908362e+01   2.8176606e+01   1.8845392e+01   1.2441618e+01   8.4163887e+00   1.6283883e+01   1.3905338e+01   6.7697040e+00   8.4163887e+01   2.6346956e+01   1.9028357e+01   2.2138762e+01   8.2334237e+00   2.4517306e+01   1.3173478e+01   3.2750730e+01   1.4088303e+01   0.0000000e+00   0.0000000e+00   0.0000000e+00   0.0000000e+00
   3.0372185e+01   1.5369058e+01   1.4637198e+01   8.6908362e+01   2.8542536e+01   1.9943182e+01   1.5734988e+01   9.8801085e+00   1.6832777e+01   1.4088303e+01   8.5993537e+00   8.3066097e+01   2.6712886e+01   2.0126147e+01   2.2870622e+01   8.5993537e+00   2.7078816e+01   1.4454233e+01   3.3848520e+01   1.4820163e+01   0.0000000e+00   0.0000000e+00   0.0000000e+00   0.0000000e+00
   3.4397415e+01   1.7747602e+01   1.6649812e+01   8.6725397e+01   2.9091431e+01   2.1040972e+01   2.1040972e+01   1.2258653e+01   1.7564637e+01   1.3722373e+01   1.1709758e+01   8.1785343e+01   2.7810676e+01   2.1589867e+01   2.3785446e+01   8.7823187e+00   3.0006255e+01   1.6466847e+01   3.4946310e+01   1.5917953e+01   0.0000000e+00   0.0000000e+00   0.0000000e+00   0.0000000e+00
   3.8971539e+01   1.9943182e+01   1.8479462e+01   8.5993537e+01   2.8908466e+01   2.1589867e+01   2.5615096e+01   1.4271268e+01   1.7381672e+01   1.3356443e+01   1.5003128e+01   8.0504588e+01   2.8725501e+01   2.2504692e+01   2.4334341e+01   8.5993537e+00   3.2018870e+01   1.8296497e+01   3.5129275e+01   1.6466847e+01   0.0000000e+00   0.0000000e+00   0.0000000e+00   0.0000000e+00
   4.2264909e+01   2.1040972e+01   1.9211322e+01   8.5444642e+01   2.8359571e+01   2.1223937e+01   2.7993641e+01   1.5186093e+01   1.6466847e+01   1.3173478e+01   1.7015742e+01   7.9406798e+01   2.9274396e+01   2.2687657e+01   2.3968411e+01   8.0504588e+00   3.2567765e+01   1.9394287e+01   3.4031485e+01   1.6100918e+01   0.0000000e+00   0.0000000e+00   0.0000000e+00   0.0000000e+00
   4.2996768e+01   2.0858007e+01   1.8662427e+01   8.4712782e+01   2.7261781e+01   1.9943182e+01   2.6712886e+01   1.4454233e+01   1.5003128e+01   1.3173478e+01   1.6832777e+01   7.8491973e+01   2.9274396e+01   2.1955797e+01   2.2504692e+01   7.1356339e+00   3.1104045e+01   1.8845392e+01   3.1469975e+01   1.4637198e+01   0.0000000e+00   0.0000000e+00   0.0000000e+00   0.0000000e+00
   4.0435259e+01   1.9394287e+01   1.6100918e+01   8.4163887e+01   2.5798061e+01   1.7747602e+01   2.1406902e+01   1.1709758e+01   1.2990513e+01   1.3356443e+01   1.4271268e+01   7.7943078e+01   2.8176606e+01   2.0309112e+01   2.0126147e+01   5.6719141e+00   2.8176606e+01   1.6649812e+01   2.7810676e+01   1.2258653e+01   0.0000000e+00   0.0000000e+00   0.0000000e+00   0.0000000e+00
   3.5312240e+01   1.7381672e+01   1.2624583e+01   8.3797957e+01   2.4334341e+01   1.5734988e+01   1.3539408e+01   8.0504588e+00   1.0977898e+01   1.3356443e+01   1.0063073e+01   7.8126043e+01   2.6895851e+01   1.8845392e+01   1.7015742e+01   4.3911593e+00   2.4883236e+01   1.2990513e+01   2.3968411e+01   9.3312136e+00   0.0000000e+00   0.0000000e+00   0.0000000e+00   0.0000000e+00
   2.9274396e+01   1.5186093e+01   8.7823187e+00   8.3797957e+01   2.3236551e+01   1.3905338e+01   5.1230192e+00   4.0252294e+00   9.3312136e+00   1.3173478e+01   5.1230192e+00   7.8491973e+01   2.5615096e+01   1.7381672e+01   1.3905338e+01   2.7444746e+00   2.2138762e+01   8.7823187e+00   2.0492077e+01   6.4037740e+00   0.0000000e+00   0.0000000e+00   0.0000000e+00   0.0000000e+00
   2.4334341e+01   1.4088303e+01   5.8548791e+00   8.3797957e+01   2.2870622e+01   1.2990513e+01  -9.1482486e-01   9.1482486e-01   8.2334237e+00   1.3539408e+01   1.4637198e+00   7.9040868e+01   2.5066201e+01   1.6832777e+01   1.1343828e+01   1.6466847e+00   2.1040972e+01   5.4889492e+00   1.7930567e+01   4.2081944e+00   0.0000000e+00   0.0000000e+00   0.0000000e+00   0.0000000e+00
   2.2504692e+01   1.4271268e+01   4.3911593e+00   8.3797957e+01   2.3053586e+01   1.2807548e+01  -3.2933695e+00  -1.8296497e-01   8.0504588e+00   1.4271268e+01   0.0000000e+00   7.9589763e+01   2.5432131e+01   1.7198707e+01   9.6971435e+00   1.0977898e+00   2.1955797e+01   3.6592994e+00   1.6832777e+01   3.2933695e+00   0.0000000e+00   0.0000000e+00   0.0000000e+00   0.0000000e+00
   2.4517306e+01   1.6100918e+01   5.1230192e+00   8.3980922e+01   2.3785446e+01   1.3905338e+01  -1.0977898e+00   9.1482486e-01   9.1482486e+00   1.5552023e+01   1.4637198e+00   7.9955693e+01   2.7078816e+01   1.8845392e+01   9.5141786e+00   1.2807548e+00   2.4700271e+01   4.0252294e+00   1.7015742e+01   3.6592994e+00   0.0000000e+00   0.0000000e+00   0.0000000e+00   0.0000000e+00
   2.9274396e+01   1.8479462e+01   6.9526689e+00   8.3980922e+01   2.4700271e+01   1.5003128e+01   3.8422644e+00   3.2933695e+00   1.0977898e+01   1.6466847e+01   4.5741243e+00   7.9223833e+01   2.8908466e+01   2.0492077e+01   9.8801085e+00   1.6466847e+00   2.7810676e+01   5.8548791e+00   1.7747602e+01   4.5741243e+00   0.0000000e+00   0.0000000e+00   0.0000000e+00   0.0000000e+00
   3.5495205e+01   2.0858007e+01   9.1482486e+00   8.3980922e+01   2.5615096e+01   1.6100918e+01   9.6971435e+00   6.0378441e+00   1.3173478e+01   1.6649812e+01   8.4163887e+00   7.8126043e+01   3.0555150e+01   2.1772832e+01   1.0611968e+01   2.0126147e+00   3.0738115e+01   8.4163887e+00   1.8479462e+01   5.4889492e+00   0.0000000e+00   0.0000000e+00   0.0000000e+00   0.0000000e+00
   4.0984154e+01   2.2504692e+01   1.0977898e+01   8.4163887e+01   2.6346956e+01   1.6832777e+01   1.4088303e+01   8.0504588e+00   1.5186093e+01   1.5734988e+01   1.1343828e+01   7.6845288e+01   3.1287010e+01   2.1955797e+01   1.0977898e+01   2.1955797e+00   3.2201835e+01   1.0611968e+01   1.8296497e+01   5.6719141e+00   0.0000000e+00   0.0000000e+00   0.0000000e+00   0.0000000e+00
   4.4277523e+01   2.2687657e+01   1.1526793e+01   8.4529817e+01   2.6712886e+01   1.7015742e+01   1.5003128e+01   8.5993537e+00   1.6649812e+01   1.4454233e+01   1.2075688e+01   7.6113428e+01   3.1287010e+01   2.1223937e+01   1.0429003e+01   1.8296497e+00   3.2201835e+01   1.1526793e+01   1.7015742e+01   5.1230192e+00   0.0000000e+00   0.0000000e+00   0.0000000e+00   0.0000000e+00
   4.3728628e+01   2.1223937e+01   1.0063073e+01   8.4712782e+01   2.6529921e+01   1.6100918e+01   1.1709758e+01   7.1356339e+00   1.7015742e+01   1.2624583e+01   1.0063073e+01   7.5930463e+01   3.0189220e+01   1.9028357e+01   8.7823187e+00   9.1482486e-01   3.0372185e+01   1.0429003e+01   1.4637198e+01   3.1104045e+00   0.0000000e+00   0.0000000e+00   0.0000000e+00   0.0000000e+00
   3.9886364e+01   1.8296497e+01   7.3185989e+00   8.5078712e+01   2.5981026e+01   1.4637198e+01   4.9400542e+00   4.0252294e+00   1.6100918e+01   1.0429003e+01   5.6719141e+00   7.6479358e+01   2.8359571e+01   1.6100918e+01   6.2208091e+00  -9.1482486e-01   2.7444746e+01   7.5015639e+00   1.1160863e+01   1.8296497e-01   0.0000000e+00   0.0000000e+00   0.0000000e+00   0.0000000e+00
   3.4946310e+01   1.5734988e+01   4.9400542e+00   8.5810572e+01   2.5615096e+01   1.3539408e+01  -2.1955797e+00   1.0977898e+00   1.5369058e+01   8.9652836e+00   9.1482486e-01   7.7943078e+01   2.6895851e+01   1.3905338e+01   3.8422644e+00  -2.1955797e+00   2.5249166e+01   4.3911593e+00   8.2334237e+00  -2.1955797e+00   0.0000000e+00   0.0000000e+00   0.0000000e+00   0.0000000e+00
   3.0555150e+01   1.3539408e+01   3.1104045e+00   8.6542432e+01   2.5432131e+01   1.2807548e+01  -7.6845288e+00  -1.0977898e+00   1.4271268e+01   7.5015639e+00  -2.7444746e+00   7.9406798e+01   2.6163991e+01   1.2258653e+01   1.8296497e+00  -3.1104045e+00   2.4334341e+01   1.8296497e+00   6.0378441e+00  -4.0252294e+00   0.0000000e+00   0.0000000e+00   0.0000000e+00   0.0000000e+00
   2.9274396e+01   1.3173478e+01   3.2933695e+00   8.7457257e+01   2.5615096e+01   1.3173478e+01  -8.7823187e+00  -1.0977898e+00   1.4271268e+01   6.9526689e+00  -3.4763345e+00   8.0870518e+01   2.6529921e+01   1.1892723e+01   1.4637198e+00  -3.2933695e+00   2.5615096e+01   1.2807548e+00   5.4889492e+00  -4.2081944e+00   0.0000000e+00   0.0000000e+00   0.0000000e+00   0.0000000e+00
   3.1835905e+01   1.4454233e+01   5.3059842e+00   8.8189117e+01   2.6346956e+01   1.4088303e+01  -5.1230192e+00   9.1482486e-01   1.5369058e+01   7.5015639e+00  -9.1482486e-01   8.1968308e+01   2.7810676e+01   1.2807548e+01   2.3785446e+00  -2.7444746e+00   2.8725501e+01   2.9274396e+00   6.4037740e+00  -2.9274396e+00   0.0000000e+00   0.0000000e+00   0.0000000e+00   0.0000000e+00
   3.7324854e+01   1.6832777e+01   8.5993537e+00   8.8372082e+01   2.7078816e+01   1.5369058e+01   1.6466847e+00   4.2081944e+00   1.7015742e+01   8.9652836e+00   3.6592994e+00   8.2517202e+01   2.9640325e+01   1.4454233e+01   4.0252294e+00  -1.6466847e+00   3.2567765e+01   6.0378441e+00   8.0504588e+00  -9.1482486e-01   0.0000000e+00   0.0000000e+00   0.0000000e+00   0.0000000e+00
   4.3545663e+01   1.9028357e+01   1.1709758e+01   8.8006152e+01   2.7444746e+01   1.6100918e+01   8.7823187e+00   7.6845288e+00   1.8845392e+01   1.1160863e+01   8.4163887e+00   8.2334237e+01   3.1104045e+01   1.5734988e+01   5.4889492e+00  -5.4889492e-01   3.5678170e+01   9.5141786e+00   9.3312136e+00   1.0977898e+00   0.0000000e+00   0.0000000e+00   0.0000000e+00   0.0000000e+00
   4.7936823e+01   2.0309112e+01   1.3722373e+01   8.7640222e+01   2.7078816e+01   1.6283883e+01   1.3356443e+01   9.8801085e+00   2.0309112e+01   1.3356443e+01   1.1709758e+01   8.1785343e+01   3.1835905e+01   1.6283883e+01   6.4037740e+00   1.8296497e-01   3.6775959e+01   1.1709758e+01   9.8801085e+00   2.3785446e+00   0.0000000e+00   0.0000000e+00   0.0000000e+00   0.0000000e+00
   4.9034613e+01   2.0126147e+01   1.4088303e+01   8.7091327e+01   2.6346956e+01   1.5552023e+01   1.3905338e+01   1.0063073e+01   2.0858007e+01   1.4820163e+01   1.2258653e+01   8.1785343e+01   3.1469975e+01   1.6100918e+01   6.2208091e+00   5.4889492e-01   3.5495205e+01   1.1892723e+01   9.3312136e+00   2.5615096e+00   0.0000000e+00   0.0000000e+00   0.0000000e+00   0.0000000e+00
   4.6107173e+01   1.8479462e+01   1.2624583e+01   8.6908362e+01   2.5249166e+01   1.4637198e+01   1.0429003e+01   8.4163887e+00   2.0675042e+01   1.5003128e+01   1.0063073e+01   8.2700167e+01   3.0372185e+01   1.5186093e+01   5.4889492e+00   5.4889492e-01   3.2567765e+01   1.0429003e+01   8.2334237e+00   2.0126147e+00   0.0000000e+00   0.0000000e+00   0.0000000e+00   0.0000000e+00
   4.0435259e+01   1.5734988e+01   1.0246038e+01   8.6908362e+01   2.4151376e+01   1.3722373e+01   4.3911593e+00   5.6719141e+00   2.0492077e+01   1.4088303e+01   6.2208091e+00   8.4346852e+01   2.8908466e+01   1.4271268e+01   4.2081944e+00   5.4889492e-01   2.8908466e+01   7.6845288e+00   6.9526689e+00   9.1482486e-01   0.0000000e+00   0.0000000e+00   0.0000000e+00   0.0000000e+00
   3.4214450e+01   1.2990513e+01   8.0504588e+00   8.7274292e+01   2.3602481e+01   1.3539408e+01  -1.2807548e+00   2.9274396e+00   2.0858007e+01   1.3173478e+01   2.3785446e+00   8.6542432e+01   2.7810676e+01   1.3905338e+01   3.4763345e+00   7.3185989e-01   2.6529921e+01   4.7570893e+00   6.4037740e+00   1.8296497e-01   0.0000000e+00   0.0000000e+00   0.0000000e+00   0.0000000e+00
   2.9274396e+01   1.0977898e+01   6.2208091e+00   8.7274292e+01   2.3602481e+01   1.4088303e+01  -4.3911593e+00   1.0977898e+00   2.2321727e+01   1.2624583e+01  -1.8296497e-01   8.8189117e+01   2.7261781e+01   1.4088303e+01   3.4763345e+00   9.1482486e-01   2.5615096e+01   2.7444746e+00   6.9526689e+00   0.0000000e+00   0.0000000e+00   0.0000000e+00   0.0000000e+00   0.0000000e+00
   2.7810676e+01   1.0611968e+01   6.2208091e+00   8.7457257e+01   2.4517306e+01   1.5552023e+01  -3.4763345e+00   1.0977898e+00   2.4517306e+01   1.3173478e+01   0.0000000e+00   8.9103941e+01   2.7993641e+01   1.5552023e+01   4.5741243e+00   1.6466847e+00   2.7078816e+01   2.5615096e+00   8.9652836e+00   1.0977898e+00   0.0000000e+00   0.0000000e+00   0.0000000e+00   0.0000000e+00
   3.0006255e+01   1.1892723e+01   7.5015639e+00   8.7457257e+01   2.5981026e+01   1.7564637e+01   1.2807548e+00   2.9274396e+00   2.7078816e+01   1.4454233e+01   2.9274396e+00   8.8920976e+01   2.9457361e+01   1.7747602e+01   6.9526689e+00   2.7444746e+00   3.0189220e+01   4.2081944e+00   1.2258653e+01   3.1104045e+00   0.0000000e+00   0.0000000e+00   0.0000000e+00   0.0000000e+00
   3.4946310e+01   1.4454233e+01   9.8801085e+00   8.7274292e+01   2.7627711e+01   1.9760217e+01   8.5993537e+00   6.0378441e+00   2.9091431e+01   1.6283883e+01   7.6845288e+00   8.7640222e+01   3.1469975e+01   2.0309112e+01   9.8801085e+00   4.0252294e+00   3.3665555e+01   7.3185989e+00   1.5734988e+01   5.6719141e+00   0.0000000e+00   0.0000000e+00   0.0000000e+00   0.0000000e+00
   4.0984154e+01   1.7198707e+01   1.2075688e+01   8.6725397e+01   2.8725501e+01   2.1406902e+01   1.5917953e+01   9.1482486e+00   3.0189220e+01   1.7564637e+01   1.2807548e+01   8.5627607e+01   3.3116660e+01   2.2870622e+01   1.2807548e+01   5.1230192e+00   3.6227064e+01   1.0794933e+01   1.8845392e+01   8.0504588e+00   0.0000000e+00   0.0000000e+00   0.0000000e+00   0.0000000e+00
   4.5924208e+01   1.9211322e+01   1.3722373e+01   8.5993537e+01   2.9274396e+01   2.2321727e+01   2.1406902e+01   1.1343828e+01   2.9823290e+01   1.8662427e+01   1.6649812e+01   8.3980922e+01   3.4214450e+01   2.4700271e+01   1.5369058e+01   6.0378441e+00   3.7141889e+01   1.3722373e+01   2.0675042e+01   9.6971435e+00   0.0000000e+00   0.0000000e+00   0.0000000e+00   0.0000000e+00
   4.7936823e+01   1.9760217e+01   1.3722373e+01   8.5261677e+01   2.9091431e+01   2.2321727e+01   2.3053586e+01   1.1709758e+01   2.7627711e+01   1.8845392e+01   1.8113532e+01   8.2517202e+01   3.4031485e+01   2.5432131e+01   1.6649812e+01   6.2208091e+00   3.5861135e+01   1.5003128e+01   2.1040972e+01   9.8801085e+00   0.0000000e+00   0.0000000e+00   0.0000000e+00   0.0000000e+00
   4.6656068e+01   1.8662427e+01   1.2258653e+01   8.4346852e+01   2.8176606e+01   2.1406902e+01   2.0675042e+01   1.0063073e+01   2.3785446e+01   1.8479462e+01   1.7015742e+01   8.1602378e+01   3.2933695e+01   2.5066201e+01   1.6832777e+01   5.6719141e+00   3.2933695e+01   1.4271268e+01   1.9943182e+01   8.7823187e+00   0.0000000e+00   0.0000000e+00   0.0000000e+00   0.0000000e+00
   4.2447874e+01   1.6283883e+01   9.8801085e+00   8.3432027e+01   2.7078816e+01   1.9760217e+01   1.5186093e+01   7.1356339e+00   1.9394287e+01   1.7747602e+01   1.3539408e+01   8.1053483e+01   3.0921080e+01   2.3785446e+01   1.5917953e+01   4.5741243e+00   2.9091431e+01   1.1892723e+01   1.7930567e+01   6.9526689e+00   0.0000000e+00   0.0000000e+00   0.0000000e+00   0.0000000e+00
   3.6775959e+01   1.3905338e+01   7.3185989e+00   8.2517202e+01   2.5615096e+01   1.7930567e+01   8.9652836e+00   3.8422644e+00   1.5186093e+01   1.6832777e+01   9.3312136e+00   8.0138658e+01   2.8908466e+01   2.2321727e+01   1.4637198e+01   3.4763345e+00   2.5432131e+01   8.9652836e+00   1.6100918e+01   5.1230192e+00   0.0000000e+00   0.0000000e+00   0.0000000e+00   0.0000000e+00
   3.1652940e+01   1.1892723e+01   5.4889492e+00   8.1419413e+01   2.4151376e+01   1.6283883e+01   4.3911593e+00   1.6466847e+00   1.1892723e+01   1.5186093e+01   5.8548791e+00   7.8309008e+01   2.7261781e+01   2.1040972e+01   1.3539408e+01   2.7444746e+00   2.2687657e+01   6.2208091e+00   1.4820163e+01   3.8422644e+00   0.0000000e+00   0.0000000e+00   0.0000000e+00   0.0000000e+00
   2.9274396e+01   1.1343828e+01   5.4889492e+00   8.0138658e+01   2.3053586e+01   1.5186093e+01   3.4763345e+00   1.2807548e+00   1.0246038e+01   1.4088303e+01   4.7570893e+00   7.5930463e+01   2.6529921e+01   2.0309112e+01   1.3356443e+01   2.9274396e+00   2.1955797e+01   5.1230192e+00   1.5003128e+01   3.8422644e+00   0.0000000e+00   0.0000000e+00   0.0000000e+00   0.0000000e+00
   3.0006255e+01   1.1892723e+01   7.1356339e+00   7.8674938e+01   2.1772832e+01   1.4637198e+01   6.2208091e+00   3.1104045e+00   1.0063073e+01   1.3173478e+01   6.2208091e+00   7.3003024e+01   2.6712886e+01   2.0492077e+01   1.4088303e+01   3.6592994e+00   2.2504692e+01   5.8548791e+00   1.6283883e+01   5.1230192e+00   0.0000000e+00   0.0000000e+00   0.0000000e+00   0.0000000e+00
   3.3299625e+01   1.2807548e+01   9.5141786e+00   7.6662323e+01   2.0309112e+01   1.3905338e+01   1.1526793e+01   5.8548791e+00   1.0246038e+01   1.2807548e+01   9.5141786e+00   6.9709654e+01   2.6895851e+01   2.0492077e+01   1.5369058e+01   4.7570893e+00   2.3419516e+01   7.6845288e+00   1.8113532e+01   6.7697040e+00   0.0000000e+00   0.0000000e+00   0.0000000e+00   0.0000000e+00
   3.7690784e+01   1.3905338e+01   1.2075688e+01   7.5015639e+01   1.9028357e+01   1.3173478e+01   1.7198707e+01   9.1482486e+00   1.0977898e+01   1.2624583e+01   1.3356443e+01   6.6965180e+01   2.7078816e+01   2.0492077e+01   1.6832777e+01   6.0378441e+00   2.4151376e+01   1.0063073e+01   1.9943182e+01   8.5993537e+00   0.0000000e+00   0.0000000e+00   0.0000000e+00   0.0000000e+00
   4.0984154e+01   1.3905338e+01   1.3722373e+01   7.3185989e+01   1.7564637e+01   1.2075688e+01   2.0858007e+01   1.1160863e+01   1.1343828e+01   1.2258653e+01   1.6100918e+01   6.4952565e+01   2.6529921e+01   1.9760217e+01   1.7930567e+01   6.9526689e+00   2.3419516e+01   1.1526793e+01   2.1040972e+01   9.6971435e+00   0.0000000e+00   0.0000000e+00   0.0000000e+00   0.0000000e+00
   4.1533049e+01   1.2990513e+01   1.3722373e+01   7.1905234e+01   1.5917953e+01   1.0794933e+01   2.0675042e+01   1.1526793e+01   1.0977898e+01   1.0794933e+01   1.6466847e+01   6.3671810e+01   2.5249166e+01   1.8296497e+01   1.8113532e+01   7.5015639e+00   2.0858007e+01   1.1343828e+01   2.1223937e+01   9.6971435e+00   0.0000000e+00   0.0000000e+00   0.0000000e+00   0.0000000e+00
   3.8422644e+01   1.0794933e+01   1.1892723e+01   7.0990409e+01   1.4088303e+01   8.9652836e+00   1.6649812e+01   9.8801085e+00   9.6971435e+00   8.5993537e+00   1.4088303e+01   6.3305880e+01   2.2870622e+01   1.6100918e+01   1.7198707e+01   7.1356339e+00   1.6649812e+01   9.1482486e+00   2.0492077e+01   8.7823187e+00   0.0000000e+00   0.0000000e+00   0.0000000e+00   0.0000000e+00
   3.2567765e+01   8.0504588e+00   9.1482486e+00   7.0624479e+01   1.2258653e+01   7.3185989e+00   1.0063073e+01   6.7697040e+00   8.2334237e+00   6.0378441e+00   9.8801085e+00   6.3854775e+01   2.0309112e+01   1.3905338e+01   1.6100918e+01   6.5867390e+00   1.2075688e+01   5.6719141e+00   1.9577252e+01   7.3185989e+00   0.0000000e+00   0.0000000e+00   0.0000000e+00   0.0000000e+00
   2.5798061e+01   5.4889492e+00   6.2208091e+00   7.0441514e+01   1.0794933e+01   6.4037740e+00   3.4763345e+00   3.6592994e+00   7.3185989e+00   4.2081944e+00   5.3059842e+00   6.5318495e+01   1.7930567e+01   1.2258653e+01   1.5003128e+01   5.8548791e+00   8.2334237e+00   1.8296497e+00   1.9211322e+01   6.4037740e+00   0.0000000e+00   0.0000000e+00   0.0000000e+00   0.0000000e+00
   2.0675042e+01   4.3911593e+00   4.5741243e+00   7.0807444e+01   1.0246038e+01   6.5867390e+00  -5.4889492e-01   1.8296497e+00   8.0504588e+00   3.8422644e+00   2.3785446e+00   6.7514075e+01   1.6649812e+01   1.1892723e+01   1.5003128e+01   5.8548791e+00   6.7697040e+00  -5.4889492e-01   1.9943182e+01   6.4037740e+00   0.0000000e+00   0.0000000e+00   0.0000000e+00   0.0000000e+00
   1.8662427e+01   4.7570893e+00   4.5741243e+00   7.0990409e+01   1.0429003e+01   7.6845288e+00  -3.6592994e-01   1.8296497e+00   1.0246038e+01   4.7570893e+00   1.8296497e+00   6.9526689e+01   1.6649812e+01   1.2624583e+01   1.5917953e+01   6.2208091e+00   7.6845288e+00  -1.0977898e+00   2.1955797e+01   7.5015639e+00   0.0000000e+00   0.0000000e+00   0.0000000e+00   0.0000000e+00
   2.0492077e+01   6.5867390e+00   6.4037740e+00   7.1539304e+01   1.1526793e+01   9.6971435e+00   4.0252294e+00   4.0252294e+00   1.4088303e+01   6.4037740e+00   4.2081944e+00   7.1173374e+01   1.8113532e+01   1.4454233e+01   1.7930567e+01   7.1356339e+00   1.0977898e+01   5.4889492e-01   2.4883236e+01   9.5141786e+00   0.0000000e+00   0.0000000e+00   0.0000000e+00   0.0000000e+00
   2.5249166e+01   8.9652836e+00   9.1482486e+00   7.1905234e+01   1.2807548e+01   1.1709758e+01   1.0977898e+01   7.1356339e+00   1.8113532e+01   7.8674938e+00   8.4163887e+00   7.1905234e+01   2.0126147e+01   1.6832777e+01   2.0126147e+01   8.0504588e+00   1.5003128e+01   3.4763345e+00   2.8176606e+01   1.1892723e+01   0.0000000e+00   0.0000000e+00   0.0000000e+00   0.0000000e+00
   3.1104045e+01   1.1709758e+01   1.2258653e+01   7.2454129e+01   1.4271268e+01   1.3722373e+01   1.8479462e+01   1.0611968e+01   2.1589867e+01   8.9652836e+00   1.3173478e+01   7.2088199e+01   2.2687657e+01   1.9211322e+01   2.2504692e+01   8.9652836e+00   1.9211322e+01   7.1356339e+00   3.1287010e+01   1.4271268e+01   0.0000000e+00   0.0000000e+00   0.0000000e+00   0.0000000e+00
   3.6410029e+01   1.3356443e+01   1.4454233e+01   7.2820059e+01   1.5369058e+01   1.5186093e+01   2.3968411e+01   1.3356443e+01   2.3236551e+01   9.6971435e+00   1.6832777e+01   7.1905234e+01   2.4700271e+01   2.1040972e+01   2.4151376e+01   9.5141786e+00   2.2138762e+01   1.0246038e+01   3.3299625e+01   1.5917953e+01   0.0000000e+00   0.0000000e+00   0.0000000e+00   0.0000000e+00
   3.9154504e+01   1.4088303e+01   1.5186093e+01   7.3368954e+01   1.6283883e+01   1.6100918e+01   2.6346956e+01   1.4637198e+01   2.2870622e+01   1.0429003e+01   1.8296497e+01   7.1905234e+01   2.6163991e+01   2.1955797e+01   2.5066201e+01   9.6971435e+00   2.3236551e+01   1.2258653e+01   3.4031485e+01   1.6283883e+01   0.0000000e+00   0.0000000e+00   0.0000000e+00   0.0000000e+00
   3.9154504e+01   1.3539408e+01   1.4454233e+01   7.3917849e+01   1.7198707e+01   1.6649812e+01   2.5432131e+01   1.4271268e+01   2.0858007e+01   1.1343828e+01   1.7564637e+01   7.2271164e+01   2.6895851e+01   2.2138762e+01   2.4883236e+01   9.6971435e+00   2.3053586e+01   1.2624583e+01   3.3848520e+01   1.5917953e+01   0.0000000e+00   0.0000000e+00   0.0000000e+00   0.0000000e+00
