nt = 4200
nc = 24
channels = F7 T3 T5 Fp1 F3 C3 P3 O1 F8 T4 T6 Fp2 F4 C4 P4 O2 Fz Cz Pz Oz TR SOn Occ RAp
ne = 20
type = B
fsmp = 600.0000000000
orig.file = s7_bl1
orig.nt = 286880
orig.sample_range = 256541 260740
orig.fsmp = 600
orig.subject = 7
orig.run = 46
   9.9243067e+00   5.1222228e+00   6.7229175e+00   6.1466674e+01   5.2822923e+01   2.8492364e+01   9.9243067e+00   0.0000000e+00   1.1909168e+02   8.3236121e+00   1.1525001e+01   1.7607641e+02   3.9056949e+01   1.4726391e+01   1.4406252e+01   7.0430564e+00   2.3370142e+01   1.8247919e+01   1.3445835e+01   3.5215282e+00   0.0000000e+00   0.0000000e+00   0.0000000e+00   0.0000000e+00
   7.0430564e+00   3.8416671e+00   5.1222228e+00   5.2502784e+01   5.4103479e+01   2.8812503e+01   8.3236121e+00  -1.9208336e+00   1.1749099e+02   8.3236121e+00   9.9243067e+00   1.7511599e+02   3.9056949e+01   1.3445835e+01   1.2165279e+01   5.4423618e+00   2.3050003e+01   1.7927780e+01   1.1525001e+01   1.9208336e+00   0.0000000e+00   0.0000000e+00   0.0000000e+00   0.0000000e+00
   5.1222228e+00   3.8416671e+00   4.1618060e+00   4.8020839e+01   5.5063895e+01   2.8812503e+01   7.0430564e+00  -2.5611114e+00   1.1653057e+02   8.3236121e+00   8.3236121e+00   1.7319516e+02   3.9377088e+01   1.2485418e+01   1.0244446e+01   4.1618060e+00   2.2729864e+01   1.8568058e+01   1.0244446e+01   3.2013893e-01   0.0000000e+00   0.0000000e+00   0.0000000e+00   0.0000000e+00
   5.1222228e+00   4.8020839e+00   3.8416671e+00   4.8020839e+01   5.6344451e+01   2.9452781e+01   6.4027785e+00  -2.2409725e+00   1.1621043e+02   8.3236121e+00   7.0430564e+00   1.7223474e+02   4.0017366e+01   1.2165279e+01   9.2840289e+00   3.5215282e+00   2.3370142e+01   1.9528475e+01   1.0244446e+01  -3.2013893e-01   0.0000000e+00   0.0000000e+00   0.0000000e+00   0.0000000e+00
   6.0826396e+00   5.7625007e+00   3.8416671e+00   5.0581950e+01   5.7625007e+01   3.0413198e+01   6.4027785e+00  -9.6041678e-01   1.1621043e+02   8.3236121e+00   6.4027785e+00   1.7319516e+02   4.0337505e+01   1.2805557e+01   9.2840289e+00   3.2013893e+00   2.4330558e+01   2.1129169e+01   1.0884724e+01   0.0000000e+00   0.0000000e+00   0.0000000e+00   0.0000000e+00   0.0000000e+00
   8.6437510e+00   7.0430564e+00   4.8020839e+00   5.4423618e+01   5.8905562e+01   3.2013893e+01   7.0430564e+00   3.2013893e-01   1.1685071e+02   1.0564585e+01   7.3631953e+00   1.7575627e+02   4.0977783e+01   1.4406252e+01   9.9243067e+00   3.8416671e+00   2.5931253e+01   2.3050003e+01   1.2485418e+01   6.4027785e-01   0.0000000e+00   0.0000000e+00   0.0000000e+00   0.0000000e+00
   1.1525001e+01   8.0034732e+00   5.1222228e+00   5.7625007e+01   5.9865979e+01   3.3294448e+01   7.3631953e+00   9.6041678e-01   1.1781112e+02   1.4086113e+01   8.9638899e+00   1.7863752e+02   4.0977783e+01   1.5366668e+01   1.0244446e+01   4.1618060e+00   2.7211809e+01   2.4650697e+01   1.3445835e+01   1.2805557e+00   0.0000000e+00   0.0000000e+00   0.0000000e+00   0.0000000e+00
   1.4406252e+01   8.9638899e+00   5.4423618e+00   6.1466674e+01   5.9545840e+01   3.3934726e+01   7.0430564e+00   9.6041678e-01   1.1941182e+02   1.7287502e+01   1.0564585e+01   1.8151877e+02   4.0977783e+01   1.5686807e+01   9.9243067e+00   4.4819450e+00   2.8172226e+01   2.5290975e+01   1.3765974e+01   1.6006946e+00   0.0000000e+00   0.0000000e+00   0.0000000e+00   0.0000000e+00
   1.6647224e+01   1.0244446e+01   5.4423618e+00   6.5628480e+01   5.8265285e+01   3.3614587e+01   6.0826396e+00   3.2013893e-01   1.2133265e+02   1.7607641e+01   1.1204862e+01   1.8375974e+02   4.0657644e+01   1.4726391e+01   8.6437510e+00   4.1618060e+00   2.8492364e+01   2.4970836e+01   1.3125696e+01   1.2805557e+00   0.0000000e+00   0.0000000e+00   0.0000000e+00   0.0000000e+00
   1.8888197e+01   1.1845140e+01   5.4423618e+00   7.0750703e+01   5.6984729e+01   3.3614587e+01   5.4423618e+00  -3.2013893e-01   1.2293335e+02   1.4406252e+01   1.1204862e+01   1.8504030e+02   4.0337505e+01   1.3765974e+01   7.3631953e+00   3.8416671e+00   2.9132642e+01   2.4650697e+01   1.3125696e+01   9.6041678e-01   0.0000000e+00   0.0000000e+00   0.0000000e+00   0.0000000e+00
   2.0488891e+01   1.4086113e+01   5.7625007e+00   7.5552787e+01   5.6024312e+01   3.3294448e+01   5.1222228e+00  -6.4027785e-01   1.2421390e+02   9.2840289e+00   1.0884724e+01   1.8600072e+02   4.0337505e+01   1.3445835e+01   6.7229175e+00   3.5215282e+00   2.9772920e+01   2.3690281e+01   1.3445835e+01   6.4027785e-01   0.0000000e+00   0.0000000e+00   0.0000000e+00   0.0000000e+00
   2.1769447e+01   1.6647224e+01   5.7625007e+00   7.8754176e+01   5.5384034e+01   3.3294448e+01   5.1222228e+00  -6.4027785e-01   1.2421390e+02   3.8416671e+00   1.0244446e+01   1.8696113e+02   4.0657644e+01   1.3445835e+01   6.4027785e+00   2.8812503e+00   3.0413198e+01   2.2729864e+01   1.3765974e+01   3.2013893e-01   0.0000000e+00   0.0000000e+00   0.0000000e+00   0.0000000e+00
   2.1769447e+01   1.7927780e+01   4.8020839e+00   7.9394454e+01   5.4743756e+01   3.2654171e+01   5.1222228e+00  -1.2805557e+00   1.2325349e+02  -3.2013893e-01   9.2840289e+00   1.8888197e+02   4.0657644e+01   1.3445835e+01   5.7625007e+00   1.6006946e+00   3.0733337e+01   2.1129169e+01   1.3445835e+01  -3.2013893e-01   0.0000000e+00   0.0000000e+00   0.0000000e+00   0.0000000e+00
   2.1449308e+01   1.7607641e+01   3.8416671e+00   7.8434037e+01   5.4743756e+01   3.1693754e+01   5.1222228e+00  -2.5611114e+00   1.2261321e+02  -2.2409725e+00   8.9638899e+00   1.9304377e+02   4.0657644e+01   1.2805557e+01   5.1222228e+00   6.4027785e-01   3.0413198e+01   1.9208336e+01   1.2485418e+01  -1.2805557e+00   0.0000000e+00   0.0000000e+00   0.0000000e+00   0.0000000e+00
   2.1129169e+01   1.5686807e+01   2.8812503e+00   7.7793759e+01   5.5063895e+01   3.1053476e+01   5.1222228e+00  -4.1618060e+00   1.2261321e+02  -2.8812503e+00   8.9638899e+00   1.9848613e+02   4.0337505e+01   1.2165279e+01   4.4819450e+00   0.0000000e+00   3.0413198e+01   1.7607641e+01   1.1204862e+01  -2.2409725e+00   0.0000000e+00   0.0000000e+00   0.0000000e+00   0.0000000e+00
   2.0168752e+01   1.2805557e+01   1.2805557e+00   7.7153481e+01   5.5063895e+01   2.9772920e+01   4.8020839e+00  -5.7625007e+00   1.2325349e+02  -3.5215282e+00   8.6437510e+00   2.0232780e+02   3.9377088e+01   1.0564585e+01   3.2013893e+00  -6.4027785e-01   2.9452781e+01   1.6006946e+01   9.2840289e+00  -3.5215282e+00   0.0000000e+00   0.0000000e+00   0.0000000e+00   0.0000000e+00
   2.0168752e+01   1.0884724e+01   3.2013893e-01   7.7153481e+01   5.5063895e+01   2.9132642e+01   4.8020839e+00  -7.0430564e+00   1.2485418e+02  -4.1618060e+00   8.0034732e+00   2.0456877e+02   3.8416671e+01   8.9638899e+00   2.8812503e+00  -9.6041678e-01   2.9132642e+01   1.5046530e+01   8.0034732e+00  -4.1618060e+00   0.0000000e+00   0.0000000e+00   0.0000000e+00   0.0000000e+00
   2.0168752e+01   1.0244446e+01  -6.4027785e-01   7.7153481e+01   5.5384034e+01   2.8172226e+01   4.8020839e+00  -7.6833342e+00   1.2581460e+02  -4.1618060e+00   7.0430564e+00   2.0424864e+02   3.6815977e+01   8.0034732e+00   2.5611114e+00  -1.2805557e+00   2.8812503e+01   1.4406252e+01   7.0430564e+00  -4.8020839e+00   0.0000000e+00   0.0000000e+00   0.0000000e+00   0.0000000e+00
   2.0488891e+01   1.0884724e+01  -9.6041678e-01   7.7153481e+01   5.5704173e+01   2.7852087e+01   5.4423618e+00  -7.6833342e+00   1.2581460e+02  -3.2013893e+00   6.4027785e+00   2.0200766e+02   3.6175699e+01   7.6833342e+00   3.2013893e+00  -1.6006946e+00   2.8812503e+01   1.4086113e+01   7.0430564e+00  -4.8020839e+00   0.0000000e+00   0.0000000e+00   0.0000000e+00   0.0000000e+00
   2.1129169e+01   1.1845140e+01  -9.6041678e-01   7.6513203e+01   5.5704173e+01   2.7531948e+01   5.7625007e+00  -7.6833342e+00   1.2549446e+02  -9.6041678e-01   6.4027785e+00   1.9880627e+02   3.5535421e+01   8.0034732e+00   4.1618060e+00  -1.6006946e+00   2.9132642e+01   1.4086113e+01   7.3631953e+00  -4.4819450e+00   0.0000000e+00   0.0000000e+00   0.0000000e+00   0.0000000e+00
   2.1449308e+01   1.2485418e+01  -1.2805557e+00   7.5552787e+01   5.4743756e+01   2.6891670e+01   5.1222228e+00  -8.0034732e+00   1.2421390e+02   1.2805557e+00   6.7229175e+00   1.9528475e+02   3.4895143e+01   8.0034732e+00   4.4819450e+00  -1.6006946e+00   2.8812503e+01   1.4406252e+01   7.3631953e+00  -4.1618060e+00   0.0000000e+00   0.0000000e+00   0.0000000e+00   0.0000000e+00
   2.2089586e+01   1.3125696e+01  -1.6006946e+00   7.4912509e+01   5.3143062e+01   2.5611114e+01   4.1618060e+00  -8.6437510e+00   1.2389376e+02   3.2013893e+00   7.3631953e+00   1.9400419e+02   3.3934726e+01   7.6833342e+00   4.8020839e+00  -1.6006946e+00   2.8492364e+01   1.4726391e+01   7.3631953e+00  -3.8416671e+00   0.0000000e+00   0.0000000e+00   0.0000000e+00   0.0000000e+00
   2.2729864e+01   1.4086113e+01  -2.2409725e+00   7.5872926e+01   5.0902089e+01   2.4330558e+01   2.8812503e+00  -9.6041678e+00   1.2389376e+02   5.1222228e+00   8.3236121e+00   1.9656530e+02   3.2654171e+01   7.3631953e+00   5.1222228e+00  -1.2805557e+00   2.7852087e+01   1.5686807e+01   7.3631953e+00  -3.5215282e+00   0.0000000e+00   0.0000000e+00   0.0000000e+00   0.0000000e+00
   2.2089586e+01   1.5366668e+01  -3.2013893e+00   7.8113898e+01   4.8020839e+01   2.2729864e+01   1.2805557e+00  -1.0564585e+01   1.2357363e+02   7.0430564e+00   8.6437510e+00   2.0136738e+02   3.1053476e+01   6.4027785e+00   4.8020839e+00  -1.2805557e+00   2.6571531e+01   1.6006946e+01   7.0430564e+00  -3.5215282e+00   0.0000000e+00   0.0000000e+00   0.0000000e+00   0.0000000e+00
   2.0488891e+01   1.6327085e+01  -3.8416671e+00   8.1635426e+01   4.5139589e+01   2.1769447e+01   0.0000000e+00  -1.0884724e+01   1.2357363e+02   9.6041678e+00   8.3236121e+00   2.0712989e+02   2.9452781e+01   6.0826396e+00   4.8020839e+00  -6.4027785e-01   2.5290975e+01   1.6647224e+01   7.3631953e+00  -3.5215282e+00   0.0000000e+00   0.0000000e+00   0.0000000e+00   0.0000000e+00
   1.7287502e+01   1.6006946e+01  -4.4819450e+00   8.3876399e+01   4.3218755e+01   2.1449308e+01  -3.2013893e-01  -1.0564585e+01   1.2357363e+02   1.2805557e+01   8.0034732e+00   2.1001114e+02   2.8812503e+01   5.7625007e+00   5.1222228e+00  -3.2013893e-01   2.4330558e+01   1.6967363e+01   8.3236121e+00  -3.2013893e+00   0.0000000e+00   0.0000000e+00   0.0000000e+00   0.0000000e+00
   1.3765974e+01   1.3765974e+01  -4.4819450e+00   8.2915982e+01   4.1297922e+01   2.1769447e+01   0.0000000e+00  -9.9243067e+00   1.2421390e+02   1.5366668e+01   7.6833342e+00   2.0841044e+02   2.8492364e+01   6.0826396e+00   5.4423618e+00   0.0000000e+00   2.3370142e+01   1.6647224e+01   9.2840289e+00  -2.8812503e+00   0.0000000e+00   0.0000000e+00   0.0000000e+00   0.0000000e+00
   1.0884724e+01   1.0244446e+01  -4.1618060e+00   7.8113898e+01   4.0017366e+01   2.2089586e+01   6.4027785e-01  -9.2840289e+00   1.2485418e+02   1.6967363e+01   8.0034732e+00   2.0328822e+02   2.8812503e+01   6.4027785e+00   5.7625007e+00   3.2013893e-01   2.3050003e+01   1.6006946e+01   1.0564585e+01  -1.9208336e+00   0.0000000e+00   0.0000000e+00   0.0000000e+00   0.0000000e+00
   9.2840289e+00   7.3631953e+00  -2.8812503e+00   7.1711120e+01   3.9697227e+01   2.3370142e+01   1.9208336e+00  -8.0034732e+00   1.2581460e+02   1.6967363e+01   9.2840289e+00   1.9688544e+02   3.0093059e+01   7.3631953e+00   7.0430564e+00   1.2805557e+00   2.3370142e+01   1.6006946e+01   1.1845140e+01  -3.2013893e-01   0.0000000e+00   0.0000000e+00   0.0000000e+00   0.0000000e+00
   8.9638899e+00   5.1222228e+00  -1.2805557e+00   6.5628480e+01   4.0337505e+01   2.4650697e+01   3.2013893e+00  -7.0430564e+00   1.2613474e+02   1.5366668e+01   1.0564585e+01   1.9080280e+02   3.1693754e+01   8.3236121e+00   8.0034732e+00   1.9208336e+00   2.4330558e+01   1.5686807e+01   1.3445835e+01   1.2805557e+00   0.0000000e+00   0.0000000e+00   0.0000000e+00   0.0000000e+00
   8.6437510e+00   3.8416671e+00  -3.2013893e-01   6.2427091e+01   4.1618060e+01   2.5611114e+01   3.8416671e+00  -6.4027785e+00   1.2581460e+02   1.2485418e+01   1.1204862e+01   1.8536044e+02   3.2974309e+01   9.2840289e+00   8.9638899e+00   2.2409725e+00   2.5290975e+01   1.5366668e+01   1.4406252e+01   2.2409725e+00   0.0000000e+00   0.0000000e+00   0.0000000e+00   0.0000000e+00
   8.3236121e+00   2.8812503e+00   0.0000000e+00   6.1466674e+01   4.2898616e+01   2.6571531e+01   4.1618060e+00  -6.0826396e+00   1.2581460e+02   9.6041678e+00   1.1525001e+01   1.8023822e+02   3.4254865e+01   9.9243067e+00   9.9243067e+00   2.2409725e+00   2.5931253e+01   1.4406252e+01   1.5046530e+01   2.5611114e+00   0.0000000e+00   0.0000000e+00   0.0000000e+00   0.0000000e+00
   8.0034732e+00   2.5611114e+00   6.4027785e-01   6.2106952e+01   4.4819450e+01   2.7531948e+01   4.4819450e+00  -5.4423618e+00   1.2709515e+02   8.0034732e+00   1.1845140e+01   1.7671669e+02   3.6175699e+01   1.1525001e+01   1.1525001e+01   2.5611114e+00   2.6891670e+01   1.3765974e+01   1.6327085e+01   2.8812503e+00   0.0000000e+00   0.0000000e+00   0.0000000e+00   0.0000000e+00
   8.0034732e+00   1.9208336e+00   1.2805557e+00   6.2106952e+01   4.6420144e+01   2.8812503e+01   4.8020839e+00  -4.8020839e+00   1.2837571e+02   6.7229175e+00   1.1845140e+01   1.7479585e+02   3.8096532e+01   1.3125696e+01   1.3125696e+01   2.8812503e+00   2.7852087e+01   1.3445835e+01   1.7607641e+01   3.5215282e+00   0.0000000e+00   0.0000000e+00   0.0000000e+00   0.0000000e+00
   8.6437510e+00   1.2805557e+00   1.9208336e+00   6.0506257e+01   4.8020839e+01   2.9452781e+01   5.1222228e+00  -3.8416671e+00   1.2997640e+02   6.0826396e+00   1.2485418e+01   1.7511599e+02   4.0337505e+01   1.4726391e+01   1.4726391e+01   3.8416671e+00   2.9132642e+01   1.3125696e+01   1.8888197e+01   4.4819450e+00   0.0000000e+00   0.0000000e+00   0.0000000e+00   0.0000000e+00
   9.9243067e+00   1.2805557e+00   3.2013893e+00   5.8905562e+01   4.9621534e+01   3.0093059e+01   5.4423618e+00  -3.2013893e+00   1.3157710e+02   5.7625007e+00   1.3125696e+01   1.7831738e+02   4.2898616e+01   1.5686807e+01   1.6006946e+01   4.8020839e+00   3.0413198e+01   1.3445835e+01   1.9848613e+01   5.4423618e+00   0.0000000e+00   0.0000000e+00   0.0000000e+00   0.0000000e+00
   1.0564585e+01   1.6006946e+00   3.5215282e+00   5.7625007e+01   5.0261811e+01   2.9772920e+01   4.8020839e+00  -2.8812503e+00   1.3189724e+02   5.1222228e+00   1.2805557e+01   1.8215905e+02   4.4179172e+01   1.5686807e+01   1.6327085e+01   5.4423618e+00   3.1053476e+01   1.3445835e+01   2.0168752e+01   6.0826396e+00   0.0000000e+00   0.0000000e+00   0.0000000e+00   0.0000000e+00
   1.0244446e+01   2.5611114e+00   2.8812503e+00   5.7945146e+01   5.0261811e+01   2.8812503e+01   3.8416671e+00  -2.8812503e+00   1.3189724e+02   4.1618060e+00   1.2165279e+01   1.8664099e+02   4.4499311e+01   1.5046530e+01   1.6006946e+01   5.4423618e+00   3.0733337e+01   1.3445835e+01   1.9848613e+01   6.0826396e+00   0.0000000e+00   0.0000000e+00   0.0000000e+00   0.0000000e+00
   9.2840289e+00   3.5215282e+00   2.5611114e+00   5.9545840e+01   4.9621534e+01   2.8172226e+01   3.5215282e+00  -2.5611114e+00   1.3157710e+02   4.1618060e+00   1.1525001e+01   1.9048266e+02   4.4499311e+01   1.4726391e+01   1.5686807e+01   5.4423618e+00   3.0093059e+01   1.3765974e+01   1.9848613e+01   6.4027785e+00   0.0000000e+00   0.0000000e+00   0.0000000e+00   0.0000000e+00
   8.0034732e+00   5.1222228e+00   2.5611114e+00   6.1466674e+01   4.8981256e+01   2.8172226e+01   4.1618060e+00  -1.6006946e+00   1.3093682e+02   5.1222228e+00   1.1204862e+01   1.9368405e+02   4.4179172e+01   1.4726391e+01   1.6327085e+01   5.7625007e+00   2.9452781e+01   1.4726391e+01   2.0809030e+01   7.0430564e+00   0.0000000e+00   0.0000000e+00   0.0000000e+00   0.0000000e+00
   6.7229175e+00   7.0430564e+00   3.5215282e+00   6.2747230e+01   4.8661117e+01   2.8812503e+01   5.4423618e+00   3.2013893e-01   1.3093682e+02   6.7229175e+00   1.1845140e+01   1.9624516e+02   4.4499311e+01   1.5686807e+01   1.7927780e+01   7.0430564e+00   2.9452781e+01   1.6647224e+01   2.2729864e+01   8.6437510e+00   0.0000000e+00   0.0000000e+00   0.0000000e+00   0.0000000e+00
   5.7625007e+00   8.9638899e+00   5.1222228e+00   6.3067369e+01   4.8981256e+01   3.0413198e+01   7.3631953e+00   2.5611114e+00   1.3093682e+02   8.6437510e+00   1.3125696e+01   1.9848613e+02   4.5139589e+01   1.6967363e+01   1.9848613e+01   8.9638899e+00   3.0093059e+01   1.8888197e+01   2.4010419e+01   1.0884724e+01   0.0000000e+00   0.0000000e+00   0.0000000e+00   0.0000000e+00
   5.4423618e+00   9.9243067e+00   6.4027785e+00   6.3067369e+01   4.9621534e+01   3.1693754e+01   8.9638899e+00   3.8416671e+00   1.3061668e+02   1.0564585e+01   1.4406252e+01   2.0008683e+02   4.6740283e+01   1.7927780e+01   2.1129169e+01   1.0564585e+01   3.1373615e+01   2.1769447e+01   2.4970836e+01   1.3125696e+01   0.0000000e+00   0.0000000e+00   0.0000000e+00   0.0000000e+00
   6.0826396e+00   1.0244446e+01   7.6833342e+00   6.3067369e+01   5.0581950e+01   3.2654171e+01   9.6041678e+00   4.4819450e+00   1.3061668e+02   1.1204862e+01   1.5046530e+01   2.0104725e+02   4.7700700e+01   1.7927780e+01   2.1769447e+01   1.1525001e+01   3.2974309e+01   2.4010419e+01   2.4650697e+01   1.4406252e+01   0.0000000e+00   0.0000000e+00   0.0000000e+00   0.0000000e+00
   7.6833342e+00   9.6041678e+00   7.6833342e+00   6.3067369e+01   5.1222228e+01   3.2654171e+01   8.9638899e+00   4.1618060e+00   1.2965627e+02   1.0564585e+01   1.4406252e+01   2.0072711e+02   4.7380561e+01   1.6967363e+01   2.1449308e+01   1.1525001e+01   3.3614587e+01   2.5611114e+01   2.3370142e+01   1.4406252e+01   0.0000000e+00   0.0000000e+00   0.0000000e+00   0.0000000e+00
   9.6041678e+00   8.9638899e+00   7.3631953e+00   6.3067369e+01   5.0902089e+01   3.2334032e+01   7.6833342e+00   3.5215282e+00   1.2869585e+02   8.6437510e+00   1.3125696e+01   1.9944655e+02   4.6420144e+01   1.5686807e+01   2.0809030e+01   1.0884724e+01   3.3294448e+01   2.6251392e+01   2.1769447e+01   1.3445835e+01   0.0000000e+00   0.0000000e+00   0.0000000e+00   0.0000000e+00
   1.1204862e+01   8.6437510e+00   7.0430564e+00   6.3067369e+01   5.0581950e+01   3.2013893e+01   6.4027785e+00   3.2013893e+00   1.2805557e+02   6.4027785e+00   1.1525001e+01   1.9784586e+02   4.5139589e+01   1.4726391e+01   1.9848613e+01   9.9243067e+00   3.2654171e+01   2.6251392e+01   2.0168752e+01   1.2165279e+01   0.0000000e+00   0.0000000e+00   0.0000000e+00   0.0000000e+00
   1.2165279e+01   8.6437510e+00   6.4027785e+00   6.3067369e+01   4.9621534e+01   3.1373615e+01   4.4819450e+00   2.8812503e+00   1.2741529e+02   4.4819450e+00   1.0564585e+01   1.9592502e+02   4.3538894e+01   1.3765974e+01   1.8888197e+01   9.2840289e+00   3.1373615e+01   2.5611114e+01   1.8888197e+01   1.0564585e+01   0.0000000e+00   0.0000000e+00   0.0000000e+00   0.0000000e+00
   1.2485418e+01   8.6437510e+00   6.0826396e+00   6.3067369e+01   4.8340978e+01   3.0733337e+01   2.5611114e+00   2.5611114e+00   1.2709515e+02   4.1618060e+00   1.0244446e+01   1.9528475e+02   4.2258338e+01   1.2805557e+01   1.8247919e+01   8.3236121e+00   3.0093059e+01   2.4970836e+01   1.7607641e+01   8.9638899e+00   0.0000000e+00   0.0000000e+00   0.0000000e+00   0.0000000e+00
   1.2165279e+01   7.6833342e+00   5.4423618e+00   6.4027785e+01   4.7060422e+01   3.0093059e+01   6.4027785e-01   1.6006946e+00   1.2773543e+02   5.1222228e+00   1.0244446e+01   1.9592502e+02   4.1297922e+01   1.2165279e+01   1.7287502e+01   7.6833342e+00   2.9132642e+01   2.3690281e+01   1.6006946e+01   7.3631953e+00   0.0000000e+00   0.0000000e+00   0.0000000e+00   0.0000000e+00
   1.1204862e+01   6.0826396e+00   4.1618060e+00   6.4347924e+01   4.5459728e+01   2.8812503e+01  -1.6006946e+00  -3.2013893e-01   1.2837571e+02   6.7229175e+00   1.0244446e+01   1.9720558e+02   4.0657644e+01   1.0884724e+01   1.6006946e+01   6.7229175e+00   2.7852087e+01   2.1769447e+01   1.4406252e+01   5.4423618e+00   0.0000000e+00   0.0000000e+00   0.0000000e+00   0.0000000e+00
   1.0244446e+01   4.1618060e+00   2.8812503e+00   6.4347924e+01   4.4179172e+01   2.7211809e+01  -3.2013893e+00  -2.5611114e+00   1.2933613e+02   8.9638899e+00   1.0244446e+01   1.9848613e+02   4.0017366e+01   9.6041678e+00   1.4726391e+01   5.4423618e+00   2.6891670e+01   1.9528475e+01   1.2805557e+01   3.5215282e+00   0.0000000e+00   0.0000000e+00   0.0000000e+00   0.0000000e+00
   8.6437510e+00   2.2409725e+00   1.6006946e+00   6.3387507e+01   4.2578477e+01   2.5931253e+01  -4.8020839e+00  -4.4819450e+00   1.3029654e+02   1.1525001e+01   1.0244446e+01   1.9880627e+02   3.8736810e+01   8.3236121e+00   1.3445835e+01   4.1618060e+00   2.5611114e+01   1.7287502e+01   1.1845140e+01   1.6006946e+00   0.0000000e+00   0.0000000e+00   0.0000000e+00   0.0000000e+00
   6.0826396e+00   6.4027785e-01   0.0000000e+00   6.0826396e+01   4.1297922e+01   2.4650697e+01  -6.0826396e+00  -6.4027785e+00   1.2997640e+02   1.3765974e+01   9.6041678e+00   1.9720558e+02   3.7136115e+01   6.7229175e+00   1.1845140e+01   2.5611114e+00   2.4010419e+01   1.4406252e+01   1.1204862e+01  -6.4027785e-01   0.0000000e+00   0.0000000e+00   0.0000000e+00   0.0000000e+00
   3.2013893e+00  -3.2013893e-01  -1.2805557e+00   5.7945146e+01   4.0337505e+01   2.4010419e+01  -7.0430564e+00  -8.0034732e+00   1.2933613e+02   1.5046530e+01   8.9638899e+00   1.9464447e+02   3.5215282e+01   5.7625007e+00   1.0564585e+01   1.2805557e+00   2.2089586e+01   1.1845140e+01   1.0564585e+01  -2.5611114e+00   0.0000000e+00   0.0000000e+00   0.0000000e+00   0.0000000e+00
   9.6041678e-01  -3.2013893e-01  -2.5611114e+00   5.5063895e+01   3.9377088e+01   2.3370142e+01  -8.0034732e+00  -9.6041678e+00   1.2805557e+02   1.4406252e+01   8.6437510e+00   1.9240349e+02   3.4254865e+01   5.1222228e+00   9.9243067e+00   3.2013893e-01   2.0809030e+01   9.9243067e+00   1.0244446e+01  -3.8416671e+00   0.0000000e+00   0.0000000e+00   0.0000000e+00   0.0000000e+00
   0.0000000e+00   3.2013893e-01  -3.2013893e+00   5.3783340e+01   3.9697227e+01   2.3690281e+01  -8.6437510e+00  -1.0884724e+01   1.2709515e+02   1.2485418e+01   8.9638899e+00   1.9144308e+02   3.4254865e+01   5.4423618e+00   9.9243067e+00   3.2013893e-01   2.0488891e+01   9.2840289e+00   9.9243067e+00  -3.8416671e+00   0.0000000e+00   0.0000000e+00   0.0000000e+00   0.0000000e+00
   0.0000000e+00   9.6041678e-01  -3.2013893e+00   5.3783340e+01   4.0337505e+01   2.4330558e+01  -8.9638899e+00  -1.1204862e+01   1.2677501e+02   9.6041678e+00   9.2840289e+00   1.9208336e+02   3.5215282e+01   6.0826396e+00   1.0244446e+01   9.6041678e-01   2.1129169e+01   9.6041678e+00   9.9243067e+00  -3.2013893e+00   0.0000000e+00   0.0000000e+00   0.0000000e+00   0.0000000e+00
   1.6006946e+00   2.5611114e+00  -1.9208336e+00   5.6024312e+01   4.2578477e+01   2.5931253e+01  -7.6833342e+00  -1.0244446e+01   1.2741529e+02   8.3236121e+00   1.0244446e+01   1.9464447e+02   3.7136115e+01   7.6833342e+00   1.1525001e+01   2.8812503e+00   2.3050003e+01   1.1525001e+01   1.1204862e+01  -1.2805557e+00   0.0000000e+00   0.0000000e+00   0.0000000e+00   0.0000000e+00
   3.5215282e+00   3.8416671e+00  -3.2013893e-01   5.8265285e+01   4.4499311e+01   2.7531948e+01  -6.0826396e+00  -8.6437510e+00   1.2837571e+02   8.3236121e+00   1.0564585e+01   1.9752572e+02   3.8416671e+01   8.9638899e+00   1.2805557e+01   4.1618060e+00   2.4970836e+01   1.3765974e+01   1.2805557e+01   3.2013893e-01   0.0000000e+00   0.0000000e+00   0.0000000e+00   0.0000000e+00
   5.1222228e+00   4.8020839e+00   1.2805557e+00   6.0186118e+01   4.6100005e+01   2.8812503e+01  -4.4819450e+00  -6.7229175e+00   1.2837571e+02   8.6437510e+00   1.0244446e+01   1.9912641e+02   3.9056949e+01   9.9243067e+00   1.3765974e+01   5.1222228e+00   2.6251392e+01   1.6006946e+01   1.4086113e+01   1.2805557e+00   0.0000000e+00   0.0000000e+00   0.0000000e+00   0.0000000e+00
   6.0826396e+00   6.0826396e+00   2.8812503e+00   6.1146535e+01   4.7700700e+01   3.0093059e+01  -2.8812503e+00  -4.8020839e+00   1.2837571e+02   9.2840289e+00   9.6041678e+00   1.9976669e+02   3.9056949e+01   1.0564585e+01   1.4726391e+01   6.0826396e+00   2.6891670e+01   1.8247919e+01   1.5686807e+01   2.2409725e+00   0.0000000e+00   0.0000000e+00   0.0000000e+00   0.0000000e+00
   6.0826396e+00   6.7229175e+00   4.1618060e+00   6.0826396e+01   4.8661117e+01   3.1053476e+01  -1.9208336e+00  -3.5215282e+00   1.2805557e+02   8.9638899e+00   9.2840289e+00   1.9976669e+02   3.8416671e+01   1.0884724e+01   1.4726391e+01   6.4027785e+00   2.7531948e+01   1.9848613e+01   1.6647224e+01   2.5611114e+00   0.0000000e+00   0.0000000e+00   0.0000000e+00   0.0000000e+00
   5.4423618e+00   6.4027785e+00   4.8020839e+00   5.9865979e+01   4.9301395e+01   3.1693754e+01  -1.6006946e+00  -3.2013893e+00   1.2709515e+02   7.3631953e+00   8.9638899e+00   1.9880627e+02   3.7776393e+01   1.0564585e+01   1.4726391e+01   6.0826396e+00   2.7852087e+01   2.0809030e+01   1.7287502e+01   2.5611114e+00   0.0000000e+00   0.0000000e+00   0.0000000e+00   0.0000000e+00
   5.4423618e+00   6.4027785e+00   5.4423618e+00   5.9225701e+01   4.9941673e+01   3.2013893e+01  -1.2805557e+00  -3.2013893e+00   1.2709515e+02   6.0826396e+00   9.6041678e+00   1.9816600e+02   3.7456254e+01   1.0564585e+01   1.4726391e+01   6.0826396e+00   2.8492364e+01   2.2089586e+01   1.7607641e+01   3.2013893e+00   0.0000000e+00   0.0000000e+00   0.0000000e+00   0.0000000e+00
   6.0826396e+00   7.0430564e+00   6.4027785e+00   5.9225701e+01   5.0902089e+01   3.2654171e+01  -3.2013893e-01  -2.5611114e+00   1.2773543e+02   6.0826396e+00   1.0884724e+01   1.9816600e+02   3.7776393e+01   1.0884724e+01   1.5046530e+01   6.4027785e+00   2.9452781e+01   2.3370142e+01   1.8247919e+01   4.4819450e+00   0.0000000e+00   0.0000000e+00   0.0000000e+00   0.0000000e+00
   6.7229175e+00   7.3631953e+00   6.4027785e+00   5.9225701e+01   5.1222228e+01   3.2654171e+01  -3.2013893e-01  -2.2409725e+00   1.2773543e+02   7.0430564e+00   1.1525001e+01   1.9784586e+02   3.7456254e+01   1.0564585e+01   1.5046530e+01   6.7229175e+00   2.9772920e+01   2.3690281e+01   1.8568058e+01   5.1222228e+00   0.0000000e+00   0.0000000e+00   0.0000000e+00   0.0000000e+00
   6.7229175e+00   7.3631953e+00   5.7625007e+00   5.9225701e+01   5.0902089e+01   3.2013893e+01  -9.6041678e-01  -2.2409725e+00   1.2709515e+02   8.6437510e+00   1.1845140e+01   1.9688544e+02   3.6495838e+01   9.6041678e+00   1.4726391e+01   6.4027785e+00   2.9452781e+01   2.3050003e+01   1.7927780e+01   5.1222228e+00   0.0000000e+00   0.0000000e+00   0.0000000e+00   0.0000000e+00
   5.7625007e+00   7.3631953e+00   4.1618060e+00   5.8585424e+01   4.9621534e+01   3.0093059e+01  -2.2409725e+00  -3.2013893e+00   1.2549446e+02   9.2840289e+00   1.0884724e+01   1.9496461e+02   3.4895143e+01   7.6833342e+00   1.3445835e+01   5.1222228e+00   2.8172226e+01   2.0809030e+01   1.6327085e+01   4.1618060e+00   0.0000000e+00   0.0000000e+00   0.0000000e+00   0.0000000e+00
   4.8020839e+00   7.0430564e+00   2.5611114e+00   5.7625007e+01   4.8020839e+01   2.8172226e+01  -3.5215282e+00  -4.1618060e+00   1.2389376e+02   9.6041678e+00   9.6041678e+00   1.9272363e+02   3.2974309e+01   5.4423618e+00   1.1845140e+01   3.8416671e+00   2.6251392e+01   1.8247919e+01   1.4406252e+01   2.8812503e+00   0.0000000e+00   0.0000000e+00   0.0000000e+00   0.0000000e+00
   4.1618060e+00   6.7229175e+00   1.2805557e+00   5.6344451e+01   4.6420144e+01   2.6251392e+01  -5.1222228e+00  -5.1222228e+00   1.2197293e+02   8.9638899e+00   8.9638899e+00   1.9080280e+02   3.1693754e+01   2.8812503e+00   1.0244446e+01   2.8812503e+00   2.4650697e+01   1.5686807e+01   1.1845140e+01   1.9208336e+00   0.0000000e+00   0.0000000e+00   0.0000000e+00   0.0000000e+00
   5.1222228e+00   7.0430564e+00   1.2805557e+00   5.5384034e+01   4.5779866e+01   2.5290975e+01  -5.7625007e+00  -5.7625007e+00   1.2133265e+02   8.6437510e+00   8.9638899e+00   1.8984238e+02   3.1373615e+01   1.2805557e+00   9.6041678e+00   2.8812503e+00   2.4010419e+01   1.3445835e+01   1.0564585e+01   2.2409725e+00   0.0000000e+00   0.0000000e+00   0.0000000e+00   0.0000000e+00
   6.4027785e+00   7.0430564e+00   1.2805557e+00   5.4423618e+01   4.5459728e+01   2.4330558e+01  -6.0826396e+00  -5.7625007e+00   1.2037224e+02   8.0034732e+00   9.6041678e+00   1.8920211e+02   3.1373615e+01  -3.2013893e-01   8.9638899e+00   3.5215282e+00   2.3370142e+01   1.1525001e+01   9.6041678e+00   2.8812503e+00   0.0000000e+00   0.0000000e+00   0.0000000e+00   0.0000000e+00
   7.6833342e+00   6.7229175e+00   1.9208336e+00   5.3783340e+01   4.5459728e+01   2.4010419e+01  -5.7625007e+00  -5.1222228e+00   1.1973196e+02   7.6833342e+00   1.0564585e+01   1.8856183e+02   3.1053476e+01  -1.6006946e+00   8.6437510e+00   3.8416671e+00   2.2729864e+01   9.9243067e+00   9.2840289e+00   3.5215282e+00   0.0000000e+00   0.0000000e+00   0.0000000e+00   0.0000000e+00
   8.0034732e+00   6.4027785e+00   2.2409725e+00   5.2502784e+01   4.4819450e+01   2.3690281e+01  -5.4423618e+00  -4.8020839e+00   1.1909168e+02   7.6833342e+00   1.0564585e+01   1.8728127e+02   3.0093059e+01  -2.8812503e+00   8.3236121e+00   3.8416671e+00   2.1449308e+01   8.0034732e+00   8.9638899e+00   3.8416671e+00   0.0000000e+00   0.0000000e+00   0.0000000e+00   0.0000000e+00
   6.4027785e+00   6.0826396e+00   2.2409725e+00   5.1222228e+01   4.3538894e+01   2.2729864e+01  -5.4423618e+00  -4.4819450e+00   1.1845140e+02   7.3631953e+00   9.9243067e+00   1.8504030e+02   2.8172226e+01  -4.1618060e+00   7.6833342e+00   3.5215282e+00   1.9528475e+01   6.4027785e+00   8.3236121e+00   3.5215282e+00   0.0000000e+00   0.0000000e+00   0.0000000e+00   0.0000000e+00
   4.4819450e+00   6.0826396e+00   2.2409725e+00   4.9941673e+01   4.1938199e+01   2.2089586e+01  -5.1222228e+00  -4.1618060e+00   1.1845140e+02   7.6833342e+00   9.6041678e+00   1.8247919e+02   2.6891670e+01  -5.1222228e+00   7.3631953e+00   2.8812503e+00   1.7927780e+01   5.1222228e+00   7.6833342e+00   3.2013893e+00   0.0000000e+00   0.0000000e+00   0.0000000e+00   0.0000000e+00
   2.5611114e+00   6.4027785e+00   2.8812503e+00   4.9301395e+01   4.0657644e+01   2.1449308e+01  -4.8020839e+00  -4.1618060e+00   1.1877154e+02   8.0034732e+00   9.2840289e+00   1.7991808e+02   2.5931253e+01  -5.1222228e+00   7.3631953e+00   3.2013893e+00   1.6967363e+01   4.1618060e+00   7.3631953e+00   3.2013893e+00   0.0000000e+00   0.0000000e+00   0.0000000e+00   0.0000000e+00
   1.2805557e+00   7.0430564e+00   3.2013893e+00   4.8661117e+01   3.9056949e+01   2.0488891e+01  -4.8020839e+00  -3.8416671e+00   1.1909168e+02   8.3236121e+00   9.2840289e+00   1.7767710e+02   2.4970836e+01  -5.1222228e+00   7.6833342e+00   3.8416671e+00   1.6006946e+01   3.8416671e+00   7.0430564e+00   3.8416671e+00   0.0000000e+00   0.0000000e+00   0.0000000e+00   0.0000000e+00
   3.2013893e-01   8.3236121e+00   3.8416671e+00   4.8020839e+01   3.7776393e+01   1.9528475e+01  -4.8020839e+00  -3.8416671e+00   1.1909168e+02   8.6437510e+00   9.6041678e+00   1.7607641e+02   2.4010419e+01  -5.1222228e+00   8.0034732e+00   4.4819450e+00   1.5366668e+01   3.8416671e+00   6.4027785e+00   4.8020839e+00   0.0000000e+00   0.0000000e+00   0.0000000e+00   0.0000000e+00
  -6.4027785e-01   1.0564585e+01   3.8416671e+00   4.7060422e+01   3.6175699e+01   1.8247919e+01  -5.4423618e+00  -3.5215282e+00   1.1813126e+02   9.2840289e+00   9.2840289e+00   1.7447571e+02   2.3050003e+01  -5.1222228e+00   7.6833342e+00   5.1222228e+00   1.4406252e+01   3.8416671e+00   5.7625007e+00   5.1222228e+00   0.0000000e+00   0.0000000e+00   0.0000000e+00   0.0000000e+00
  -2.2409725e+00   1.3765974e+01   3.5215282e+00   4.6100005e+01   3.4895143e+01   1.7607641e+01  -5.7625007e+00  -3.2013893e+00   1.1653057e+02   1.0244446e+01   8.6437510e+00   1.7287502e+02   2.1769447e+01  -4.8020839e+00   7.6833342e+00   5.7625007e+00   1.3445835e+01   3.8416671e+00   5.4423618e+00   5.4423618e+00   0.0000000e+00   0.0000000e+00   0.0000000e+00   0.0000000e+00
  -4.1618060e+00   1.6967363e+01   3.2013893e+00   4.4819450e+01   3.3934726e+01   1.6967363e+01  -6.4027785e+00  -2.5611114e+00   1.1428960e+02   1.0244446e+01   8.0034732e+00   1.7127433e+02   2.0488891e+01  -4.8020839e+00   7.0430564e+00   6.0826396e+00   1.2165279e+01   4.1618060e+00   5.1222228e+00   5.7625007e+00   0.0000000e+00   0.0000000e+00   0.0000000e+00   0.0000000e+00
  -5.7625007e+00   1.7607641e+01   2.5611114e+00   4.3538894e+01   3.3294448e+01   1.6327085e+01  -6.7229175e+00  -2.2409725e+00   1.1172849e+02   8.9638899e+00   7.0430564e+00   1.6935349e+02   1.9528475e+01  -4.4819450e+00   6.7229175e+00   6.0826396e+00   1.1204862e+01   4.1618060e+00   4.4819450e+00   5.7625007e+00   0.0000000e+00   0.0000000e+00   0.0000000e+00   0.0000000e+00
  -6.4027785e+00   1.5686807e+01   2.2409725e+00   4.3218755e+01   3.3294448e+01   1.6967363e+01  -6.0826396e+00  -1.6006946e+00   1.1012779e+02   6.7229175e+00   7.0430564e+00   1.6839308e+02   1.9528475e+01  -4.1618060e+00   6.7229175e+00   7.0430564e+00   1.1204862e+01   4.8020839e+00   4.4819450e+00   6.4027785e+00   0.0000000e+00   0.0000000e+00   0.0000000e+00   0.0000000e+00
  -5.7625007e+00   1.0884724e+01   2.2409725e+00   4.3218755e+01   3.4254865e+01   1.7927780e+01  -5.1222228e+00  -9.6041678e-01   1.0884724e+02   4.1618060e+00   7.0430564e+00   1.6871321e+02   1.9848613e+01  -3.2013893e+00   7.0430564e+00   7.6833342e+00   1.1845140e+01   5.1222228e+00   4.4819450e+00   7.0430564e+00   0.0000000e+00   0.0000000e+00   0.0000000e+00   0.0000000e+00
  -3.5215282e+00   5.7625007e+00   2.8812503e+00   4.3538894e+01   3.5535421e+01   1.9528475e+01  -3.5215282e+00  -6.4027785e-01   1.0820696e+02   1.9208336e+00   7.0430564e+00   1.7031391e+02   2.0809030e+01  -2.8812503e+00   7.3631953e+00   8.0034732e+00   1.3125696e+01   5.7625007e+00   4.8020839e+00   8.0034732e+00   0.0000000e+00   0.0000000e+00   0.0000000e+00   0.0000000e+00
  -9.6041678e-01   2.5611114e+00   3.2013893e+00   4.4499311e+01   3.6815977e+01   2.0809030e+01  -2.5611114e+00  -6.4027785e-01   1.0788682e+02   6.4027785e-01   6.7229175e+00   1.7223474e+02   2.1769447e+01  -2.5611114e+00   7.0430564e+00   8.0034732e+00   1.4086113e+01   6.0826396e+00   4.8020839e+00   8.0034732e+00   0.0000000e+00   0.0000000e+00   0.0000000e+00   0.0000000e+00
   9.6041678e-01   6.4027785e-01   2.5611114e+00   4.5139589e+01   3.7776393e+01   2.1449308e+01  -2.5611114e+00  -1.2805557e+00   1.0724654e+02  -3.2013893e-01   5.4423618e+00   1.7383544e+02   2.1769447e+01  -3.2013893e+00   6.0826396e+00   6.7229175e+00   1.4086113e+01   5.4423618e+00   4.1618060e+00   6.4027785e+00   0.0000000e+00   0.0000000e+00   0.0000000e+00   0.0000000e+00
   2.5611114e+00   6.4027785e-01   2.2409725e+00   4.6100005e+01   3.9056949e+01   2.1769447e+01  -2.5611114e+00  -1.6006946e+00   1.0724654e+02  -6.4027785e-01   4.4819450e+00   1.7543613e+02   2.2089586e+01  -3.8416671e+00   4.8020839e+00   5.7625007e+00   1.4406252e+01   5.1222228e+00   3.5215282e+00   5.1222228e+00   0.0000000e+00   0.0000000e+00   0.0000000e+00   0.0000000e+00
   3.5215282e+00   3.2013893e-01   2.2409725e+00   4.7060422e+01   4.0017366e+01   2.2089586e+01  -2.8812503e+00  -2.2409725e+00   1.0756668e+02  -1.2805557e+00   3.8416671e+00   1.7671669e+02   2.2409725e+01  -4.1618060e+00   3.8416671e+00   5.1222228e+00   1.4726391e+01   4.4819450e+00   3.2013893e+00   3.8416671e+00   0.0000000e+00   0.0000000e+00   0.0000000e+00   0.0000000e+00
   3.2013893e+00  -6.4027785e-01   1.9208336e+00   4.7700700e+01   4.0657644e+01   2.2089586e+01  -3.8416671e+00  -2.5611114e+00   1.0756668e+02  -1.9208336e+00   3.8416671e+00   1.7735697e+02   2.2729864e+01  -4.4819450e+00   2.8812503e+00   4.8020839e+00   1.5046530e+01   3.2013893e+00   2.8812503e+00   3.2013893e+00   0.0000000e+00   0.0000000e+00   0.0000000e+00   0.0000000e+00
   2.2409725e+00  -2.2409725e+00   1.9208336e+00   4.8340978e+01   4.0337505e+01   2.1769447e+01  -4.8020839e+00  -3.2013893e+00   1.0756668e+02  -3.2013893e+00   4.1618060e+00   1.7767710e+02   2.2729864e+01  -5.1222228e+00   1.9208336e+00   4.8020839e+00   1.5366668e+01   1.9208336e+00   2.2409725e+00   2.2409725e+00   0.0000000e+00   0.0000000e+00   0.0000000e+00   0.0000000e+00
   6.4027785e-01  -3.5215282e+00   1.2805557e+00   4.8340978e+01   3.9697227e+01   2.1129169e+01  -6.7229175e+00  -4.1618060e+00   1.0756668e+02  -4.4819450e+00   4.1618060e+00   1.7703683e+02   2.2089586e+01  -5.7625007e+00   6.4027785e-01   4.1618060e+00   1.5046530e+01   0.0000000e+00   1.6006946e+00   1.2805557e+00   0.0000000e+00   0.0000000e+00   0.0000000e+00   0.0000000e+00
  -3.2013893e-01  -3.5215282e+00   0.0000000e+00   4.8020839e+01   3.8416671e+01   2.0168752e+01  -8.6437510e+00  -5.1222228e+00   1.0692640e+02  -5.7625007e+00   3.2013893e+00   1.7543613e+02   2.1129169e+01  -7.0430564e+00  -6.4027785e-01   3.2013893e+00   1.4406252e+01  -1.9208336e+00   6.4027785e-01   0.0000000e+00   0.0000000e+00   0.0000000e+00   0.0000000e+00   0.0000000e+00
  -3.2013893e-01  -1.9208336e+00  -9.6041678e-01   4.8020839e+01   3.7776393e+01   1.9528475e+01  -9.9243067e+00  -5.4423618e+00   1.0628612e+02  -6.4027785e+00   2.2409725e+00   1.7383544e+02   2.0168752e+01  -8.0034732e+00  -1.6006946e+00   2.2409725e+00   1.3765974e+01  -3.2013893e+00   6.4027785e-01  -9.6041678e-01   0.0000000e+00   0.0000000e+00   0.0000000e+00   0.0000000e+00
   9.6041678e-01   6.4027785e-01  -1.9208336e+00   4.8020839e+01   3.7776393e+01   1.8888197e+01  -1.0884724e+01  -5.4423618e+00   1.0628612e+02  -6.7229175e+00   1.2805557e+00   1.7319516e+02   1.9848613e+01  -8.6437510e+00  -1.9208336e+00   1.9208336e+00   1.3445835e+01  -3.8416671e+00   6.4027785e-01  -1.9208336e+00   0.0000000e+00   0.0000000e+00   0.0000000e+00   0.0000000e+00
   2.8812503e+00   2.8812503e+00  -2.2409725e+00   4.8340978e+01   3.8096532e+01   1.8888197e+01  -1.0884724e+01  -4.8020839e+00   1.0692640e+02  -6.4027785e+00   9.6041678e-01   1.7383544e+02   1.9848613e+01  -8.0034732e+00  -1.6006946e+00   2.2409725e+00   1.3765974e+01  -3.8416671e+00   1.6006946e+00  -1.9208336e+00   0.0000000e+00   0.0000000e+00   0.0000000e+00   0.0000000e+00
   5.1222228e+00   4.4819450e+00  -1.6006946e+00   4.8981256e+01   3.9056949e+01   1.9528475e+01  -1.0244446e+01  -4.1618060e+00   1.0788682e+02  -5.7625007e+00   1.9208336e+00   1.7543613e+02   2.1129169e+01  -7.0430564e+00  -6.4027785e-01   3.8416671e+00   1.4726391e+01  -2.2409725e+00   2.8812503e+00  -1.2805557e+00   0.0000000e+00   0.0000000e+00   0.0000000e+00   0.0000000e+00
   6.4027785e+00   5.1222228e+00  -9.6041678e-01   5.0261811e+01   4.0017366e+01   2.0488891e+01  -9.2840289e+00  -3.5215282e+00   1.0948751e+02  -4.8020839e+00   3.5215282e+00   1.7799724e+02   2.2409725e+01  -6.0826396e+00   3.2013893e-01   5.4423618e+00   1.6006946e+01  -6.4027785e-01   4.1618060e+00  -3.2013893e-01   0.0000000e+00   0.0000000e+00   0.0000000e+00   0.0000000e+00
   6.7229175e+00   4.1618060e+00  -6.4027785e-01   5.1222228e+01   4.0017366e+01   2.0809030e+01  -8.9638899e+00  -3.8416671e+00   1.1012779e+02  -4.4819450e+00   4.8020839e+00   1.7959794e+02   2.3690281e+01  -5.1222228e+00   9.6041678e-01   6.4027785e+00   1.6967363e+01   1.2805557e+00   4.8020839e+00   3.2013893e-01   0.0000000e+00   0.0000000e+00   0.0000000e+00   0.0000000e+00
   7.0430564e+00   3.2013893e+00  -3.2013893e-01   5.2822923e+01   4.0337505e+01   2.1769447e+01  -8.0034732e+00  -3.8416671e+00   1.1108821e+02  -3.2013893e+00   5.4423618e+00   1.8119863e+02   2.4970836e+01  -4.1618060e+00   1.9208336e+00   7.3631953e+00   1.7927780e+01   3.8416671e+00   5.7625007e+00   9.6041678e-01   0.0000000e+00   0.0000000e+00   0.0000000e+00   0.0000000e+00
   7.3631953e+00   2.5611114e+00   0.0000000e+00   5.3783340e+01   4.0977783e+01   2.2729864e+01  -7.3631953e+00  -3.5215282e+00   1.1172849e+02  -1.2805557e+00   5.7625007e+00   1.8183891e+02   2.6251392e+01  -2.8812503e+00   2.8812503e+00   8.0034732e+00   1.8888197e+01   6.4027785e+00   6.7229175e+00   1.2805557e+00   0.0000000e+00   0.0000000e+00   0.0000000e+00   0.0000000e+00
   8.0034732e+00   2.8812503e+00   6.4027785e-01   5.4743756e+01   4.1618060e+01   2.3690281e+01  -6.7229175e+00  -2.8812503e+00   1.1236876e+02   2.2409725e+00   6.0826396e+00   1.8215905e+02   2.7211809e+01  -1.6006946e+00   3.8416671e+00   8.6437510e+00   1.9528475e+01   8.9638899e+00   8.0034732e+00   1.6006946e+00   0.0000000e+00   0.0000000e+00   0.0000000e+00   0.0000000e+00
   8.3236121e+00   3.5215282e+00   6.4027785e-01   5.4423618e+01   4.1938199e+01   2.3690281e+01  -6.4027785e+00  -2.5611114e+00   1.1300904e+02   6.0826396e+00   5.7625007e+00   1.8183891e+02   2.7852087e+01  -6.4027785e-01   4.1618060e+00   8.6437510e+00   1.9848613e+01   1.0564585e+01   8.6437510e+00   1.2805557e+00   0.0000000e+00   0.0000000e+00   0.0000000e+00   0.0000000e+00
   7.6833342e+00   4.4819450e+00   9.6041678e-01   5.3463201e+01   4.1938199e+01   2.3050003e+01  -6.7229175e+00  -2.2409725e+00   1.1428960e+02   8.6437510e+00   6.0826396e+00   1.8119863e+02   2.8172226e+01   0.0000000e+00   4.1618060e+00   8.9638899e+00   1.9528475e+01   1.1525001e+01   9.2840289e+00   9.6041678e-01   0.0000000e+00   0.0000000e+00   0.0000000e+00   0.0000000e+00
   5.1222228e+00   4.4819450e+00   6.4027785e-01   5.1862506e+01   4.1297922e+01   2.1769447e+01  -8.0034732e+00  -3.2013893e+00   1.1492987e+02   8.3236121e+00   5.7625007e+00   1.7959794e+02   2.7852087e+01  -3.2013893e-01   3.2013893e+00   8.3236121e+00   1.8568058e+01   1.1204862e+01   8.6437510e+00   3.2013893e-01   0.0000000e+00   0.0000000e+00   0.0000000e+00   0.0000000e+00
   2.2409725e+00   4.1618060e+00   3.2013893e-01   5.0581950e+01   4.0337505e+01   2.0488891e+01  -8.9638899e+00  -4.1618060e+00   1.1525001e+02   5.4423618e+00   5.7625007e+00   1.7831738e+02   2.7211809e+01  -9.6041678e-01   2.2409725e+00   8.0034732e+00   1.7927780e+01   1.0564585e+01   8.3236121e+00   0.0000000e+00   0.0000000e+00   0.0000000e+00   0.0000000e+00   0.0000000e+00
  -9.6041678e-01   3.2013893e+00  -3.2013893e-01   4.9621534e+01   3.9056949e+01   1.9208336e+01  -1.0244446e+01  -5.4423618e+00   1.1364932e+02   9.6041678e-01   5.1222228e+00   1.7639655e+02   2.5931253e+01  -1.9208336e+00   9.6041678e-01   6.7229175e+00   1.6647224e+01   9.2840289e+00   7.6833342e+00  -6.4027785e-01   0.0000000e+00   0.0000000e+00   0.0000000e+00   0.0000000e+00
  -3.2013893e+00   1.9208336e+00  -1.2805557e+00   4.8981256e+01   3.7776393e+01   1.7927780e+01  -1.1204862e+01  -6.4027785e+00   1.1108821e+02  -3.2013893e+00   4.1618060e+00   1.7447571e+02   2.4010419e+01  -3.2013893e+00  -3.2013893e-01   5.4423618e+00   1.5366668e+01   7.6833342e+00   7.0430564e+00  -1.6006946e+00   0.0000000e+00   0.0000000e+00   0.0000000e+00   0.0000000e+00
  -4.1618060e+00   9.6041678e-01  -2.2409725e+00   4.8340978e+01   3.6815977e+01   1.6647224e+01  -1.1845140e+01  -7.3631953e+00   1.0756668e+02  -6.7229175e+00   2.8812503e+00   1.7255488e+02   2.2089586e+01  -4.8020839e+00  -1.2805557e+00   4.1618060e+00   1.4086113e+01   5.7625007e+00   6.7229175e+00  -2.5611114e+00   0.0000000e+00   0.0000000e+00   0.0000000e+00   0.0000000e+00
  -4.8020839e+00  -6.4027785e-01  -3.8416671e+00   4.6740283e+01   3.5535421e+01   1.5046530e+01  -1.2805557e+01  -8.9638899e+00   1.0404515e+02  -9.6041678e+00   1.2805557e+00   1.7095419e+02   1.9848613e+01  -7.0430564e+00  -2.5611114e+00   1.9208336e+00   1.2485418e+01   3.2013893e+00   5.4423618e+00  -4.1618060e+00   0.0000000e+00   0.0000000e+00   0.0000000e+00   0.0000000e+00
  -5.1222228e+00  -2.2409725e+00  -5.4423618e+00   4.5139589e+01   3.4254865e+01   1.3765974e+01  -1.3765974e+01  -1.0244446e+01   1.0148404e+02  -1.1845140e+01   0.0000000e+00   1.7063405e+02   1.7927780e+01  -9.2840289e+00  -4.1618060e+00   0.0000000e+00   1.1204862e+01   6.4027785e-01   3.8416671e+00  -5.4423618e+00   0.0000000e+00   0.0000000e+00   0.0000000e+00   0.0000000e+00
  -5.1222228e+00  -3.2013893e+00  -6.4027785e+00   4.3859033e+01   3.3934726e+01   1.3125696e+01  -1.4086113e+01  -1.1204862e+01   1.0052362e+02  -1.3125696e+01  -6.4027785e-01   1.7159446e+02   1.7607641e+01  -1.0564585e+01  -5.4423618e+00  -1.2805557e+00   1.0884724e+01  -9.6041678e-01   2.2409725e+00  -6.0826396e+00   0.0000000e+00   0.0000000e+00   0.0000000e+00   0.0000000e+00
  -4.1618060e+00  -2.5611114e+00  -6.0826396e+00   4.4179172e+01   3.4575004e+01   1.3445835e+01  -1.4086113e+01  -1.1525001e+01   1.0116390e+02  -1.3125696e+01  -6.4027785e-01   1.7415558e+02   1.8247919e+01  -1.1525001e+01  -5.7625007e+00  -1.6006946e+00   1.1525001e+01  -1.2805557e+00   1.9208336e+00  -6.0826396e+00   0.0000000e+00   0.0000000e+00   0.0000000e+00   0.0000000e+00
  -2.8812503e+00  -9.6041678e-01  -5.1222228e+00   4.5139589e+01   3.5535421e+01   1.4406252e+01  -1.3765974e+01  -1.0884724e+01   1.0212432e+02  -1.2165279e+01  -6.4027785e-01   1.7575627e+02   1.9528475e+01  -1.1845140e+01  -6.0826396e+00  -1.6006946e+00   1.2165279e+01  -1.2805557e+00   1.6006946e+00  -5.4423618e+00   0.0000000e+00   0.0000000e+00   0.0000000e+00   0.0000000e+00
  -9.6041678e-01   1.2805557e+00  -3.5215282e+00   4.7060422e+01   3.7456254e+01   1.6006946e+01  -1.2805557e+01  -9.2840289e+00   1.0372501e+02  -9.6041678e+00  -3.2013893e-01   1.7639655e+02   2.0809030e+01  -1.1845140e+01  -5.4423618e+00  -9.6041678e-01   1.3445835e+01  -3.2013893e-01   2.2409725e+00  -4.4819450e+00   0.0000000e+00   0.0000000e+00   0.0000000e+00   0.0000000e+00
   6.4027785e-01   2.2409725e+00  -2.2409725e+00   4.8340978e+01   3.8416671e+01   1.7287502e+01  -1.2165279e+01  -7.3631953e+00   1.0436529e+02  -7.3631953e+00  -9.6041678e-01   1.7447571e+02   2.1129169e+01  -1.2485418e+01  -5.4423618e+00  -3.2013893e-01   1.3765974e+01   3.2013893e-01   2.8812503e+00  -3.8416671e+00   0.0000000e+00   0.0000000e+00   0.0000000e+00   0.0000000e+00
   1.9208336e+00   2.2409725e+00  -9.6041678e-01   4.9301395e+01   3.9377088e+01   1.8568058e+01  -1.1525001e+01  -5.1222228e+00   1.0500557e+02  -5.7625007e+00  -1.9208336e+00   1.7223474e+02   2.1129169e+01  -1.2805557e+01  -5.1222228e+00   6.4027785e-01   1.3765974e+01   6.4027785e-01   3.2013893e+00  -3.2013893e+00   0.0000000e+00   0.0000000e+00   0.0000000e+00   0.0000000e+00
   3.2013893e+00   6.4027785e-01   0.0000000e+00   4.9301395e+01   3.9697227e+01   1.9528475e+01  -1.1204862e+01  -3.8416671e+00   1.0500557e+02  -5.7625007e+00  -2.8812503e+00   1.6967363e+02   2.1129169e+01  -1.3445835e+01  -5.4423618e+00   1.2805557e+00   1.3445835e+01   9.6041678e-01   2.8812503e+00  -2.5611114e+00   0.0000000e+00   0.0000000e+00   0.0000000e+00   0.0000000e+00
   4.8020839e+00  -6.4027785e-01   1.6006946e+00   4.9941673e+01   4.0337505e+01   2.0168752e+01  -1.0564585e+01  -2.2409725e+00   1.0564585e+02  -6.4027785e+00  -2.5611114e+00   1.6839308e+02   2.1449308e+01  -1.3125696e+01  -5.1222228e+00   2.5611114e+00   1.3445835e+01   1.6006946e+00   2.5611114e+00  -1.6006946e+00   0.0000000e+00   0.0000000e+00   0.0000000e+00   0.0000000e+00
   6.4027785e+00  -1.2805557e+00   2.5611114e+00   5.0581950e+01   4.0657644e+01   2.0488891e+01  -1.0564585e+01  -1.6006946e+00   1.0596598e+02  -8.0034732e+00  -2.2409725e+00   1.6775280e+02   2.1769447e+01  -1.2805557e+01  -5.1222228e+00   3.8416671e+00   1.3445835e+01   2.2409725e+00   1.9208336e+00  -9.6041678e-01   0.0000000e+00   0.0000000e+00   0.0000000e+00   0.0000000e+00
   8.6437510e+00  -1.2805557e+00   3.5215282e+00   5.2182645e+01   4.0977783e+01   2.0488891e+01  -1.0564585e+01  -9.6041678e-01   1.0628612e+02  -9.9243067e+00  -1.2805557e+00   1.6743266e+02   2.2089586e+01  -1.2485418e+01  -4.8020839e+00   4.8020839e+00   1.3765974e+01   3.5215282e+00   1.9208336e+00  -3.2013893e-01   0.0000000e+00   0.0000000e+00   0.0000000e+00   0.0000000e+00
   1.0564585e+01  -3.2013893e-01   4.4819450e+00   5.4423618e+01   4.1938199e+01   2.0809030e+01  -1.0564585e+01   0.0000000e+00   1.0660626e+02  -1.1204862e+01  -6.4027785e-01   1.6711252e+02   2.2409725e+01  -1.1204862e+01  -4.1618060e+00   5.7625007e+00   1.4406252e+01   4.8020839e+00   2.2409725e+00   0.0000000e+00   0.0000000e+00   0.0000000e+00   0.0000000e+00   0.0000000e+00
   1.1525001e+01   3.2013893e-01   4.8020839e+00   5.6024312e+01   4.2578477e+01   2.1129169e+01  -1.0564585e+01   3.2013893e-01   1.0628612e+02  -1.3125696e+01  -6.4027785e-01   1.6615210e+02   2.2089586e+01  -1.0244446e+01  -3.8416671e+00   5.7625007e+00   1.4726391e+01   5.7625007e+00   2.5611114e+00   3.2013893e-01   0.0000000e+00   0.0000000e+00   0.0000000e+00   0.0000000e+00
   1.1525001e+01   3.2013893e-01   4.4819450e+00   5.6984729e+01   4.2578477e+01   2.1129169e+01  -1.1525001e+01   0.0000000e+00   1.0564585e+02  -1.4406252e+01  -9.6041678e-01   1.6551183e+02   2.1769447e+01  -9.6041678e+00  -3.5215282e+00   5.4423618e+00   1.4726391e+01   6.0826396e+00   2.2409725e+00   0.0000000e+00   0.0000000e+00   0.0000000e+00   0.0000000e+00   0.0000000e+00
   1.0564585e+01  -3.2013893e-01   3.8416671e+00   5.6024312e+01   4.1938199e+01   2.0809030e+01  -1.2485418e+01  -1.2805557e+00   1.0436529e+02  -1.5046530e+01  -1.2805557e+00   1.6519169e+02   2.1449308e+01  -8.9638899e+00  -3.5215282e+00   4.8020839e+00   1.4406252e+01   6.0826396e+00   1.6006946e+00  -6.4027785e-01   0.0000000e+00   0.0000000e+00   0.0000000e+00   0.0000000e+00
   9.9243067e+00  -6.4027785e-01   3.2013893e+00   5.4103479e+01   4.1297922e+01   2.0168752e+01  -1.3765974e+01  -2.8812503e+00   1.0340487e+02  -1.4406252e+01  -6.4027785e-01   1.6615210e+02   2.1449308e+01  -8.6437510e+00  -3.2013893e+00   4.4819450e+00   1.4726391e+01   5.7625007e+00   6.4027785e-01  -6.4027785e-01   0.0000000e+00   0.0000000e+00   0.0000000e+00   0.0000000e+00
   8.0034732e+00  -1.2805557e+00   1.9208336e+00   5.0902089e+01   3.9377088e+01   1.8568058e+01  -1.6006946e+01  -5.1222228e+00   1.0212432e+02  -1.3765974e+01  -9.6041678e-01   1.6647224e+02   2.0488891e+01  -8.9638899e+00  -4.1618060e+00   3.5215282e+00   1.3765974e+01   4.4819450e+00  -9.6041678e-01  -1.2805557e+00   0.0000000e+00   0.0000000e+00   0.0000000e+00   0.0000000e+00
   6.7229175e+00  -9.6041678e-01   1.2805557e+00   4.8661117e+01   3.8096532e+01   1.7287502e+01  -1.7607641e+01  -6.4027785e+00   1.0148404e+02  -1.2485418e+01  -9.6041678e-01   1.6647224e+02   1.9848613e+01  -9.6041678e+00  -5.1222228e+00   2.8812503e+00   1.3125696e+01   3.2013893e+00  -2.2409725e+00  -1.6006946e+00   0.0000000e+00   0.0000000e+00   0.0000000e+00   0.0000000e+00
   4.8020839e+00   6.4027785e-01   9.6041678e-01   4.7380561e+01   3.6495838e+01   1.6006946e+01  -1.8888197e+01  -6.7229175e+00   1.0116390e+02  -1.1845140e+01  -1.6006946e+00   1.6551183e+02   1.8888197e+01  -9.9243067e+00  -6.4027785e+00   1.9208336e+00   1.2485418e+01   1.6006946e+00  -2.8812503e+00  -1.6006946e+00   0.0000000e+00   0.0000000e+00   0.0000000e+00   0.0000000e+00
   3.2013893e+00   3.8416671e+00   9.6041678e-01   4.6420144e+01   3.5535421e+01   1.5046530e+01  -1.9208336e+01  -6.0826396e+00   1.0116390e+02  -1.1204862e+01  -2.5611114e+00   1.6455141e+02   1.7927780e+01  -9.9243067e+00  -7.3631953e+00   1.6006946e+00   1.1845140e+01   0.0000000e+00  -2.8812503e+00  -1.6006946e+00   0.0000000e+00   0.0000000e+00   0.0000000e+00   0.0000000e+00
   1.6006946e+00   7.6833342e+00   1.6006946e+00   4.6100005e+01   3.4895143e+01   1.4406252e+01  -1.8888197e+01  -5.1222228e+00   1.0148404e+02  -1.0884724e+01  -3.5215282e+00   1.6327085e+02   1.7287502e+01  -9.9243067e+00  -7.6833342e+00   1.2805557e+00   1.1525001e+01  -1.6006946e+00  -2.8812503e+00  -1.2805557e+00   0.0000000e+00   0.0000000e+00   0.0000000e+00   0.0000000e+00
  -3.2013893e-01   1.0884724e+01   1.6006946e+00   4.4819450e+01   3.3934726e+01   1.3765974e+01  -1.8247919e+01  -4.4819450e+00   1.0116390e+02  -1.0884724e+01  -3.8416671e+00   1.6167016e+02   1.6647224e+01  -9.6041678e+00  -8.0034732e+00   1.2805557e+00   1.1204862e+01  -3.2013893e+00  -2.8812503e+00  -9.6041678e-01   0.0000000e+00   0.0000000e+00   0.0000000e+00   0.0000000e+00
  -2.2409725e+00   1.1525001e+01   1.6006946e+00   4.3538894e+01   3.2654171e+01   1.2805557e+01  -1.7927780e+01  -4.8020839e+00   1.0052362e+02  -1.1525001e+01  -3.8416671e+00   1.6006946e+02   1.6006946e+01  -1.0244446e+01  -8.3236121e+00   9.6041678e-01   1.0564585e+01  -4.8020839e+00  -3.5215282e+00  -9.6041678e-01   0.0000000e+00   0.0000000e+00   0.0000000e+00   0.0000000e+00
  -3.8416671e+00   9.6041678e+00   1.6006946e+00   4.2258338e+01   3.1693754e+01   1.2165279e+01  -1.7607641e+01  -4.8020839e+00   9.9563206e+01  -1.1845140e+01  -3.5215282e+00   1.5878891e+02   1.6006946e+01  -1.0564585e+01  -8.3236121e+00   1.2805557e+00   1.0244446e+01  -5.7625007e+00  -3.8416671e+00  -6.4027785e-01   0.0000000e+00   0.0000000e+00   0.0000000e+00   0.0000000e+00
  -4.4819450e+00   6.0826396e+00   2.2409725e+00   4.2578477e+01   3.1053476e+01   1.2165279e+01  -1.6967363e+01  -4.4819450e+00   9.9243067e+01  -1.1845140e+01  -2.8812503e+00   1.5846877e+02   1.6327085e+01  -1.0884724e+01  -8.0034732e+00   1.6006946e+00   1.0244446e+01  -5.4423618e+00  -3.5215282e+00  -3.2013893e-01   0.0000000e+00   0.0000000e+00   0.0000000e+00   0.0000000e+00
  -3.2013893e+00   3.2013893e+00   3.2013893e+00   4.4179172e+01   3.1693754e+01   1.3125696e+01  -1.5366668e+01  -3.5215282e+00   9.9883345e+01  -1.0884724e+01  -1.9208336e+00   1.5974932e+02   1.7607641e+01  -9.9243067e+00  -6.7229175e+00   2.5611114e+00   1.1525001e+01  -4.1618060e+00  -1.9208336e+00   6.4027785e-01   0.0000000e+00   0.0000000e+00   0.0000000e+00   0.0000000e+00
  -6.4027785e-01   6.4027785e-01   4.1618060e+00   4.6420144e+01   3.2974309e+01   1.4406252e+01  -1.4086113e+01  -2.5611114e+00   1.0084376e+02  -9.6041678e+00  -1.6006946e+00   1.6102988e+02   1.8568058e+01  -8.9638899e+00  -5.4423618e+00   3.2013893e+00   1.2805557e+01  -2.2409725e+00  -6.4027785e-01   9.6041678e-01   0.0000000e+00   0.0000000e+00   0.0000000e+00   0.0000000e+00
   2.8812503e+00  -6.4027785e-01   4.4819450e+00   4.8340978e+01   3.4575004e+01   1.6006946e+01  -1.3125696e+01  -2.2409725e+00   1.0212432e+02  -8.3236121e+00  -6.4027785e-01   1.6199030e+02   1.9848613e+01  -7.6833342e+00  -4.1618060e+00   3.2013893e+00   1.4406252e+01  -3.2013893e-01   9.6041678e-01   6.4027785e-01   0.0000000e+00   0.0000000e+00   0.0000000e+00   0.0000000e+00
   6.0826396e+00  -1.9208336e+00   3.8416671e+00   4.9301395e+01   3.5855560e+01   1.6967363e+01  -1.3125696e+01  -3.2013893e+00   1.0276460e+02  -7.6833342e+00  -3.2013893e-01   1.6263057e+02   2.0809030e+01  -7.0430564e+00  -3.5215282e+00   2.5611114e+00   1.5366668e+01   1.2805557e+00   1.2805557e+00   0.0000000e+00   0.0000000e+00   0.0000000e+00   0.0000000e+00   0.0000000e+00
   8.6437510e+00  -3.2013893e+00   3.2013893e+00   5.0261811e+01   3.7456254e+01   1.8247919e+01  -1.2805557e+01  -4.1618060e+00   1.0372501e+02  -7.0430564e+00   3.2013893e-01   1.6327085e+02   2.1449308e+01  -6.0826396e+00  -3.2013893e+00   2.2409725e+00   1.6327085e+01   3.2013893e+00   1.6006946e+00  -9.6041678e-01   0.0000000e+00   0.0000000e+00   0.0000000e+00   0.0000000e+00
   9.2840289e+00  -4.8020839e+00   1.9208336e+00   5.0261811e+01   3.8416671e+01   1.9208336e+01  -1.3125696e+01  -5.7625007e+00   1.0372501e+02  -6.7229175e+00   3.2013893e-01   1.6359099e+02   2.2089586e+01  -6.0826396e+00  -3.2013893e+00   1.6006946e+00   1.6967363e+01   4.4819450e+00   1.2805557e+00  -1.9208336e+00   0.0000000e+00   0.0000000e+00   0.0000000e+00   0.0000000e+00
   8.6437510e+00  -6.7229175e+00   3.2013893e-01   5.0261811e+01   3.9377088e+01   1.9848613e+01  -1.3445835e+01  -7.3631953e+00   1.0372501e+02  -7.3631953e+00  -3.2013893e-01   1.6423127e+02   2.1769447e+01  -6.4027785e+00  -3.8416671e+00   6.4027785e-01   1.6967363e+01   5.7625007e+00   9.6041678e-01  -2.8812503e+00   0.0000000e+00   0.0000000e+00   0.0000000e+00   0.0000000e+00
   7.3631953e+00  -7.6833342e+00  -1.2805557e+00   5.0581950e+01   3.9697227e+01   2.0488891e+01  -1.4086113e+01  -8.6437510e+00   1.0340487e+02  -7.6833342e+00  -1.6006946e+00   1.6519169e+02   2.1449308e+01  -7.0430564e+00  -4.4819450e+00  -3.2013893e-01   1.6647224e+01   6.4027785e+00   6.4027785e-01  -4.1618060e+00   0.0000000e+00   0.0000000e+00   0.0000000e+00   0.0000000e+00
   5.7625007e+00  -8.0034732e+00  -3.2013893e+00   4.9941673e+01   3.9377088e+01   2.0168752e+01  -1.5366668e+01  -1.0244446e+01   1.0276460e+02  -8.9638899e+00  -3.5215282e+00   1.6551183e+02   1.9848613e+01  -8.0034732e+00  -5.7625007e+00  -1.9208336e+00   1.5046530e+01   6.0826396e+00  -6.4027785e-01  -6.4027785e+00   0.0000000e+00   0.0000000e+00   0.0000000e+00   0.0000000e+00
   5.1222228e+00  -7.0430564e+00  -5.1222228e+00   4.9301395e+01   3.8736810e+01   1.8888197e+01  -1.7287502e+01  -1.1525001e+01   1.0180418e+02  -9.9243067e+00  -5.4423618e+00   1.6551183e+02   1.7927780e+01  -9.2840289e+00  -7.3631953e+00  -3.5215282e+00   1.3445835e+01   5.1222228e+00  -1.9208336e+00  -8.6437510e+00   0.0000000e+00   0.0000000e+00   0.0000000e+00   0.0000000e+00
   5.1222228e+00  -5.7625007e+00  -6.4027785e+00   4.8661117e+01   3.8096532e+01   1.7927780e+01  -1.9208336e+01  -1.2805557e+01   1.0116390e+02  -1.0244446e+01  -6.7229175e+00   1.6423127e+02   1.6647224e+01  -9.9243067e+00  -8.6437510e+00  -4.4819450e+00   1.2165279e+01   3.8416671e+00  -3.5215282e+00  -1.0244446e+01   0.0000000e+00   0.0000000e+00   0.0000000e+00   0.0000000e+00
   6.0826396e+00  -3.5215282e+00  -6.4027785e+00   4.9301395e+01   3.8096532e+01   1.7607641e+01  -1.9848613e+01  -1.3125696e+01   1.0116390e+02  -8.0034732e+00  -6.7229175e+00   1.6295071e+02   1.6327085e+01  -9.9243067e+00  -8.6437510e+00  -4.4819450e+00   1.2485418e+01   3.2013893e+00  -3.8416671e+00  -1.0564585e+01   0.0000000e+00   0.0000000e+00   0.0000000e+00   0.0000000e+00
   7.0430564e+00  -1.9208336e+00  -5.4423618e+00   5.0261811e+01   3.9377088e+01   1.8568058e+01  -1.9528475e+01  -1.2805557e+01   1.0276460e+02  -4.1618060e+00  -5.4423618e+00   1.6102988e+02   1.6967363e+01  -9.2840289e+00  -8.0034732e+00  -3.2013893e+00   1.3445835e+01   3.2013893e+00  -3.5215282e+00  -9.2840289e+00   0.0000000e+00   0.0000000e+00   0.0000000e+00   0.0000000e+00
   7.0430564e+00  -1.2805557e+00  -4.1618060e+00   5.1222228e+01   4.0017366e+01   1.9208336e+01  -1.9208336e+01  -1.2165279e+01   1.0404515e+02   6.4027785e-01  -4.4819450e+00   1.5942919e+02   1.7607641e+01  -8.9638899e+00  -7.3631953e+00  -1.9208336e+00   1.4726391e+01   3.2013893e+00  -2.8812503e+00  -8.3236121e+00   0.0000000e+00   0.0000000e+00   0.0000000e+00   0.0000000e+00
   7.3631953e+00  -1.2805557e+00  -2.5611114e+00   5.2182645e+01   4.0657644e+01   2.0168752e+01  -1.7927780e+01  -1.1204862e+01   1.0564585e+02   5.4423618e+00  -3.8416671e+00   1.5846877e+02   1.8247919e+01  -8.3236121e+00  -6.4027785e+00  -6.4027785e-01   1.5686807e+01   3.2013893e+00  -1.9208336e+00  -7.3631953e+00   0.0000000e+00   0.0000000e+00   0.0000000e+00   0.0000000e+00
   8.0034732e+00  -1.6006946e+00  -1.6006946e+00   5.2502784e+01   4.0977783e+01   2.0168752e+01  -1.7287502e+01  -1.0244446e+01   1.0564585e+02   8.0034732e+00  -3.5215282e+00   1.5814863e+02   1.8247919e+01  -8.3236121e+00  -5.7625007e+00   3.2013893e-01   1.6006946e+01   2.5611114e+00  -1.2805557e+00  -6.7229175e+00   0.0000000e+00   0.0000000e+00   0.0000000e+00   0.0000000e+00
   8.9638899e+00  -2.2409725e+00  -9.6041678e-01   5.1862506e+01   4.0017366e+01   1.9528475e+01  -1.7287502e+01  -9.6041678e+00   1.0436529e+02   7.6833342e+00  -3.8416671e+00   1.5750835e+02   1.7927780e+01  -8.3236121e+00  -5.7625007e+00   6.4027785e-01   1.5046530e+01   9.6041678e-01  -1.2805557e+00  -6.4027785e+00   0.0000000e+00   0.0000000e+00   0.0000000e+00   0.0000000e+00
   1.0244446e+01  -1.6006946e+00   3.2013893e-01   5.1542367e+01   3.9377088e+01   1.9528475e+01  -1.6647224e+01  -8.0034732e+00   1.0340487e+02   6.0826396e+00  -2.8812503e+00   1.5686807e+02   1.7927780e+01  -7.6833342e+00  -4.8020839e+00   1.6006946e+00   1.4726391e+01   0.0000000e+00  -6.4027785e-01  -5.4423618e+00   0.0000000e+00   0.0000000e+00   0.0000000e+00   0.0000000e+00
   1.1204862e+01  -6.4027785e-01   9.6041678e-01   5.0581950e+01   3.8736810e+01   1.9208336e+01  -1.6327085e+01  -7.0430564e+00   1.0212432e+02   4.1618060e+00  -1.9208336e+00   1.5526738e+02   1.7927780e+01  -7.3631953e+00  -4.4819450e+00   2.5611114e+00   1.4406252e+01  -6.4027785e-01  -6.4027785e-01  -4.4819450e+00   0.0000000e+00   0.0000000e+00   0.0000000e+00   0.0000000e+00
   1.1525001e+01   6.4027785e-01   1.2805557e+00   4.9941673e+01   3.8096532e+01   1.8888197e+01  -1.6327085e+01  -6.4027785e+00   1.0148404e+02   2.8812503e+00  -3.2013893e-01   1.5334655e+02   1.7927780e+01  -7.0430564e+00  -4.4819450e+00   2.8812503e+00   1.3765974e+01  -9.6041678e-01  -9.6041678e-01  -4.1618060e+00   0.0000000e+00   0.0000000e+00   0.0000000e+00   0.0000000e+00
   1.0244446e+01   9.6041678e-01   9.6041678e-01   4.8981256e+01   3.7136115e+01   1.8568058e+01  -1.6967363e+01  -6.7229175e+00   1.0084376e+02   1.9208336e+00   3.2013893e-01   1.5206599e+02   1.7287502e+01  -7.6833342e+00  -4.8020839e+00   2.5611114e+00   1.2805557e+01  -1.2805557e+00  -1.6006946e+00  -4.1618060e+00   0.0000000e+00   0.0000000e+00   0.0000000e+00   0.0000000e+00
   8.9638899e+00   1.2805557e+00   6.4027785e-01   4.8981256e+01   3.6175699e+01   1.7927780e+01  -1.7287502e+01  -7.0430564e+00   1.0084376e+02   9.6041678e-01   6.4027785e-01   1.5206599e+02   1.6327085e+01  -8.3236121e+00  -5.4423618e+00   1.9208336e+00   1.1845140e+01  -1.6006946e+00  -2.2409725e+00  -4.8020839e+00   0.0000000e+00   0.0000000e+00   0.0000000e+00   0.0000000e+00
   6.7229175e+00   1.2805557e+00  -3.2013893e-01   4.8661117e+01   3.5215282e+01   1.7287502e+01  -1.7927780e+01  -8.0034732e+00   1.0020348e+02  -1.2805557e+00   0.0000000e+00   1.5270627e+02   1.4406252e+01  -9.6041678e+00  -6.4027785e+00   9.6041678e-01   9.9243067e+00  -1.9208336e+00  -3.2013893e+00  -5.7625007e+00   0.0000000e+00   0.0000000e+00   0.0000000e+00   0.0000000e+00
   4.4819450e+00   3.2013893e-01  -1.2805557e+00   4.7700700e+01   3.3294448e+01   1.6006946e+01  -1.8888197e+01  -8.9638899e+00   9.9243067e+01  -4.1618060e+00  -1.2805557e+00   1.5238613e+02   1.2165279e+01  -1.1204862e+01  -7.3631953e+00  -6.4027785e-01   7.0430564e+00  -2.5611114e+00  -4.1618060e+00  -7.0430564e+00   0.0000000e+00   0.0000000e+00   0.0000000e+00   0.0000000e+00
   2.2409725e+00  -6.4027785e-01  -1.2805557e+00   4.6420144e+01   3.1373615e+01   1.5046530e+01  -1.9528475e+01  -9.6041678e+00   9.8602789e+01  -6.7229175e+00  -1.9208336e+00   1.5110557e+02   9.9243067e+00  -1.2805557e+01  -8.3236121e+00  -1.6006946e+00   4.4819450e+00  -2.8812503e+00  -4.4819450e+00  -8.0034732e+00   0.0000000e+00   0.0000000e+00   0.0000000e+00   0.0000000e+00
   3.2013893e-01  -1.9208336e+00  -9.6041678e-01   4.4499311e+01   2.9452781e+01   1.3765974e+01  -2.0488891e+01  -9.9243067e+00   9.7962512e+01  -8.3236121e+00  -1.9208336e+00   1.4918474e+02   7.6833342e+00  -1.4406252e+01  -8.6437510e+00  -2.2409725e+00   2.2409725e+00  -3.2013893e+00  -4.8020839e+00  -8.0034732e+00   0.0000000e+00   0.0000000e+00   0.0000000e+00   0.0000000e+00
  -9.6041678e-01  -3.5215282e+00   0.0000000e+00   4.2898616e+01   2.7531948e+01   1.3125696e+01  -2.1129169e+01  -9.9243067e+00   9.7962512e+01  -8.6437510e+00  -6.4027785e-01   1.4662363e+02   6.0826396e+00  -1.5686807e+01  -8.9638899e+00  -1.9208336e+00   3.2013893e-01  -2.8812503e+00  -4.4819450e+00  -7.3631953e+00   0.0000000e+00   0.0000000e+00   0.0000000e+00   0.0000000e+00
  -2.5611114e+00  -5.1222228e+00   9.6041678e-01   4.0657644e+01   2.5290975e+01   1.1845140e+01  -2.1769447e+01  -1.0244446e+01   9.7962512e+01  -8.3236121e+00   0.0000000e+00   1.4438266e+02   3.8416671e+00  -1.6967363e+01  -9.2840289e+00  -1.6006946e+00  -1.6006946e+00  -2.8812503e+00  -3.8416671e+00  -6.7229175e+00   0.0000000e+00   0.0000000e+00   0.0000000e+00   0.0000000e+00
  -3.5215282e+00  -6.0826396e+00   1.6006946e+00   3.9377088e+01   2.3690281e+01   1.1204862e+01  -2.1769447e+01  -9.6041678e+00   9.8282650e+01  -7.6833342e+00   9.6041678e-01   1.4310210e+02   2.2409725e+00  -1.8247919e+01  -8.9638899e+00  -9.6041678e-01  -2.5611114e+00  -3.2013893e+00  -2.2409725e+00  -6.0826396e+00   0.0000000e+00   0.0000000e+00   0.0000000e+00   0.0000000e+00
  -4.4819450e+00  -6.7229175e+00   2.2409725e+00   3.8736810e+01   2.2089586e+01   1.0564585e+01  -2.1129169e+01  -8.9638899e+00   9.7962512e+01  -7.3631953e+00   9.6041678e-01   1.4246182e+02   6.4027785e-01  -1.8888197e+01  -8.6437510e+00  -3.2013893e-01  -3.5215282e+00  -3.5215282e+00   0.0000000e+00  -5.4423618e+00   0.0000000e+00   0.0000000e+00   0.0000000e+00   0.0000000e+00
  -4.8020839e+00  -6.4027785e+00   3.2013893e+00   3.8736810e+01   2.1449308e+01   9.9243067e+00  -1.9848613e+01  -7.6833342e+00   9.7322234e+01  -7.0430564e+00   6.4027785e-01   1.4246182e+02  -3.2013893e-01  -1.9208336e+01  -8.0034732e+00   3.2013893e-01  -3.8416671e+00  -3.8416671e+00   2.8812503e+00  -4.4819450e+00   0.0000000e+00   0.0000000e+00   0.0000000e+00   0.0000000e+00
  -4.4819450e+00  -5.7625007e+00   3.5215282e+00   3.9056949e+01   2.0809030e+01   9.6041678e+00  -1.8568058e+01  -6.4027785e+00   9.5721539e+01  -7.0430564e+00   3.2013893e-01   1.4214168e+02  -6.4027785e-01  -1.9208336e+01  -7.6833342e+00   9.6041678e-01  -3.8416671e+00  -4.4819450e+00   5.4423618e+00  -3.2013893e+00   0.0000000e+00   0.0000000e+00   0.0000000e+00   0.0000000e+00
  -3.2013893e+00  -4.8020839e+00   4.4819450e+00   3.9377088e+01   2.1129169e+01   9.6041678e+00  -1.7287502e+01  -5.1222228e+00   9.4440983e+01  -6.0826396e+00   6.4027785e-01   1.4246182e+02   3.2013893e-01  -1.8568058e+01  -7.0430564e+00   1.9208336e+00  -2.8812503e+00  -4.8020839e+00   8.3236121e+00  -1.6006946e+00   0.0000000e+00   0.0000000e+00   0.0000000e+00   0.0000000e+00
  -1.6006946e+00  -4.1618060e+00   5.1222228e+00   3.9377088e+01   2.1769447e+01   9.2840289e+00  -1.6647224e+01  -4.1618060e+00   9.3160428e+01  -5.7625007e+00   1.2805557e+00   1.4278196e+02   1.2805557e+00  -1.8568058e+01  -7.0430564e+00   2.8812503e+00  -1.9208336e+00  -5.4423618e+00   1.0884724e+01   0.0000000e+00   0.0000000e+00   0.0000000e+00   0.0000000e+00   0.0000000e+00
  -3.2013893e-01  -4.1618060e+00   5.4423618e+00   3.9697227e+01   2.2409725e+01   8.9638899e+00  -1.6327085e+01  -4.1618060e+00   9.2520150e+01  -5.4423618e+00   1.6006946e+00   1.4310210e+02   2.2409725e+00  -1.8247919e+01  -7.0430564e+00   3.5215282e+00  -6.4027785e-01  -6.4027785e+00   1.3125696e+01   1.6006946e+00   0.0000000e+00   0.0000000e+00   0.0000000e+00   0.0000000e+00
   6.4027785e-01  -4.4819450e+00   5.1222228e+00   3.9697227e+01   2.2729864e+01   8.0034732e+00  -1.6967363e+01  -4.4819450e+00   9.2200011e+01  -6.0826396e+00   1.2805557e+00   1.4246182e+02   2.5611114e+00  -1.8888197e+01  -7.6833342e+00   3.5215282e+00   3.2013893e-01  -7.6833342e+00   1.5046530e+01   1.9208336e+00   0.0000000e+00   0.0000000e+00   0.0000000e+00   0.0000000e+00
   1.6006946e+00  -5.1222228e+00   4.8020839e+00   4.0017366e+01   2.3370142e+01   7.6833342e+00  -1.7287502e+01  -4.8020839e+00   9.1879872e+01  -7.0430564e+00   3.2013893e-01   1.4182154e+02   2.5611114e+00  -1.9528475e+01  -8.3236121e+00   3.5215282e+00   9.6041678e-01  -9.2840289e+00   1.6647224e+01   1.9208336e+00   0.0000000e+00   0.0000000e+00   0.0000000e+00   0.0000000e+00
   3.2013893e+00  -4.8020839e+00   4.8020839e+00   4.1297922e+01   2.4650697e+01   8.0034732e+00  -1.7287502e+01  -4.8020839e+00   9.1879872e+01  -7.0430564e+00  -6.4027785e-01   1.4182154e+02   3.2013893e+00  -1.9208336e+01  -8.0034732e+00   3.5215282e+00   1.9208336e+00  -1.0244446e+01   1.8247919e+01   1.9208336e+00   0.0000000e+00   0.0000000e+00   0.0000000e+00   0.0000000e+00
   5.7625007e+00  -4.1618060e+00   5.4423618e+00   4.2898616e+01   2.6571531e+01   8.9638899e+00  -1.6327085e+01  -3.8416671e+00   9.1879872e+01  -6.7229175e+00  -3.2013893e-01   1.4246182e+02   4.4819450e+00  -1.8568058e+01  -7.3631953e+00   4.4819450e+00   3.2013893e+00  -9.9243067e+00   2.0488891e+01   2.8812503e+00   0.0000000e+00   0.0000000e+00   0.0000000e+00   0.0000000e+00
   8.3236121e+00  -2.5611114e+00   7.0430564e+00   4.4499311e+01   2.8812503e+01   1.0564585e+01  -1.5046530e+01  -2.5611114e+00   9.2520150e+01  -5.4423618e+00   9.6041678e-01   1.4406252e+02   6.4027785e+00  -1.7607641e+01  -5.7625007e+00   6.0826396e+00   5.1222228e+00  -8.9638899e+00   2.2409725e+01   4.1618060e+00   0.0000000e+00   0.0000000e+00   0.0000000e+00   0.0000000e+00
   1.0884724e+01  -6.4027785e-01   8.3236121e+00   4.5459728e+01   3.0413198e+01   1.2165279e+01  -1.4406252e+01  -1.2805557e+00   9.3160428e+01  -4.1618060e+00   2.5611114e+00   1.4598335e+02   8.3236121e+00  -1.6967363e+01  -4.4819450e+00   7.3631953e+00   6.7229175e+00  -7.6833342e+00   2.4010419e+01   5.4423618e+00   0.0000000e+00   0.0000000e+00   0.0000000e+00   0.0000000e+00
   1.1845140e+01   6.4027785e-01   8.3236121e+00   4.5779866e+01   3.0733337e+01   1.2485418e+01  -1.5046530e+01  -1.2805557e+00   9.3480567e+01  -4.1618060e+00   3.5215282e+00   1.4726391e+02   9.6041678e+00  -1.7287502e+01  -4.1618060e+00   7.6833342e+00   7.3631953e+00  -7.0430564e+00   2.4010419e+01   5.7625007e+00   0.0000000e+00   0.0000000e+00   0.0000000e+00   0.0000000e+00
   1.2165279e+01   1.9208336e+00   7.6833342e+00   4.5779866e+01   3.0733337e+01   1.2485418e+01  -1.6327085e+01  -1.2805557e+00   9.3800705e+01  -4.4819450e+00   3.8416671e+00   1.4854446e+02   9.9243067e+00  -1.8247919e+01  -4.1618060e+00   7.3631953e+00   7.6833342e+00  -6.4027785e+00   2.4010419e+01   5.4423618e+00   0.0000000e+00   0.0000000e+00   0.0000000e+00   0.0000000e+00
   1.1204862e+01   2.8812503e+00   5.7625007e+00   4.5779866e+01   3.0413198e+01   1.1845140e+01  -1.7927780e+01  -1.6006946e+00   9.4120844e+01  -5.4423618e+00   3.2013893e+00   1.4854446e+02   9.9243067e+00  -1.9208336e+01  -4.4819450e+00   6.7229175e+00   7.3631953e+00  -6.4027785e+00   2.3370142e+01   4.4819450e+00   0.0000000e+00   0.0000000e+00   0.0000000e+00   0.0000000e+00
   9.9243067e+00   2.5611114e+00   4.1618060e+00   4.5779866e+01   3.0413198e+01   1.1845140e+01  -1.9528475e+01  -2.2409725e+00   9.4120844e+01  -5.7625007e+00   2.5611114e+00   1.4854446e+02   9.9243067e+00  -1.9848613e+01  -4.4819450e+00   6.0826396e+00   7.0430564e+00  -6.0826396e+00   2.3050003e+01   3.8416671e+00   0.0000000e+00   0.0000000e+00   0.0000000e+00   0.0000000e+00
   8.6437510e+00   1.9208336e+00   3.2013893e+00   4.5779866e+01   3.0733337e+01   1.2485418e+01  -1.9848613e+01  -2.2409725e+00   9.4761122e+01  -5.1222228e+00   2.5611114e+00   1.4822432e+02   1.0884724e+01  -1.9848613e+01  -3.8416671e+00   6.0826396e+00   8.0034732e+00  -4.8020839e+00   2.3370142e+01   3.5215282e+00   0.0000000e+00   0.0000000e+00   0.0000000e+00   0.0000000e+00
   6.7229175e+00   3.2013893e-01   2.5611114e+00   4.6100005e+01   3.1373615e+01   1.3445835e+01  -2.0168752e+01  -2.8812503e+00   9.5401400e+01  -4.1618060e+00   2.5611114e+00   1.4790418e+02   1.1845140e+01  -1.9848613e+01  -3.2013893e+00   6.0826396e+00   8.6437510e+00  -3.8416671e+00   2.3050003e+01   3.2013893e+00   0.0000000e+00   0.0000000e+00   0.0000000e+00   0.0000000e+00
   5.1222228e+00  -9.6041678e-01   1.9208336e+00   4.6420144e+01   3.1373615e+01   1.4406252e+01  -2.0488891e+01  -3.8416671e+00   9.6361817e+01  -3.2013893e+00   3.2013893e+00   1.4790418e+02   1.3125696e+01  -1.9528475e+01  -2.8812503e+00   6.0826396e+00   9.6041678e+00  -2.5611114e+00   2.3050003e+01   3.2013893e+00   0.0000000e+00   0.0000000e+00   0.0000000e+00   0.0000000e+00
   3.8416671e+00  -2.5611114e+00   1.2805557e+00   4.7380561e+01   3.1373615e+01   1.4726391e+01  -2.1129169e+01  -4.8020839e+00   9.7322234e+01  -3.2013893e+00   3.8416671e+00   1.4854446e+02   1.4086113e+01  -1.9528475e+01  -2.5611114e+00   6.0826396e+00   1.0244446e+01  -1.6006946e+00   2.3050003e+01   2.8812503e+00   0.0000000e+00   0.0000000e+00   0.0000000e+00   0.0000000e+00
   3.2013893e+00  -4.4819450e+00  -3.2013893e-01   4.7700700e+01   3.0733337e+01   1.4406252e+01  -2.2409725e+01  -6.0826396e+00   9.7642373e+01  -4.8020839e+00   3.2013893e+00   1.4950488e+02   1.3765974e+01  -1.9848613e+01  -2.8812503e+00   5.4423618e+00   1.0244446e+01  -1.6006946e+00   2.2409725e+01   2.2409725e+00   0.0000000e+00   0.0000000e+00   0.0000000e+00   0.0000000e+00
   2.8812503e+00  -7.3631953e+00  -1.9208336e+00   4.8340978e+01   2.9772920e+01   1.3765974e+01  -2.3690281e+01  -7.6833342e+00   9.7002095e+01  -7.0430564e+00   1.9208336e+00   1.5046530e+02   1.2485418e+01  -2.0488891e+01  -3.5215282e+00   4.4819450e+00   8.9638899e+00  -2.2409725e+00   2.1769447e+01   6.4027785e-01   0.0000000e+00   0.0000000e+00   0.0000000e+00   0.0000000e+00
   2.8812503e+00  -9.6041678e+00  -3.2013893e+00   4.8981256e+01   2.9452781e+01   1.3765974e+01  -2.4330558e+01  -8.6437510e+00   9.6361817e+01  -8.3236121e+00   9.6041678e-01   1.5206599e+02   1.1525001e+01  -2.0809030e+01  -3.5215282e+00   3.8416671e+00   8.3236121e+00  -2.5611114e+00   2.2089586e+01  -3.2013893e-01   0.0000000e+00   0.0000000e+00   0.0000000e+00   0.0000000e+00
   2.2409725e+00  -1.1845140e+01  -4.1618060e+00   4.9301395e+01   2.9132642e+01   1.3765974e+01  -2.4650697e+01  -9.9243067e+00   9.5081261e+01  -8.9638899e+00   3.2013893e-01   1.5334655e+02   1.0244446e+01  -2.0809030e+01  -3.2013893e+00   3.2013893e+00   7.3631953e+00  -2.8812503e+00   2.2409725e+01  -1.2805557e+00   0.0000000e+00   0.0000000e+00   0.0000000e+00   0.0000000e+00
   3.2013893e-01  -1.3445835e+01  -4.8020839e+00   4.8981256e+01   2.8492364e+01   1.4406252e+01  -2.4650697e+01  -1.0884724e+01   9.4120844e+01  -8.9638899e+00   0.0000000e+00   1.5334655e+02   9.6041678e+00  -2.0809030e+01  -2.8812503e+00   2.8812503e+00   7.0430564e+00  -3.5215282e+00   2.2729864e+01  -1.6006946e+00   0.0000000e+00   0.0000000e+00   0.0000000e+00   0.0000000e+00
  -2.2409725e+00  -1.5046530e+01  -5.4423618e+00   4.8020839e+01   2.7211809e+01   1.4406252e+01  -2.5290975e+01  -1.2485418e+01   9.2520150e+01  -8.9638899e+00  -3.2013893e-01   1.5142571e+02   8.6437510e+00  -2.1449308e+01  -2.8812503e+00   2.5611114e+00   6.0826396e+00  -4.4819450e+00   2.2409725e+01  -2.2409725e+00   0.0000000e+00   0.0000000e+00   0.0000000e+00   0.0000000e+00
  -4.1618060e+00  -1.5046530e+01  -5.1222228e+00   4.7380561e+01   2.6251392e+01   1.4406252e+01  -2.5290975e+01  -1.2805557e+01   9.1239594e+01  -8.3236121e+00  -3.2013893e-01   1.4886460e+02   8.6437510e+00  -2.1769447e+01  -2.5611114e+00   2.5611114e+00   5.4423618e+00  -5.4423618e+00   2.2729864e+01  -1.9208336e+00   0.0000000e+00   0.0000000e+00   0.0000000e+00   0.0000000e+00
  -5.1222228e+00  -1.4406252e+01  -4.8020839e+00   4.6740283e+01   2.5290975e+01   1.4726391e+01  -2.5611114e+01  -1.2485418e+01   8.9959038e+01  -7.6833342e+00  -6.4027785e-01   1.4566321e+02   8.6437510e+00  -2.1769447e+01  -2.5611114e+00   2.5611114e+00   4.8020839e+00  -6.0826396e+00   2.2729864e+01  -1.6006946e+00   0.0000000e+00   0.0000000e+00   0.0000000e+00   0.0000000e+00
  -4.1618060e+00  -1.2485418e+01  -3.5215282e+00   4.7060422e+01   2.5611114e+01   1.5366668e+01  -2.4970836e+01  -1.1204862e+01   8.9638899e+01  -6.0826396e+00  -6.4027785e-01   1.4406252e+02   9.2840289e+00  -2.0809030e+01  -1.9208336e+00   3.2013893e+00   4.8020839e+00  -5.7625007e+00   2.3370142e+01  -9.6041678e-01   0.0000000e+00   0.0000000e+00   0.0000000e+00   0.0000000e+00
  -2.5611114e+00  -9.6041678e+00  -1.9208336e+00   4.7380561e+01   2.6571531e+01   1.6647224e+01  -2.3690281e+01  -9.2840289e+00   8.9318761e+01  -3.8416671e+00  -9.6041678e-01   1.4310210e+02   9.9243067e+00  -1.9528475e+01  -9.6041678e-01   3.5215282e+00   5.1222228e+00  -5.1222228e+00   2.4650697e+01  -3.2013893e-01   0.0000000e+00   0.0000000e+00   0.0000000e+00   0.0000000e+00
  -3.2013893e-01  -6.4027785e+00   3.2013893e-01   4.8340978e+01   2.8172226e+01   1.8247919e+01  -2.1769447e+01  -7.0430564e+00   9.0599316e+01  -9.6041678e-01  -3.2013893e-01   1.4310210e+02   1.1525001e+01  -1.7607641e+01   3.2013893e-01   4.4819450e+00   6.4027785e+00  -3.5215282e+00   2.5931253e+01   9.6041678e-01   0.0000000e+00   0.0000000e+00   0.0000000e+00   0.0000000e+00
   6.4027785e-01  -3.5215282e+00   1.9208336e+00   4.8661117e+01   2.9452781e+01   1.9528475e+01  -2.0168752e+01  -5.4423618e+00   9.1879872e+01   1.9208336e+00   3.2013893e-01   1.4278196e+02   1.3125696e+01  -1.6006946e+01   1.6006946e+00   5.4423618e+00   7.0430564e+00  -1.9208336e+00   2.6891670e+01   1.6006946e+00   0.0000000e+00   0.0000000e+00   0.0000000e+00   0.0000000e+00
   6.4027785e-01  -2.5611114e+00   3.2013893e+00   4.8340978e+01   3.0093059e+01   1.9848613e+01  -1.9528475e+01  -4.8020839e+00   9.2840289e+01   4.8020839e+00   9.6041678e-01   1.4246182e+02   1.4086113e+01  -1.5366668e+01   1.9208336e+00   6.0826396e+00   7.6833342e+00  -6.4027785e-01   2.6891670e+01   1.9208336e+00   0.0000000e+00   0.0000000e+00   0.0000000e+00   0.0000000e+00
   6.4027785e-01  -3.2013893e+00   4.1618060e+00   4.7700700e+01   3.0093059e+01   1.9848613e+01  -1.8888197e+01  -4.8020839e+00   9.3480567e+01   7.6833342e+00   9.6041678e-01   1.4214168e+02   1.5046530e+01  -1.5366668e+01   1.6006946e+00   6.4027785e+00   7.6833342e+00   3.2013893e-01   2.6251392e+01   1.6006946e+00   0.0000000e+00   0.0000000e+00   0.0000000e+00   0.0000000e+00
   1.6006946e+00  -3.8416671e+00   5.7625007e+00   4.8340978e+01   3.0733337e+01   2.0488891e+01  -1.7607641e+01  -3.8416671e+00   9.3800705e+01   1.0884724e+01   9.6041678e-01   1.4278196e+02   1.6006946e+01  -1.5046530e+01   1.9208336e+00   7.0430564e+00   8.3236121e+00   2.2409725e+00   2.6251392e+01   1.9208336e+00   0.0000000e+00   0.0000000e+00   0.0000000e+00   0.0000000e+00
   4.4819450e+00  -3.2013893e+00   8.0034732e+00   5.0581950e+01   3.2974309e+01   2.2409725e+01  -1.5046530e+01  -1.6006946e+00   9.4761122e+01   1.4086113e+01   1.2805557e+00   1.4502293e+02   1.7607641e+01  -1.3445835e+01   3.2013893e+00   8.3236121e+00   9.9243067e+00   5.1222228e+00   2.7531948e+01   2.8812503e+00   0.0000000e+00   0.0000000e+00   0.0000000e+00   0.0000000e+00
   7.3631953e+00  -9.6041678e-01   9.9243067e+00   5.3143062e+01   3.5215282e+01   2.4650697e+01  -1.2485418e+01   6.4027785e-01   9.5401400e+01   1.5366668e+01   1.2805557e+00   1.4790418e+02   1.8888197e+01  -1.1204862e+01   5.1222228e+00   9.6041678e+00   1.1845140e+01   8.3236121e+00   2.9132642e+01   3.8416671e+00   0.0000000e+00   0.0000000e+00   0.0000000e+00   0.0000000e+00
   1.0564585e+01   2.8812503e+00   1.1845140e+01   5.6344451e+01   3.7136115e+01   2.6891670e+01  -9.9243067e+00   2.2409725e+00   9.6041678e+01   1.3765974e+01   1.6006946e+00   1.5110557e+02   2.0809030e+01  -8.9638899e+00   7.3631953e+00   1.0244446e+01   1.3765974e+01   1.1525001e+01   3.0413198e+01   4.8020839e+00   0.0000000e+00   0.0000000e+00   0.0000000e+00   0.0000000e+00
   1.2805557e+01   6.0826396e+00   1.2485418e+01   5.8265285e+01   3.8416671e+01   2.7852087e+01  -8.6437510e+00   2.8812503e+00   9.6681956e+01   9.9243067e+00   2.2409725e+00   1.5302641e+02   2.2089586e+01  -7.3631953e+00   8.9638899e+00   9.9243067e+00   1.5046530e+01   1.4086113e+01   3.0733337e+01   5.1222228e+00   0.0000000e+00   0.0000000e+00   0.0000000e+00   0.0000000e+00
   1.3765974e+01   7.6833342e+00   1.2165279e+01   5.9225701e+01   3.8416671e+01   2.7531948e+01  -8.9638899e+00   1.9208336e+00   9.7002095e+01   5.7625007e+00   3.2013893e+00   1.5462710e+02   2.2729864e+01  -7.3631953e+00   8.9638899e+00   8.9638899e+00   1.5686807e+01   1.5366668e+01   2.9772920e+01   4.4819450e+00   0.0000000e+00   0.0000000e+00   0.0000000e+00   0.0000000e+00
   1.3445835e+01   7.0430564e+00   1.1204862e+01   5.8585424e+01   3.7456254e+01   2.6571531e+01  -1.0244446e+01   3.2013893e-01   9.7322234e+01   2.2409725e+00   3.5215282e+00   1.5494724e+02   2.3050003e+01  -8.3236121e+00   8.0034732e+00   6.7229175e+00   1.5366668e+01   1.5686807e+01   2.7531948e+01   3.2013893e+00   0.0000000e+00   0.0000000e+00   0.0000000e+00   0.0000000e+00
   1.2805557e+01   5.7625007e+00   9.9243067e+00   5.7304868e+01   3.7136115e+01   2.6251392e+01  -1.1525001e+01  -1.6006946e+00   9.7962512e+01   3.2013893e-01   3.8416671e+00   1.5494724e+02   2.3050003e+01  -9.6041678e+00   7.3631953e+00   4.4819450e+00   1.5366668e+01   1.5366668e+01   2.5611114e+01   2.2409725e+00   0.0000000e+00   0.0000000e+00   0.0000000e+00   0.0000000e+00
   1.1525001e+01   4.1618060e+00   8.3236121e+00   5.4743756e+01   3.6175699e+01   2.5290975e+01  -1.2805557e+01  -3.5215282e+00   9.7322234e+01  -9.6041678e-01   3.2013893e+00   1.5366668e+02   2.2409725e+01  -1.1525001e+01   6.0826396e+00   1.9208336e+00   1.4726391e+01   1.4086113e+01   2.3690281e+01   6.4027785e-01   0.0000000e+00   0.0000000e+00   0.0000000e+00   0.0000000e+00
   9.9243067e+00   3.2013893e+00   7.0430564e+00   5.1542367e+01   3.4895143e+01   2.4330558e+01  -1.4406252e+01  -5.1222228e+00   9.6041678e+01  -2.8812503e+00   2.2409725e+00   1.5078543e+02   2.1449308e+01  -1.3125696e+01   4.8020839e+00  -6.4027785e-01   1.3445835e+01   1.2165279e+01   2.2089586e+01  -9.6041678e-01   0.0000000e+00   0.0000000e+00   0.0000000e+00   0.0000000e+00
   9.6041678e+00   2.8812503e+00   6.0826396e+00   4.9301395e+01   3.4254865e+01   2.4010419e+01  -1.5046530e+01  -5.7625007e+00   9.4761122e+01  -4.8020839e+00   1.6006946e+00   1.4822432e+02   2.0809030e+01  -1.4406252e+01   4.4819450e+00  -2.2409725e+00   1.3125696e+01   1.0884724e+01   2.1449308e+01  -1.9208336e+00   0.0000000e+00   0.0000000e+00   0.0000000e+00   0.0000000e+00
   9.2840289e+00   2.5611114e+00   5.4423618e+00   4.7060422e+01   3.2974309e+01   2.2729864e+01  -1.6006946e+01  -6.7229175e+00   9.3160428e+01  -7.0430564e+00   9.6041678e-01   1.4534307e+02   2.0168752e+01  -1.5686807e+01   3.8416671e+00  -3.5215282e+00   1.1845140e+01   8.6437510e+00   2.0488891e+01  -2.5611114e+00   0.0000000e+00   0.0000000e+00   0.0000000e+00   0.0000000e+00
   8.6437510e+00   9.6041678e-01   4.4819450e+00   4.5139589e+01   3.1373615e+01   2.1129169e+01  -1.7607641e+01  -8.3236121e+00   9.1879872e+01  -8.9638899e+00   6.4027785e-01   1.4342224e+02   1.9208336e+01  -1.7607641e+01   2.8812503e+00  -4.4819450e+00   1.0564585e+01   6.4027785e+00   1.8888197e+01  -3.5215282e+00   0.0000000e+00   0.0000000e+00   0.0000000e+00   0.0000000e+00
   7.3631953e+00  -1.2805557e+00   3.5215282e+00   4.2898616e+01   3.0093059e+01   1.9528475e+01  -1.8888197e+01  -9.9243067e+00   9.0279177e+01  -9.9243067e+00   3.2013893e-01   1.4214168e+02   1.8247919e+01  -1.9528475e+01   1.6006946e+00  -5.4423618e+00   9.2840289e+00   3.8416671e+00   1.7607641e+01  -4.1618060e+00   0.0000000e+00   0.0000000e+00   0.0000000e+00   0.0000000e+00
   5.4423618e+00  -3.2013893e+00   2.5611114e+00   4.1297922e+01   2.9132642e+01   1.8568058e+01  -2.0168752e+01  -1.1845140e+01   8.8998622e+01  -9.2840289e+00  -6.4027785e-01   1.4118127e+02   1.7287502e+01  -2.1449308e+01   0.0000000e+00  -6.4027785e+00   8.0034732e+00   1.6006946e+00   1.6327085e+01  -5.1222228e+00   0.0000000e+00   0.0000000e+00   0.0000000e+00   0.0000000e+00
   3.5215282e+00  -3.8416671e+00   2.2409725e+00   4.0977783e+01   2.9452781e+01   1.8247919e+01  -2.0488891e+01  -1.2805557e+01   8.8038205e+01  -7.6833342e+00  -1.9208336e+00   1.4086113e+02   1.6647224e+01  -2.2729864e+01  -6.4027785e-01  -6.4027785e+00   7.0430564e+00   3.2013893e-01   1.6006946e+01  -5.4423618e+00   0.0000000e+00   0.0000000e+00   0.0000000e+00   0.0000000e+00
   2.8812503e+00  -2.5611114e+00   3.2013893e+00   4.1938199e+01   3.0733337e+01   1.9208336e+01  -1.9528475e+01  -1.2485418e+01   8.8038205e+01  -5.1222228e+00  -2.5611114e+00   1.4086113e+02   1.6647224e+01  -2.2729864e+01  -6.4027785e-01  -6.0826396e+00   7.3631953e+00   3.2013893e-01   1.6647224e+01  -4.4819450e+00   0.0000000e+00   0.0000000e+00   0.0000000e+00   0.0000000e+00
   2.8812503e+00  -3.2013893e-01   4.1618060e+00   4.3538894e+01   3.2013893e+01   2.0488891e+01  -1.8247919e+01  -1.1204862e+01   8.8358344e+01  -3.2013893e+00  -2.8812503e+00   1.4086113e+02   1.6967363e+01  -2.2089586e+01  -3.2013893e-01  -5.1222228e+00   8.0034732e+00   9.6041678e-01   1.7607641e+01  -3.2013893e+00   0.0000000e+00   0.0000000e+00   0.0000000e+00   0.0000000e+00
   3.5215282e+00   2.2409725e+00   5.4423618e+00   4.5779866e+01   3.3294448e+01   2.2089586e+01  -1.6647224e+01  -9.6041678e+00   8.9638899e+01  -1.6006946e+00  -2.2409725e+00   1.4118127e+02   1.7927780e+01  -2.0809030e+01   3.2013893e-01  -3.5215282e+00   8.6437510e+00   2.2409725e+00   1.8888197e+01  -9.6041678e-01   0.0000000e+00   0.0000000e+00   0.0000000e+00   0.0000000e+00
   4.4819450e+00   4.4819450e+00   6.7229175e+00   4.7060422e+01   3.4254865e+01   2.3690281e+01  -1.5366668e+01  -8.0034732e+00   9.1239594e+01  -6.4027785e-01  -9.6041678e-01   1.4182154e+02   1.8888197e+01  -1.9528475e+01   9.6041678e-01  -1.9208336e+00   9.6041678e+00   3.8416671e+00   1.9848613e+01   1.2805557e+00   0.0000000e+00   0.0000000e+00   0.0000000e+00   0.0000000e+00
   4.8020839e+00   5.4423618e+00   7.6833342e+00   4.7700700e+01   3.4254865e+01   2.4970836e+01  -1.4406252e+01  -6.7229175e+00   9.2840289e+01  -3.2013893e-01   6.4027785e-01   1.4278196e+02   1.9528475e+01  -1.8888197e+01   1.2805557e+00  -6.4027785e-01   9.9243067e+00   5.4423618e+00   2.0168752e+01   3.2013893e+00   0.0000000e+00   0.0000000e+00   0.0000000e+00   0.0000000e+00
   4.8020839e+00   5.4423618e+00   7.6833342e+00   4.7380561e+01   3.3614587e+01   2.5290975e+01  -1.4406252e+01  -6.0826396e+00   9.3800705e+01  -3.2013893e-01   1.6006946e+00   1.4342224e+02   1.9528475e+01  -1.8888197e+01   9.6041678e-01   0.0000000e+00   9.9243067e+00   6.4027785e+00   2.0168752e+01   4.4819450e+00   0.0000000e+00   0.0000000e+00   0.0000000e+00   0.0000000e+00
   5.4423618e+00   4.8020839e+00   7.6833342e+00   4.6740283e+01   3.2974309e+01   2.5611114e+01  -1.4406252e+01  -5.1222228e+00   9.4440983e+01   0.0000000e+00   2.2409725e+00   1.4374238e+02   1.9208336e+01  -1.8888197e+01   6.4027785e-01   6.4027785e-01   9.2840289e+00   7.6833342e+00   1.9848613e+01   5.1222228e+00   0.0000000e+00   0.0000000e+00   0.0000000e+00   0.0000000e+00
   7.0430564e+00   4.8020839e+00   8.3236121e+00   4.6740283e+01   3.2974309e+01   2.5931253e+01  -1.4086113e+01  -3.5215282e+00   9.5401400e+01   1.6006946e+00   2.5611114e+00   1.4438266e+02   1.8888197e+01  -1.8568058e+01   3.2013893e-01   1.2805557e+00   9.2840289e+00   9.2840289e+00   2.0488891e+01   5.7625007e+00   0.0000000e+00   0.0000000e+00   0.0000000e+00   0.0000000e+00
   8.6437510e+00   4.1618060e+00   8.0034732e+00   4.6100005e+01   3.2013893e+01   2.5611114e+01  -1.4406252e+01  -2.5611114e+00   9.5721539e+01   2.8812503e+00   2.2409725e+00   1.4374238e+02   1.8247919e+01  -1.8888197e+01  -3.2013893e-01   1.2805557e+00   8.9638899e+00   9.6041678e+00   2.0168752e+01   5.7625007e+00   0.0000000e+00   0.0000000e+00   0.0000000e+00   0.0000000e+00
   1.0244446e+01   3.8416671e+00   7.6833342e+00   4.5139589e+01   3.1373615e+01   2.5290975e+01  -1.4726391e+01  -1.9208336e+00   9.5401400e+01   4.4819450e+00   2.2409725e+00   1.4278196e+02   1.7607641e+01  -1.8888197e+01  -6.4027785e-01   1.6006946e+00   8.6437510e+00   9.9243067e+00   1.9848613e+01   5.7625007e+00   0.0000000e+00   0.0000000e+00   0.0000000e+00   0.0000000e+00
   9.6041678e+00   3.5215282e+00   6.7229175e+00   4.3538894e+01   2.9772920e+01   2.4010419e+01  -1.6006946e+01  -2.5611114e+00   9.4120844e+01   4.8020839e+00   1.6006946e+00   1.4118127e+02   1.6647224e+01  -1.9528475e+01  -1.9208336e+00   1.6006946e+00   8.0034732e+00   8.9638899e+00   1.8568058e+01   5.4423618e+00   0.0000000e+00   0.0000000e+00   0.0000000e+00   0.0000000e+00
   7.3631953e+00   3.8416671e+00   5.7625007e+00   4.2258338e+01   2.8172226e+01   2.2729864e+01  -1.7287502e+01  -3.5215282e+00   9.2840289e+01   4.1618060e+00   1.2805557e+00   1.3958057e+02   1.5686807e+01  -2.0488891e+01  -2.5611114e+00   1.6006946e+00   7.0430564e+00   7.3631953e+00   1.7287502e+01   4.8020839e+00   0.0000000e+00   0.0000000e+00   0.0000000e+00   0.0000000e+00
   4.1618060e+00   4.8020839e+00   5.4423618e+00   4.1938199e+01   2.7211809e+01   2.1769447e+01  -1.7927780e+01  -3.8416671e+00   9.1559733e+01   3.2013893e+00   9.6041678e-01   1.3862016e+02   1.5046530e+01  -2.1129169e+01  -3.2013893e+00   1.9208336e+00   6.7229175e+00   6.0826396e+00   1.6647224e+01   4.8020839e+00   0.0000000e+00   0.0000000e+00   0.0000000e+00   0.0000000e+00
   1.9208336e+00   5.4423618e+00   5.4423618e+00   4.2578477e+01   2.6891670e+01   2.1449308e+01  -1.8247919e+01  -3.8416671e+00   9.0599316e+01   2.2409725e+00   6.4027785e-01   1.3830002e+02   1.5046530e+01  -2.0809030e+01  -3.2013893e+00   2.2409725e+00   7.0430564e+00   5.1222228e+00   1.6647224e+01   4.8020839e+00   0.0000000e+00   0.0000000e+00   0.0000000e+00   0.0000000e+00
   9.6041678e-01   5.4423618e+00   5.7625007e+00   4.3859033e+01   2.7852087e+01   2.1769447e+01  -1.7287502e+01  -2.8812503e+00   9.0279177e+01   1.6006946e+00   6.4027785e-01   1.3958057e+02   1.5366668e+01  -1.9848613e+01  -2.2409725e+00   2.5611114e+00   8.0034732e+00   4.8020839e+00   1.7927780e+01   5.4423618e+00   0.0000000e+00   0.0000000e+00   0.0000000e+00   0.0000000e+00
   1.9208336e+00   4.8020839e+00   7.0430564e+00   4.5779866e+01   2.9452781e+01   2.3050003e+01  -1.5686807e+01  -1.2805557e+00   9.1239594e+01   1.9208336e+00   1.6006946e+00   1.4214168e+02   1.6967363e+01  -1.7927780e+01  -6.4027785e-01   3.5215282e+00   9.2840289e+00   4.8020839e+00   1.9528475e+01   7.0430564e+00   0.0000000e+00   0.0000000e+00   0.0000000e+00   0.0000000e+00
   3.2013893e+00   3.5215282e+00   8.3236121e+00   4.6740283e+01   3.0733337e+01   2.4330558e+01  -1.4406252e+01   0.0000000e+00   9.1879872e+01   2.8812503e+00   2.5611114e+00   1.4502293e+02   1.8247919e+01  -1.6006946e+01   6.4027785e-01   4.4819450e+00   1.0564585e+01   4.8020839e+00   2.0809030e+01   8.3236121e+00   0.0000000e+00   0.0000000e+00   0.0000000e+00   0.0000000e+00
   4.4819450e+00   2.5611114e+00   8.9638899e+00   4.7060422e+01   3.1373615e+01   2.4970836e+01  -1.4086113e+01   3.2013893e-01   9.2200011e+01   3.8416671e+00   3.5215282e+00   1.4726391e+02   1.9208336e+01  -1.4726391e+01   1.2805557e+00   5.1222228e+00   1.1204862e+01   4.1618060e+00   2.1449308e+01   9.2840289e+00   0.0000000e+00   0.0000000e+00   0.0000000e+00   0.0000000e+00
   4.4819450e+00   1.9208336e+00   8.9638899e+00   4.6420144e+01   3.1373615e+01   2.4650697e+01  -1.4726391e+01   0.0000000e+00   9.1559733e+01   4.8020839e+00   4.1618060e+00   1.4790418e+02   1.9208336e+01  -1.4406252e+01   1.6006946e+00   5.4423618e+00   1.1204862e+01   3.5215282e+00   2.1129169e+01   9.2840289e+00   0.0000000e+00   0.0000000e+00   0.0000000e+00   0.0000000e+00
   4.4819450e+00   2.2409725e+00   9.2840289e+00   4.5779866e+01   3.1373615e+01   2.4650697e+01  -1.5366668e+01  -3.2013893e-01   9.0919455e+01   5.7625007e+00   5.1222228e+00   1.4630349e+02   1.9208336e+01  -1.4406252e+01   1.6006946e+00   6.0826396e+00   1.0884724e+01   2.8812503e+00   2.0809030e+01   9.6041678e+00   0.0000000e+00   0.0000000e+00   0.0000000e+00   0.0000000e+00
   4.4819450e+00   2.2409725e+00   9.2840289e+00   4.5459728e+01   3.1053476e+01   2.4010419e+01  -1.6006946e+01  -3.2013893e-01   8.9638899e+01   6.4027785e+00   5.4423618e+00   1.4310210e+02   1.9208336e+01  -1.4406252e+01   1.6006946e+00   6.7229175e+00   1.0564585e+01   2.5611114e+00   2.0809030e+01   9.9243067e+00   0.0000000e+00   0.0000000e+00   0.0000000e+00   0.0000000e+00
   4.8020839e+00   9.6041678e-01   9.2840289e+00   4.5139589e+01   3.0733337e+01   2.3690281e+01  -1.6006946e+01   3.2013893e-01   8.8678483e+01   6.7229175e+00   5.7625007e+00   1.3926043e+02   1.8568058e+01  -1.4406252e+01   1.9208336e+00   7.6833342e+00   1.0244446e+01   2.5611114e+00   2.1129169e+01   1.0564585e+01   0.0000000e+00   0.0000000e+00   0.0000000e+00   0.0000000e+00
   6.4027785e+00  -9.6041678e-01   9.9243067e+00   4.5459728e+01   3.0733337e+01   2.4010419e+01  -1.5366668e+01   1.9208336e+00   8.8678483e+01   6.7229175e+00   6.7229175e+00   1.3701946e+02   1.8888197e+01  -1.3445835e+01   3.2013893e+00   9.2840289e+00   1.0244446e+01   3.5215282e+00   2.2409725e+01   1.1845140e+01   0.0000000e+00   0.0000000e+00   0.0000000e+00   0.0000000e+00
   7.6833342e+00  -3.8416671e+00   1.0564585e+01   4.5139589e+01   3.0093059e+01   2.3690281e+01  -1.4726391e+01   3.5215282e+00   8.8358344e+01   6.4027785e+00   7.3631953e+00   1.3541877e+02   1.8568058e+01  -1.2805557e+01   3.8416671e+00   1.0884724e+01   1.0244446e+01   4.4819450e+00   2.3050003e+01   1.3125696e+01   0.0000000e+00   0.0000000e+00   0.0000000e+00   0.0000000e+00
   8.0034732e+00  -5.7625007e+00   1.0884724e+01   4.4179172e+01   2.9452781e+01   2.3050003e+01  -1.4726391e+01   4.4819450e+00   8.8358344e+01   6.4027785e+00   8.3236121e+00   1.3509863e+02   1.8568058e+01  -1.2485418e+01   4.8020839e+00   1.2165279e+01   1.0244446e+01   5.4423618e+00   2.3690281e+01   1.4086113e+01   0.0000000e+00   0.0000000e+00   0.0000000e+00   0.0000000e+00
   7.0430564e+00  -6.4027785e+00   1.0884724e+01   4.3538894e+01   2.8172226e+01   2.1769447e+01  -1.5366668e+01   4.4819450e+00   8.8678483e+01   6.7229175e+00   8.6437510e+00   1.3445835e+02   1.8568058e+01  -1.2805557e+01   5.1222228e+00   1.2805557e+01   9.9243067e+00   6.7229175e+00   2.3690281e+01   1.4726391e+01   0.0000000e+00   0.0000000e+00   0.0000000e+00   0.0000000e+00
   5.1222228e+00  -6.4027785e+00   1.0244446e+01   4.2898616e+01   2.7211809e+01   2.0488891e+01  -1.6327085e+01   4.1618060e+00   8.8998622e+01   7.0430564e+00   8.9638899e+00   1.3381807e+02   1.8247919e+01  -1.3445835e+01   5.1222228e+00   1.3125696e+01   9.6041678e+00   8.0034732e+00   2.3370142e+01   1.4726391e+01   0.0000000e+00   0.0000000e+00   0.0000000e+00   0.0000000e+00
   2.8812503e+00  -6.4027785e+00   8.6437510e+00   4.2258338e+01   2.6571531e+01   1.8888197e+01  -1.7287502e+01   3.5215282e+00   8.9318761e+01   7.3631953e+00   8.3236121e+00   1.3285765e+02   1.7607641e+01  -1.4406252e+01   5.1222228e+00   1.2805557e+01   9.2840289e+00   8.9638899e+00   2.3370142e+01   1.4406252e+01   0.0000000e+00   0.0000000e+00   0.0000000e+00   0.0000000e+00
   6.4027785e-01  -7.3631953e+00   7.3631953e+00   4.1938199e+01   2.6891670e+01   1.8247919e+01  -1.7607641e+01   3.2013893e+00   9.0279177e+01   8.0034732e+00   7.6833342e+00   1.3221738e+02   1.7607641e+01  -1.4726391e+01   6.0826396e+00   1.2805557e+01   9.2840289e+00   9.6041678e+00   2.4010419e+01   1.4406252e+01   0.0000000e+00   0.0000000e+00   0.0000000e+00   0.0000000e+00
  -9.6041678e-01  -8.9638899e+00   6.0826396e+00   4.1618060e+01   2.7211809e+01   1.8247919e+01  -1.7607641e+01   3.2013893e+00   9.1239594e+01   8.3236121e+00   6.4027785e+00   1.3221738e+02   1.7287502e+01  -1.4406252e+01   7.0430564e+00   1.2485418e+01   9.6041678e+00   1.0244446e+01   2.4970836e+01   1.4406252e+01   0.0000000e+00   0.0000000e+00   0.0000000e+00   0.0000000e+00
  -1.6006946e+00  -1.0884724e+01   5.4423618e+00   4.1297922e+01   2.7531948e+01   1.8568058e+01  -1.7287502e+01   3.5215282e+00   9.3160428e+01   9.9243067e+00   5.7625007e+00   1.3349793e+02   1.7927780e+01  -1.3445835e+01   8.6437510e+00   1.2805557e+01   1.0564585e+01   1.0884724e+01   2.5931253e+01   1.4406252e+01   0.0000000e+00   0.0000000e+00   0.0000000e+00   0.0000000e+00
  -1.2805557e+00  -1.2805557e+01   5.1222228e+00   4.0977783e+01   2.8172226e+01   1.8888197e+01  -1.7287502e+01   3.8416671e+00   9.5081261e+01   1.2165279e+01   5.4423618e+00   1.3541877e+02   1.9208336e+01  -1.2805557e+01   9.6041678e+00   1.2805557e+01   1.1525001e+01   1.1525001e+01   2.6571531e+01   1.4726391e+01   0.0000000e+00   0.0000000e+00   0.0000000e+00   0.0000000e+00
  -3.2013893e-01  -1.4086113e+01   5.1222228e+00   4.0977783e+01   2.8492364e+01   1.9208336e+01  -1.7287502e+01   3.5215282e+00   9.6681956e+01   1.5046530e+01   5.1222228e+00   1.3797988e+02   2.0168752e+01  -1.2805557e+01   1.0244446e+01   1.2485418e+01   1.2485418e+01   1.1525001e+01   2.6571531e+01   1.4726391e+01   0.0000000e+00   0.0000000e+00   0.0000000e+00   0.0000000e+00
   1.6006946e+00  -1.3445835e+01   5.4423618e+00   4.2258338e+01   2.9772920e+01   2.0168752e+01  -1.6967363e+01   3.2013893e+00   9.8602789e+01   1.7607641e+01   5.1222228e+00   1.4054099e+02   2.1769447e+01  -1.2485418e+01   1.0564585e+01   1.2485418e+01   1.4086113e+01   1.1525001e+01   2.7211809e+01   1.5046530e+01   0.0000000e+00   0.0000000e+00   0.0000000e+00   0.0000000e+00
   3.5215282e+00  -1.1525001e+01   6.0826396e+00   4.3859033e+01   3.1053476e+01   2.1449308e+01  -1.6327085e+01   3.2013893e+00   9.9883345e+01   1.8568058e+01   5.4423618e+00   1.4278196e+02   2.3370142e+01  -1.2165279e+01   1.0564585e+01   1.2165279e+01   1.5686807e+01   1.1204862e+01   2.7531948e+01   1.5366668e+01   0.0000000e+00   0.0000000e+00   0.0000000e+00   0.0000000e+00
   4.4819450e+00  -9.2840289e+00   6.0826396e+00   4.5459728e+01   3.2013893e+01   2.2089586e+01  -1.6327085e+01   3.2013893e+00   1.0052362e+02   1.6006946e+01   5.4423618e+00   1.4406252e+02   2.4010419e+01  -1.2165279e+01   9.9243067e+00   1.1525001e+01   1.6327085e+01   9.9243067e+00   2.7852087e+01   1.4726391e+01   0.0000000e+00   0.0000000e+00   0.0000000e+00   0.0000000e+00
   4.1618060e+00  -7.3631953e+00   5.7625007e+00   4.6100005e+01   3.2334032e+01   2.2409725e+01  -1.6967363e+01   2.5611114e+00   1.0020348e+02   1.2165279e+01   4.8020839e+00   1.4406252e+02   2.4010419e+01  -1.2485418e+01   9.2840289e+00   1.0244446e+01   1.6647224e+01   8.0034732e+00   2.7531948e+01   1.3445835e+01   0.0000000e+00   0.0000000e+00   0.0000000e+00   0.0000000e+00
   3.8416671e+00  -6.0826396e+00   5.4423618e+00   4.6420144e+01   3.2013893e+01   2.2089586e+01  -1.7927780e+01   1.9208336e+00   9.9563206e+01   8.9638899e+00   4.4819450e+00   1.4342224e+02   2.4010419e+01  -1.2805557e+01   8.3236121e+00   8.9638899e+00   1.6647224e+01   6.4027785e+00   2.6891670e+01   1.2485418e+01   0.0000000e+00   0.0000000e+00   0.0000000e+00   0.0000000e+00
   4.1618060e+00  -5.1222228e+00   5.4423618e+00   4.6420144e+01   3.1373615e+01   2.1449308e+01  -1.8888197e+01   1.2805557e+00   9.8602789e+01   7.3631953e+00   4.1618060e+00   1.4310210e+02   2.4010419e+01  -1.3125696e+01   7.3631953e+00   7.3631953e+00   1.6327085e+01   4.8020839e+00   2.5931253e+01   1.1204862e+01   0.0000000e+00   0.0000000e+00   0.0000000e+00   0.0000000e+00
   4.1618060e+00  -4.4819450e+00   4.8020839e+00   4.6100005e+01   2.9772920e+01   1.9848613e+01  -2.0809030e+01  -3.2013893e-01   9.7002095e+01   7.0430564e+00   3.8416671e+00   1.4214168e+02   2.3370142e+01  -1.4726391e+01   5.7625007e+00   5.7625007e+00   1.5046530e+01   3.2013893e+00   2.4330558e+01   9.9243067e+00   0.0000000e+00   0.0000000e+00   0.0000000e+00   0.0000000e+00
   3.8416671e+00  -3.5215282e+00   4.4819450e+00   4.5459728e+01   2.8172226e+01   1.8888197e+01  -2.2409725e+01  -1.6006946e+00   9.5401400e+01   6.7229175e+00   3.8416671e+00   1.4118127e+02   2.2409725e+01  -1.6006946e+01   4.8020839e+00   4.4819450e+00   1.4086113e+01   2.2409725e+00   2.3050003e+01   8.6437510e+00   0.0000000e+00   0.0000000e+00   0.0000000e+00   0.0000000e+00
   3.5215282e+00  -2.2409725e+00   4.4819450e+00   4.5459728e+01   2.7211809e+01   1.8568058e+01  -2.3690281e+01  -2.5611114e+00   9.4120844e+01   5.1222228e+00   3.8416671e+00   1.4054099e+02   2.1449308e+01  -1.7287502e+01   3.8416671e+00   3.5215282e+00   1.3125696e+01   1.9208336e+00   2.2089586e+01   7.3631953e+00   0.0000000e+00   0.0000000e+00   0.0000000e+00   0.0000000e+00
   2.2409725e+00  -1.2805557e+00   4.1618060e+00   4.4819450e+01   2.6251392e+01   1.8247919e+01  -2.5290975e+01  -3.5215282e+00   9.2840289e+01   2.2409725e+00   3.2013893e+00   1.3958057e+02   1.9848613e+01  -1.7927780e+01   2.5611114e+00   2.2409725e+00   1.1845140e+01   1.2805557e+00   2.1129169e+01   5.4423618e+00   0.0000000e+00   0.0000000e+00   0.0000000e+00   0.0000000e+00
   1.2805557e+00  -3.2013893e-01   4.1618060e+00   4.4499311e+01   2.5290975e+01   1.8247919e+01  -2.6251392e+01  -4.1618060e+00   9.1879872e+01  -9.6041678e-01   2.5611114e+00   1.3830002e+02   1.8568058e+01  -1.8247919e+01   2.2409725e+00   1.6006946e+00   1.0884724e+01   1.6006946e+00   2.0488891e+01   3.8416671e+00   0.0000000e+00   0.0000000e+00   0.0000000e+00   0.0000000e+00
   9.6041678e-01   6.4027785e-01   4.8020839e+00   4.4179172e+01   2.4970836e+01   1.7927780e+01  -2.6891670e+01  -4.8020839e+00   9.1239594e+01  -2.2409725e+00   2.5611114e+00   1.3765974e+02   1.7287502e+01  -1.7927780e+01   1.9208336e+00   1.2805557e+00   9.9243067e+00   2.5611114e+00   1.9528475e+01   2.5611114e+00   0.0000000e+00   0.0000000e+00   0.0000000e+00   0.0000000e+00
   1.6006946e+00   1.2805557e+00   5.1222228e+00   4.3538894e+01   2.4330558e+01   1.7927780e+01  -2.7211809e+01  -4.8020839e+00   9.1239594e+01  -1.6006946e+00   2.8812503e+00   1.3701946e+02   1.6647224e+01  -1.7287502e+01   1.9208336e+00   2.2409725e+00   9.6041678e+00   3.8416671e+00   1.8888197e+01   2.2409725e+00   0.0000000e+00   0.0000000e+00   0.0000000e+00   0.0000000e+00
   2.2409725e+00   1.9208336e+00   5.4423618e+00   4.2578477e+01   2.3370142e+01   1.7607641e+01  -2.7852087e+01  -5.1222228e+00   9.0919455e+01   3.2013893e-01   3.2013893e+00   1.3637918e+02   1.5686807e+01  -1.7607641e+01   1.9208336e+00   3.2013893e+00   8.6437510e+00   5.4423618e+00   1.7927780e+01   1.9208336e+00   0.0000000e+00   0.0000000e+00   0.0000000e+00   0.0000000e+00
   3.2013893e+00   2.5611114e+00   5.4423618e+00   4.2258338e+01   2.3050003e+01   1.7927780e+01  -2.7852087e+01  -4.8020839e+00   9.1239594e+01   2.5611114e+00   3.8416671e+00   1.3637918e+02   1.5046530e+01  -1.7607641e+01   1.9208336e+00   4.8020839e+00   8.3236121e+00   7.3631953e+00   1.7287502e+01   2.2409725e+00   0.0000000e+00   0.0000000e+00   0.0000000e+00   0.0000000e+00
   3.8416671e+00   3.5215282e+00   4.8020839e+00   4.1938199e+01   2.2409725e+01   1.7927780e+01  -2.7852087e+01  -4.8020839e+00   9.0919455e+01   3.8416671e+00   3.8416671e+00   1.3637918e+02   1.4406252e+01  -1.7927780e+01   1.2805557e+00   5.4423618e+00   7.6833342e+00   8.6437510e+00   1.6647224e+01   2.2409725e+00   0.0000000e+00   0.0000000e+00   0.0000000e+00   0.0000000e+00
   4.4819450e+00   5.1222228e+00   3.8416671e+00   4.1938199e+01   2.1769447e+01   1.8247919e+01  -2.7531948e+01  -4.4819450e+00   9.0919455e+01   4.1618060e+00   3.5215282e+00   1.3605904e+02   1.3445835e+01  -1.8568058e+01   6.4027785e-01   5.4423618e+00   7.0430564e+00   9.6041678e+00   1.6006946e+01   1.6006946e+00   0.0000000e+00   0.0000000e+00   0.0000000e+00   0.0000000e+00
   5.1222228e+00   7.0430564e+00   2.8812503e+00   4.1938199e+01   2.1769447e+01   1.8247919e+01  -2.7211809e+01  -4.4819450e+00   9.0919455e+01   4.1618060e+00   3.2013893e+00   1.3573890e+02   1.2485418e+01  -1.9208336e+01  -3.2013893e-01   4.8020839e+00   6.7229175e+00   9.6041678e+00   1.5366668e+01   6.4027785e-01   0.0000000e+00   0.0000000e+00   0.0000000e+00   0.0000000e+00
   5.4423618e+00   8.6437510e+00   2.2409725e+00   4.1297922e+01   2.1449308e+01   1.7927780e+01  -2.6891670e+01  -4.4819450e+00   9.0919455e+01   4.1618060e+00   2.5611114e+00   1.3541877e+02   1.1845140e+01  -1.9848613e+01  -9.6041678e-01   4.1618060e+00   6.0826396e+00   8.9638899e+00   1.4726391e+01   0.0000000e+00   0.0000000e+00   0.0000000e+00   0.0000000e+00   0.0000000e+00
   5.4423618e+00   8.6437510e+00   1.2805557e+00   4.0017366e+01   2.0488891e+01   1.6647224e+01  -2.7531948e+01  -5.1222228e+00   9.0599316e+01   4.1618060e+00   1.6006946e+00   1.3445835e+02   1.0564585e+01  -2.1129169e+01  -2.5611114e+00   3.2013893e+00   5.1222228e+00   7.3631953e+00   1.3125696e+01  -9.6041678e-01   0.0000000e+00   0.0000000e+00   0.0000000e+00   0.0000000e+00
   5.1222228e+00   6.7229175e+00   3.2013893e-01   3.8416671e+01   1.9848613e+01   1.5046530e+01  -2.8172226e+01  -5.7625007e+00   9.0599316e+01   4.1618060e+00   9.6041678e-01   1.3349793e+02   9.6041678e+00  -2.2729864e+01  -3.8416671e+00   2.5611114e+00   4.1618060e+00   5.4423618e+00   1.1204862e+01  -1.6006946e+00   0.0000000e+00   0.0000000e+00   0.0000000e+00   0.0000000e+00
   5.4423618e+00   4.1618060e+00   3.2013893e-01   3.7456254e+01   1.9528475e+01   1.4406252e+01  -2.8812503e+01  -6.4027785e+00   9.0599316e+01   4.4819450e+00   3.2013893e-01   1.3253752e+02   9.2840289e+00  -2.4330558e+01  -5.1222228e+00   1.6006946e+00   3.8416671e+00   3.5215282e+00   9.6041678e+00  -2.2409725e+00   0.0000000e+00   0.0000000e+00   0.0000000e+00   0.0000000e+00
   6.4027785e+00   1.9208336e+00   3.2013893e-01   3.7136115e+01   2.0168752e+01   1.4406252e+01  -2.8812503e+01  -6.4027785e+00   9.0599316e+01   5.1222228e+00  -3.2013893e-01   1.3157710e+02   8.9638899e+00  -2.5611114e+01  -5.7625007e+00   9.6041678e-01   3.8416671e+00   1.9208336e+00   8.6437510e+00  -2.5611114e+00   0.0000000e+00   0.0000000e+00   0.0000000e+00   0.0000000e+00
   7.3631953e+00   1.2805557e+00   9.6041678e-01   3.7456254e+01   2.1129169e+01   1.5366668e+01  -2.8812503e+01  -6.7229175e+00   9.0599316e+01   5.4423618e+00  -1.2805557e+00   1.3093682e+02   8.9638899e+00  -2.6891670e+01  -6.7229175e+00  -3.2013893e-01   4.1618060e+00   6.4027785e-01   8.0034732e+00  -3.2013893e+00   0.0000000e+00   0.0000000e+00   0.0000000e+00   0.0000000e+00
   8.3236121e+00   1.2805557e+00   1.2805557e+00   3.7776393e+01   2.1769447e+01   1.6006946e+01  -2.8812503e+01  -6.7229175e+00   9.0279177e+01   5.1222228e+00  -2.5611114e+00   1.2965627e+02   8.6437510e+00  -2.7852087e+01  -7.3631953e+00  -1.9208336e+00   4.4819450e+00  -9.6041678e-01   7.3631953e+00  -4.4819450e+00   0.0000000e+00   0.0000000e+00   0.0000000e+00   0.0000000e+00
   8.3236121e+00   1.9208336e+00   2.2409725e+00   3.8416671e+01   2.3050003e+01   1.7287502e+01  -2.8492364e+01  -6.7229175e+00   8.9638899e+01   4.4819450e+00  -3.5215282e+00   1.2933613e+02   8.3236121e+00  -2.8172226e+01  -7.3631953e+00  -2.8812503e+00   5.1222228e+00  -1.9208336e+00   7.0430564e+00  -5.4423618e+00   0.0000000e+00   0.0000000e+00   0.0000000e+00   0.0000000e+00
   7.3631953e+00   1.2805557e+00   2.2409725e+00   3.8096532e+01   2.3370142e+01   1.7927780e+01  -2.8812503e+01  -7.3631953e+00   8.8358344e+01   3.2013893e+00  -4.1618060e+00   1.2869585e+02   8.0034732e+00  -2.8492364e+01  -8.3236121e+00  -3.8416671e+00   5.1222228e+00  -2.8812503e+00   6.0826396e+00  -6.4027785e+00   0.0000000e+00   0.0000000e+00   0.0000000e+00   0.0000000e+00
   5.7625007e+00   3.2013893e-01   2.2409725e+00   3.7456254e+01   2.4010419e+01   1.8247919e+01  -2.9132642e+01  -8.6437510e+00   8.7397927e+01   2.2409725e+00  -4.4819450e+00   1.2837571e+02   7.6833342e+00  -2.8812503e+01  -8.6437510e+00  -4.4819450e+00   5.4423618e+00  -3.2013893e+00   5.1222228e+00  -7.3631953e+00   0.0000000e+00   0.0000000e+00   0.0000000e+00   0.0000000e+00
   4.4819450e+00  -1.2805557e+00   1.6006946e+00   3.6815977e+01   2.4010419e+01   1.8568058e+01  -2.9772920e+01  -9.9243067e+00   8.5797232e+01   9.6041678e-01  -4.4819450e+00   1.2805557e+02   7.3631953e+00  -2.9132642e+01  -9.6041678e+00  -5.4423618e+00   5.4423618e+00  -3.2013893e+00   3.8416671e+00  -8.3236121e+00   0.0000000e+00   0.0000000e+00   0.0000000e+00   0.0000000e+00
   4.1618060e+00  -2.2409725e+00   3.2013893e-01   3.6495838e+01   2.4330558e+01   1.8568058e+01  -3.0733337e+01  -1.1525001e+01   8.4516677e+01  -3.2013893e-01  -4.8020839e+00   1.2773543e+02   7.0430564e+00  -2.9132642e+01  -1.0244446e+01  -6.4027785e+00   5.4423618e+00  -2.8812503e+00   2.8812503e+00  -9.6041678e+00   0.0000000e+00   0.0000000e+00   0.0000000e+00   0.0000000e+00
   5.1222228e+00  -9.6041678e-01  -6.4027785e-01   3.7136115e+01   2.5611114e+01   1.8888197e+01  -3.0733337e+01  -1.2165279e+01   8.3876399e+01  -3.2013893e-01  -4.8020839e+00   1.2773543e+02   6.7229175e+00  -2.8492364e+01  -1.0244446e+01  -6.7229175e+00   5.7625007e+00  -1.6006946e+00   2.8812503e+00  -9.9243067e+00   0.0000000e+00   0.0000000e+00   0.0000000e+00   0.0000000e+00
   7.0430564e+00   1.2805557e+00  -9.6041678e-01   3.8736810e+01   2.6891670e+01   1.9848613e+01  -3.0093059e+01  -1.1845140e+01   8.3876399e+01  -3.2013893e-01  -4.8020839e+00   1.2805557e+02   7.0430564e+00  -2.7211809e+01  -9.6041678e+00  -7.0430564e+00   6.7229175e+00   3.2013893e-01   3.8416671e+00  -9.9243067e+00   0.0000000e+00   0.0000000e+00   0.0000000e+00   0.0000000e+00
   9.2840289e+00   4.8020839e+00  -3.2013893e-01   4.0657644e+01   2.9132642e+01   2.1449308e+01  -2.8812503e+01  -1.0564585e+01   8.4516677e+01   6.4027785e-01  -4.4819450e+00   1.2965627e+02   8.3236121e+00  -2.4970836e+01  -8.0034732e+00  -6.4027785e+00   8.6437510e+00   3.2013893e+00   5.4423618e+00  -8.9638899e+00   0.0000000e+00   0.0000000e+00   0.0000000e+00   0.0000000e+00
   1.1525001e+01   8.0034732e+00   9.6041678e-01   4.2898616e+01   3.1693754e+01   2.3370142e+01  -2.6891670e+01  -8.9638899e+00   8.6117371e+01   1.9208336e+00  -3.5215282e+00   1.3253752e+02   1.0244446e+01  -2.2089586e+01  -5.7625007e+00  -4.8020839e+00   1.0884724e+01   6.4027785e+00   7.6833342e+00  -7.3631953e+00   0.0000000e+00   0.0000000e+00   0.0000000e+00   0.0000000e+00
   1.3125696e+01   1.0884724e+01   2.2409725e+00   4.4819450e+01   3.3934726e+01   2.4970836e+01  -2.5290975e+01  -7.6833342e+00   8.7397927e+01   3.2013893e+00  -2.5611114e+00   1.3509863e+02   1.2165279e+01  -2.0168752e+01  -3.8416671e+00  -3.5215282e+00   1.3125696e+01   9.6041678e+00   9.2840289e+00  -5.4423618e+00   0.0000000e+00   0.0000000e+00   0.0000000e+00   0.0000000e+00
   1.4086113e+01   1.2805557e+01   3.2013893e+00   4.5779866e+01   3.4895143e+01   2.5931253e+01  -2.4650697e+01  -7.0430564e+00   8.8038205e+01   3.5215282e+00  -2.5611114e+00   1.3701946e+02   1.3125696e+01  -1.9208336e+01  -3.2013893e+00  -2.2409725e+00   1.4726391e+01   1.1525001e+01   1.0244446e+01  -4.4819450e+00   0.0000000e+00   0.0000000e+00   0.0000000e+00   0.0000000e+00
   1.5046530e+01   1.4086113e+01   3.8416671e+00   4.6420144e+01   3.5215282e+01   2.6251392e+01  -2.4650697e+01  -6.7229175e+00   8.8358344e+01   3.5215282e+00  -3.5215282e+00   1.3765974e+02   1.3765974e+01  -1.9528475e+01  -3.2013893e+00  -1.6006946e+00   1.5366668e+01   1.2805557e+01   1.0564585e+01  -3.8416671e+00   0.0000000e+00   0.0000000e+00   0.0000000e+00   0.0000000e+00
   1.6006946e+01   1.5046530e+01   4.8020839e+00   4.7700700e+01   3.5535421e+01   2.6891670e+01  -2.4330558e+01  -6.0826396e+00   8.8998622e+01   4.1618060e+00  -4.4819450e+00   1.3701946e+02   1.4406252e+01  -1.9528475e+01  -3.2013893e+00  -9.6041678e-01   1.6327085e+01   1.3445835e+01   1.1204862e+01  -2.8812503e+00   0.0000000e+00   0.0000000e+00   0.0000000e+00   0.0000000e+00
   1.7287502e+01   1.5366668e+01   5.7625007e+00   4.9301395e+01   3.6495838e+01   2.7852087e+01  -2.3050003e+01  -4.4819450e+00   8.9959038e+01   5.1222228e+00  -4.4819450e+00   1.3541877e+02   1.5686807e+01  -1.8888197e+01  -2.5611114e+00   0.0000000e+00   1.7607641e+01   1.4406252e+01   1.2485418e+01  -1.6006946e+00   0.0000000e+00   0.0000000e+00   0.0000000e+00   0.0000000e+00
   1.7607641e+01   1.4406252e+01   6.7229175e+00   5.0261811e+01   3.7136115e+01   2.9132642e+01  -2.2089586e+01  -3.2013893e+00   9.1239594e+01   6.4027785e+00  -4.1618060e+00   1.3381807e+02   1.6967363e+01  -1.7607641e+01  -1.2805557e+00   9.6041678e-01   1.8888197e+01   1.5046530e+01   1.3765974e+01  -3.2013893e-01   0.0000000e+00   0.0000000e+00   0.0000000e+00   0.0000000e+00
   1.6647224e+01   1.2485418e+01   7.3631953e+00   5.0261811e+01   3.7776393e+01   3.0733337e+01  -2.0488891e+01  -1.9208336e+00   9.2520150e+01   7.3631953e+00  -2.2409725e+00   1.3285765e+02   1.8888197e+01  -1.6327085e+01   9.6041678e-01   2.2409725e+00   2.0168752e+01   1.6006946e+01   1.5366668e+01   1.6006946e+00   0.0000000e+00   0.0000000e+00   0.0000000e+00   0.0000000e+00
   1.4086113e+01   9.6041678e+00   7.0430564e+00   4.8661117e+01   3.7456254e+01   3.1373615e+01  -1.9848613e+01  -1.9208336e+00   9.2840289e+01   7.3631953e+00  -6.4027785e-01   1.3221738e+02   2.0168752e+01  -1.5366668e+01   2.5611114e+00   3.2013893e+00   2.1129169e+01   1.6006946e+01   1.6327085e+01   2.8812503e+00   0.0000000e+00   0.0000000e+00   0.0000000e+00   0.0000000e+00
   1.0564585e+01   6.4027785e+00   6.0826396e+00   4.6420144e+01   3.6175699e+01   3.0733337e+01  -2.0168752e+01  -2.5611114e+00   9.2520150e+01   6.7229175e+00   3.2013893e-01   1.3125696e+02   2.1129169e+01  -1.5686807e+01   3.2013893e+00   3.2013893e+00   2.1129169e+01   1.5046530e+01   1.6327085e+01   3.5215282e+00   0.0000000e+00   0.0000000e+00   0.0000000e+00   0.0000000e+00
   7.3631953e+00   3.2013893e+00   4.8020839e+00   4.4179172e+01   3.4575004e+01   2.9452781e+01  -2.1129169e+01  -3.8416671e+00   9.2200011e+01   5.1222228e+00   3.2013893e-01   1.3061668e+02   2.1129169e+01  -1.6327085e+01   3.5215282e+00   2.5611114e+00   2.0488891e+01   1.3125696e+01   1.6006946e+01   3.5215282e+00   0.0000000e+00   0.0000000e+00   0.0000000e+00   0.0000000e+00
   5.4423618e+00   3.2013893e-01   3.2013893e+00   4.2898616e+01   3.3614587e+01   2.7852087e+01  -2.2089586e+01  -4.4819450e+00   9.2200011e+01   4.1618060e+00  -3.2013893e-01   1.2997640e+02   2.0809030e+01  -1.6967363e+01   3.2013893e+00   2.2409725e+00   2.0168752e+01   1.1525001e+01   1.5686807e+01   3.5215282e+00   0.0000000e+00   0.0000000e+00   0.0000000e+00   0.0000000e+00
   4.8020839e+00  -1.9208336e+00   2.5611114e+00   4.2578477e+01   3.2974309e+01   2.6571531e+01  -2.2409725e+01  -4.4819450e+00   9.2840289e+01   4.1618060e+00  -3.2013893e-01   1.2997640e+02   2.0809030e+01  -1.7607641e+01   3.5215282e+00   2.5611114e+00   1.9528475e+01   1.0244446e+01   1.6327085e+01   4.1618060e+00   0.0000000e+00   0.0000000e+00   0.0000000e+00   0.0000000e+00
   5.1222228e+00  -3.5215282e+00   2.5611114e+00   4.2898616e+01   3.2654171e+01   2.5931253e+01  -2.2089586e+01  -3.5215282e+00   9.3800705e+01   4.8020839e+00   3.2013893e-01   1.3093682e+02   2.0488891e+01  -1.7607641e+01   4.1618060e+00   3.5215282e+00   1.8888197e+01   9.6041678e+00   1.7287502e+01   5.1222228e+00   0.0000000e+00   0.0000000e+00   0.0000000e+00   0.0000000e+00
   5.4423618e+00  -4.8020839e+00   3.2013893e+00   4.2578477e+01   3.2013893e+01   2.5611114e+01  -2.1769447e+01  -2.5611114e+00   9.4120844e+01   6.4027785e+00   1.6006946e+00   1.3189724e+02   2.0168752e+01  -1.7607641e+01   5.1222228e+00   5.1222228e+00   1.7927780e+01   9.2840289e+00   1.7927780e+01   6.4027785e+00   0.0000000e+00   0.0000000e+00   0.0000000e+00   0.0000000e+00
   5.1222228e+00  -5.1222228e+00   4.1618060e+00   4.1618060e+01   3.0733337e+01   2.4970836e+01  -2.1449308e+01  -1.6006946e+00   9.4120844e+01   9.2840289e+00   3.8416671e+00   1.3317779e+02   1.9528475e+01  -1.7607641e+01   6.0826396e+00   6.7229175e+00   1.6967363e+01   8.9638899e+00   1.8888197e+01   8.0034732e+00   0.0000000e+00   0.0000000e+00   0.0000000e+00   0.0000000e+00
   3.8416671e+00  -4.4819450e+00   5.4423618e+00   4.0337505e+01   2.9132642e+01   2.4650697e+01  -2.1129169e+01  -9.6041678e-01   9.3480567e+01   1.2805557e+01   5.4423618e+00   1.3381807e+02   1.8568058e+01  -1.8247919e+01   7.0430564e+00   8.6437510e+00   1.5366668e+01   8.9638899e+00   1.9848613e+01   9.2840289e+00   0.0000000e+00   0.0000000e+00   0.0000000e+00   0.0000000e+00
   1.9208336e+00  -3.8416671e+00   6.0826396e+00   3.8736810e+01   2.7211809e+01   2.4010419e+01  -2.1449308e+01  -6.4027785e-01   9.2200011e+01   1.5686807e+01   6.0826396e+00   1.3349793e+02   1.6647224e+01  -1.9208336e+01   7.0430564e+00   9.6041678e+00   1.3125696e+01   8.6437510e+00   2.0168752e+01   1.0244446e+01   0.0000000e+00   0.0000000e+00   0.0000000e+00   0.0000000e+00
  -3.2013893e-01  -2.8812503e+00   6.4027785e+00   3.7456254e+01   2.4970836e+01   2.3050003e+01  -2.2089586e+01  -3.2013893e-01   9.0599316e+01   1.6006946e+01   5.7625007e+00   1.3189724e+02   1.4406252e+01  -2.0488891e+01   6.0826396e+00   9.9243067e+00   1.0884724e+01   7.6833342e+00   2.0488891e+01   9.9243067e+00   0.0000000e+00   0.0000000e+00   0.0000000e+00   0.0000000e+00
  -1.6006946e+00  -2.2409725e+00   6.7229175e+00   3.6815977e+01   2.3050003e+01   2.2409725e+01  -2.2409725e+01   3.2013893e-01   8.9638899e+01   1.3765974e+01   5.4423618e+00   1.2997640e+02   1.2165279e+01  -2.1129169e+01   5.1222228e+00   1.0244446e+01   8.6437510e+00   7.0430564e+00   2.0488891e+01   9.6041678e+00   0.0000000e+00   0.0000000e+00   0.0000000e+00   0.0000000e+00
  -2.5611114e+00  -3.2013893e+00   6.0826396e+00   3.5855560e+01   2.0809030e+01   2.1129169e+01  -2.3370142e+01   9.6041678e-01   8.8678483e+01   9.9243067e+00   4.8020839e+00   1.2741529e+02   9.6041678e+00  -2.1769447e+01   3.8416671e+00   9.6041678e+00   6.0826396e+00   6.0826396e+00   1.9848613e+01   8.9638899e+00   0.0000000e+00   0.0000000e+00   0.0000000e+00   0.0000000e+00
  -2.5611114e+00  -4.8020839e+00   5.1222228e+00   3.4895143e+01   1.8247919e+01   1.9528475e+01  -2.4650697e+01   9.6041678e-01   8.8358344e+01   5.4423618e+00   4.8020839e+00   1.2517432e+02   7.6833342e+00  -2.2409725e+01   2.8812503e+00   8.3236121e+00   3.5215282e+00   5.1222228e+00   1.8888197e+01   8.0034732e+00   0.0000000e+00   0.0000000e+00   0.0000000e+00   0.0000000e+00
  -2.2409725e+00  -6.7229175e+00   4.8020839e+00   3.3934726e+01   1.6327085e+01   1.7927780e+01  -2.5290975e+01   1.2805557e+00   8.8358344e+01   2.8812503e+00   5.4423618e+00   1.2357363e+02   7.0430564e+00  -2.2409725e+01   2.5611114e+00   7.6833342e+00   1.9208336e+00   4.8020839e+00   1.8247919e+01   7.3631953e+00   0.0000000e+00   0.0000000e+00   0.0000000e+00   0.0000000e+00
  -2.2409725e+00  -8.6437510e+00   4.4819450e+00   3.3294448e+01   1.4726391e+01   1.6647224e+01  -2.6251392e+01   1.2805557e+00   8.8358344e+01   1.2805557e+00   6.0826396e+00   1.2261321e+02   6.7229175e+00  -2.2409725e+01   2.2409725e+00   6.7229175e+00   3.2013893e-01   4.4819450e+00   1.7607641e+01   7.0430564e+00   0.0000000e+00   0.0000000e+00   0.0000000e+00   0.0000000e+00
  -1.6006946e+00  -1.0244446e+01   4.1618060e+00   3.3294448e+01   1.3765974e+01   1.6006946e+01  -2.6891670e+01   1.2805557e+00   8.8038205e+01   6.4027785e-01   6.7229175e+00   1.2229307e+02   7.0430564e+00  -2.2409725e+01   2.5611114e+00   6.4027785e+00  -3.2013893e-01   4.1618060e+00   1.6967363e+01   7.0430564e+00   0.0000000e+00   0.0000000e+00   0.0000000e+00   0.0000000e+00
  -1.2805557e+00  -1.1204862e+01   3.8416671e+00   3.3294448e+01   1.2805557e+01   1.4726391e+01  -2.7852087e+01   9.6041678e-01   8.6757649e+01  -6.4027785e-01   6.0826396e+00   1.2197293e+02   6.7229175e+00  -2.2729864e+01   1.9208336e+00   5.7625007e+00  -1.6006946e+00   3.2013893e+00   1.6006946e+01   6.0826396e+00   0.0000000e+00   0.0000000e+00   0.0000000e+00   0.0000000e+00
  -3.2013893e-01  -1.1525001e+01   2.8812503e+00   3.2974309e+01   1.2165279e+01   1.3445835e+01  -2.8812503e+01   6.4027785e-01   8.5477093e+01  -2.2409725e+00   5.1222228e+00   1.2165279e+02   6.0826396e+00  -2.3370142e+01   9.6041678e-01   4.8020839e+00  -2.5611114e+00   2.2409725e+00   1.4406252e+01   4.8020839e+00   0.0000000e+00   0.0000000e+00   0.0000000e+00   0.0000000e+00
   3.2013893e-01  -1.1204862e+01   1.9208336e+00   3.2974309e+01   1.1204862e+01   1.1845140e+01  -3.0413198e+01   3.2013893e-01   8.4196538e+01  -3.5215282e+00   4.1618060e+00   1.2101251e+02   5.1222228e+00  -2.4330558e+01   0.0000000e+00   4.1618060e+00  -3.5215282e+00   6.4027785e-01   1.2805557e+01   3.2013893e+00   0.0000000e+00   0.0000000e+00   0.0000000e+00   0.0000000e+00
   9.6041678e-01  -1.1204862e+01   6.4027785e-01   3.2334032e+01   1.0564585e+01   9.9243067e+00  -3.2013893e+01  -6.4027785e-01   8.3236121e+01  -3.5215282e+00   3.2013893e+00   1.2037224e+02   4.8020839e+00  -2.5290975e+01  -1.6006946e+00   3.5215282e+00  -4.4819450e+00  -9.6041678e-01   1.0244446e+01   1.6006946e+00   0.0000000e+00   0.0000000e+00   0.0000000e+00   0.0000000e+00
