nt = 4200
nc = 24
channels = F7 T3 T5 Fp1 F3 C3 P3 O1 F8 T4 T6 Fp2 F4 C4 P4 O2 Fz Cz Pz Oz TR SOn Occ RAp
ne = 20
type = B
fsmp = 600.0000000000
orig.file = s8_bl1
orig.nt = 286700
orig.sample_range = 85477 89676
orig.fsmp = 600
orig.subject = 8
orig.run = 15
   7.6833342e+00   9.2840289e+00   4.8020839e+00   1.2165279e+01   1.2165279e+01   4.9941673e+01   1.6327085e+01   9.9243067e+00   9.9243067e+00   9.6041678e+00   1.3765974e+01   1.9208336e+01   5.1222228e+00   4.8020839e+00   7.6833342e+00   1.9208336e+01   2.4010419e+01   2.5611114e+01   3.1373615e+01   1.2485418e+01   0.0000000e+00   0.0000000e+00   0.0000000e+00   0.0000000e+00
   8.0034732e+00   9.9243067e+00   4.1618060e+00   1.2165279e+01   1.2485418e+01   4.9941673e+01   1.7927780e+01   9.2840289e+00   9.2840289e+00   1.6967363e+01   1.4086113e+01   1.9528475e+01   3.5215282e+00   3.8416671e+00   7.0430564e+00   1.8247919e+01   2.2089586e+01   2.4970836e+01   3.0733337e+01   1.0564585e+01   0.0000000e+00   0.0000000e+00   0.0000000e+00   0.0000000e+00
   8.9638899e+00   1.0884724e+01   3.8416671e+00   1.3125696e+01   1.3765974e+01   5.0902089e+01   1.9528475e+01   8.6437510e+00   8.6437510e+00   2.1769447e+01   1.3765974e+01   1.9528475e+01   2.2409725e+00   3.5215282e+00   7.3631953e+00   1.6647224e+01   2.1449308e+01   2.4970836e+01   3.1373615e+01   9.2840289e+00   0.0000000e+00   0.0000000e+00   0.0000000e+00   0.0000000e+00
   1.0884724e+01   1.2805557e+01   4.1618060e+00   1.4086113e+01   1.4726391e+01   5.0902089e+01   1.9848613e+01   7.6833342e+00   8.3236121e+00   2.2089586e+01   1.2805557e+01   1.8888197e+01   1.2805557e+00   3.5215282e+00   8.6437510e+00   1.5046530e+01   2.2409725e+01   2.4970836e+01   3.2974309e+01   8.6437510e+00   0.0000000e+00   0.0000000e+00   0.0000000e+00   0.0000000e+00
   1.3125696e+01   1.6006946e+01   4.8020839e+00   1.4726391e+01   1.5046530e+01   4.8661117e+01   1.8888197e+01   6.4027785e+00   8.0034732e+00   1.8247919e+01   1.1525001e+01   1.7287502e+01   9.6041678e-01   3.8416671e+00   1.0244446e+01   1.4086113e+01   2.4010419e+01   2.5611114e+01   3.4895143e+01   9.2840289e+00   0.0000000e+00   0.0000000e+00   0.0000000e+00   0.0000000e+00
   1.6006946e+01   2.1449308e+01   6.0826396e+00   1.4726391e+01   1.4406252e+01   4.3538894e+01   1.6647224e+01   5.1222228e+00   8.0034732e+00   1.2805557e+01   1.0564585e+01   1.6327085e+01   2.2409725e+00   4.4819450e+00   1.1845140e+01   1.3445835e+01   2.5290975e+01   2.6251392e+01   3.5855560e+01   9.9243067e+00   0.0000000e+00   0.0000000e+00   0.0000000e+00   0.0000000e+00
   1.7287502e+01   2.6891670e+01   6.7229175e+00   1.3445835e+01   1.3445835e+01   3.6495838e+01   1.4086113e+01   3.8416671e+00   7.3631953e+00   7.6833342e+00   9.2840289e+00   1.5046530e+01   4.1618060e+00   4.4819450e+00   1.1845140e+01   1.3125696e+01   2.5611114e+01   2.6891670e+01   3.4895143e+01   9.6041678e+00   0.0000000e+00   0.0000000e+00   0.0000000e+00   0.0000000e+00
   1.7607641e+01   3.2013893e+01   7.0430564e+00   1.2165279e+01   1.3765974e+01   3.0413198e+01   1.2165279e+01   3.5215282e+00   6.7229175e+00   4.8020839e+00   8.9638899e+00   1.4726391e+01   7.3631953e+00   4.8020839e+00   1.1525001e+01   1.2805557e+01   2.5290975e+01   2.7531948e+01   3.3294448e+01   8.9638899e+00   0.0000000e+00   0.0000000e+00   0.0000000e+00   0.0000000e+00
   1.6647224e+01   3.5535421e+01   7.3631953e+00   1.1525001e+01   1.4726391e+01   2.6891670e+01   1.1525001e+01   4.8020839e+00   6.0826396e+00   4.1618060e+00   9.2840289e+00   1.4406252e+01   1.0564585e+01   6.0826396e+00   1.1204862e+01   1.3125696e+01   2.5290975e+01   2.8812503e+01   3.2013893e+01   8.6437510e+00   0.0000000e+00   0.0000000e+00   0.0000000e+00   0.0000000e+00
   1.4406252e+01   3.6815977e+01   7.0430564e+00   1.2165279e+01   1.5686807e+01   2.7211809e+01   1.1204862e+01   7.0430564e+00   5.7625007e+00   3.8416671e+00   9.6041678e+00   1.4406252e+01   1.3125696e+01   7.6833342e+00   1.1525001e+01   1.3765974e+01   2.6251392e+01   2.9772920e+01   3.1693754e+01   8.9638899e+00   0.0000000e+00   0.0000000e+00   0.0000000e+00   0.0000000e+00
   1.3445835e+01   3.5855560e+01   6.7229175e+00   1.3445835e+01   1.5686807e+01   3.1053476e+01   1.2165279e+01   9.9243067e+00   6.0826396e+00   3.2013893e+00   9.9243067e+00   1.4406252e+01   1.4406252e+01   9.2840289e+00   1.2485418e+01   1.4406252e+01   2.8172226e+01   3.1053476e+01   3.2974309e+01   1.0564585e+01   0.0000000e+00   0.0000000e+00   0.0000000e+00   0.0000000e+00
   1.3765974e+01   3.2654171e+01   7.0430564e+00   1.5366668e+01   1.5366668e+01   3.7136115e+01   1.4406252e+01   1.2485418e+01   6.7229175e+00   1.2805557e+00   1.0244446e+01   1.4726391e+01   1.5366668e+01   1.1525001e+01   1.4086113e+01   1.4726391e+01   3.0733337e+01   3.2334032e+01   3.5535421e+01   1.3125696e+01   0.0000000e+00   0.0000000e+00   0.0000000e+00   0.0000000e+00
   1.4406252e+01   2.5931253e+01   7.3631953e+00   1.6967363e+01   1.5366668e+01   4.4179172e+01   1.7607641e+01   1.4086113e+01   7.6833342e+00  -6.4027785e-01   1.0564585e+01   1.5366668e+01   1.6327085e+01   1.3125696e+01   1.5046530e+01   1.4726391e+01   3.3294448e+01   3.2974309e+01   3.7456254e+01   1.4406252e+01   0.0000000e+00   0.0000000e+00   0.0000000e+00   0.0000000e+00
   1.4406252e+01   1.8247919e+01   8.3236121e+00   1.8247919e+01   1.6647224e+01   5.1862506e+01   2.2089586e+01   1.5366668e+01   8.3236121e+00  -1.2805557e+00   1.1525001e+01   1.6647224e+01   1.7927780e+01   1.3765974e+01   1.5046530e+01   1.4406252e+01   3.5215282e+01   3.3294448e+01   3.8416671e+01   1.5046530e+01   0.0000000e+00   0.0000000e+00   0.0000000e+00   0.0000000e+00
   1.2165279e+01   1.0884724e+01   8.9638899e+00   1.8568058e+01   1.8888197e+01   5.8265285e+01   2.5611114e+01   1.6006946e+01   8.6437510e+00  -3.2013893e-01   1.2485418e+01   1.7927780e+01   1.8888197e+01   1.3125696e+01   1.4086113e+01   1.3445835e+01   3.5215282e+01   3.2974309e+01   3.7776393e+01   1.3765974e+01   0.0000000e+00   0.0000000e+00   0.0000000e+00   0.0000000e+00
   8.9638899e+00   6.4027785e+00   9.9243067e+00   1.8888197e+01   2.0168752e+01   6.2427091e+01   2.7531948e+01   1.6647224e+01   8.6437510e+00   1.6006946e+00   1.3125696e+01   1.8568058e+01   1.8568058e+01   1.0564585e+01   1.2165279e+01   1.2485418e+01   3.3934726e+01   3.1373615e+01   3.6175699e+01   1.1204862e+01   0.0000000e+00   0.0000000e+00   0.0000000e+00   0.0000000e+00
   6.0826396e+00   5.1222228e+00   1.0884724e+01   1.8247919e+01   1.8888197e+01   6.3067369e+01   2.6891670e+01   1.6647224e+01   7.6833342e+00   2.8812503e+00   1.2805557e+01   1.7607641e+01   1.6647224e+01   7.0430564e+00   9.9243067e+00   1.1204862e+01   3.1373615e+01   2.9132642e+01   3.4575004e+01   8.9638899e+00   0.0000000e+00   0.0000000e+00   0.0000000e+00   0.0000000e+00
   4.8020839e+00   6.4027785e+00   1.1845140e+01   1.7927780e+01   1.5366668e+01   6.0506257e+01   2.4650697e+01   1.6327085e+01   6.7229175e+00   3.2013893e+00   1.2165279e+01   1.6006946e+01   1.3445835e+01   4.8020839e+00   8.6437510e+00   9.9243067e+00   2.9132642e+01   2.6891670e+01   3.3614587e+01   7.6833342e+00   0.0000000e+00   0.0000000e+00   0.0000000e+00   0.0000000e+00
   5.7625007e+00   8.6437510e+00   1.2485418e+01   1.6647224e+01   9.6041678e+00   5.6024312e+01   2.2089586e+01   1.5046530e+01   5.4423618e+00   2.5611114e+00   1.0884724e+01   1.4086113e+01   1.0244446e+01   4.4819450e+00   8.9638899e+00   9.2840289e+00   2.7211809e+01   2.4650697e+01   3.3934726e+01   7.3631953e+00   0.0000000e+00   0.0000000e+00   0.0000000e+00   0.0000000e+00
   8.6437510e+00   1.0564585e+01   1.2805557e+01   1.5366668e+01   4.8020839e+00   5.1222228e+01   2.0488891e+01   1.4086113e+01   4.8020839e+00   2.2409725e+00   1.0244446e+01   1.3125696e+01   8.3236121e+00   5.7625007e+00   1.0244446e+01   9.2840289e+00   2.6251392e+01   2.3370142e+01   3.4254865e+01   8.0034732e+00   0.0000000e+00   0.0000000e+00   0.0000000e+00   0.0000000e+00
   1.0884724e+01   1.0564585e+01   1.1204862e+01   1.3445835e+01   2.2409725e+00   4.6740283e+01   1.9528475e+01   1.3125696e+01   4.4819450e+00   2.8812503e+00   9.9243067e+00   1.2805557e+01   7.0430564e+00   7.0430564e+00   1.0564585e+01   8.9638899e+00   2.4970836e+01   2.2409725e+01   3.3614587e+01   8.0034732e+00   0.0000000e+00   0.0000000e+00   0.0000000e+00   0.0000000e+00
   1.2485418e+01   1.0564585e+01   9.2840289e+00   1.2165279e+01   2.8812503e+00   4.3859033e+01   1.9848613e+01   1.2485418e+01   4.1618060e+00   4.8020839e+00   9.9243067e+00   1.4086113e+01   7.3631953e+00   7.0430564e+00   9.9243067e+00   8.9638899e+00   2.3690281e+01   2.2089586e+01   3.2013893e+01   6.7229175e+00   0.0000000e+00   0.0000000e+00   0.0000000e+00   0.0000000e+00
   1.2165279e+01   1.0564585e+01   6.7229175e+00   1.1204862e+01   5.4423618e+00   4.2258338e+01   1.9848613e+01   1.2165279e+01   3.2013893e+00   6.7229175e+00   9.9243067e+00   1.5046530e+01   7.6833342e+00   5.1222228e+00   7.6833342e+00   8.3236121e+00   2.2409725e+01   2.1449308e+01   2.9452781e+01   4.4819450e+00   0.0000000e+00   0.0000000e+00   0.0000000e+00   0.0000000e+00
   1.1204862e+01   1.0244446e+01   5.1222228e+00   1.1204862e+01   8.3236121e+00   4.2258338e+01   1.9208336e+01   1.2165279e+01   2.8812503e+00   8.0034732e+00   9.9243067e+00   1.5686807e+01   8.0034732e+00   3.5215282e+00   5.7625007e+00   7.3631953e+00   2.2089586e+01   2.1769447e+01   2.7852087e+01   2.8812503e+00   0.0000000e+00   0.0000000e+00   0.0000000e+00   0.0000000e+00
   1.0884724e+01   9.2840289e+00   4.8020839e+00   1.1525001e+01   1.0884724e+01   4.3218755e+01   1.7927780e+01   1.1525001e+01   2.5611114e+00   7.3631953e+00   9.6041678e+00   1.5366668e+01   8.0034732e+00   2.2409725e+00   4.4819450e+00   6.0826396e+00   2.3050003e+01   2.2729864e+01   2.7852087e+01   2.2409725e+00   0.0000000e+00   0.0000000e+00   0.0000000e+00   0.0000000e+00
   1.0244446e+01   6.7229175e+00   5.4423618e+00   1.1204862e+01   1.2165279e+01   4.5459728e+01   1.6006946e+01   1.0564585e+01   2.5611114e+00   5.4423618e+00   8.9638899e+00   1.4086113e+01   7.6833342e+00   2.2409725e+00   4.1618060e+00   5.1222228e+00   2.4970836e+01   2.4330558e+01   2.8812503e+01   2.8812503e+00   0.0000000e+00   0.0000000e+00   0.0000000e+00   0.0000000e+00
   9.6041678e+00   3.5215282e+00   6.4027785e+00   1.0884724e+01   1.2805557e+01   4.8020839e+01   1.4726391e+01   8.6437510e+00   3.2013893e+00   3.5215282e+00   8.6437510e+00   1.2805557e+01   6.7229175e+00   3.2013893e+00   5.1222228e+00   4.1618060e+00   2.6891670e+01   2.6571531e+01   3.0413198e+01   4.1618060e+00   0.0000000e+00   0.0000000e+00   0.0000000e+00   0.0000000e+00
   8.3236121e+00   9.6041678e-01   6.7229175e+00   1.0244446e+01   1.3445835e+01   5.0902089e+01   1.4406252e+01   7.0430564e+00   3.8416671e+00   2.2409725e+00   8.9638899e+00   1.2485418e+01   5.1222228e+00   3.5215282e+00   5.4423618e+00   3.8416671e+00   2.8172226e+01   2.8492364e+01   3.1053476e+01   4.8020839e+00   0.0000000e+00   0.0000000e+00   0.0000000e+00   0.0000000e+00
   6.7229175e+00  -3.2013893e-01   6.0826396e+00   1.0244446e+01   1.4086113e+01   5.2502784e+01   1.4726391e+01   5.7625007e+00   4.4819450e+00   2.5611114e+00   9.2840289e+00   1.3125696e+01   3.8416671e+00   2.5611114e+00   4.8020839e+00   4.8020839e+00   2.7531948e+01   3.0413198e+01   3.0093059e+01   4.1618060e+00   0.0000000e+00   0.0000000e+00   0.0000000e+00   0.0000000e+00
   4.8020839e+00  -9.6041678e-01   4.1618060e+00   1.0244446e+01   1.3125696e+01   5.2182645e+01   1.5046530e+01   4.8020839e+00   4.4819450e+00   3.2013893e+00   8.9638899e+00   1.3765974e+01   1.9208336e+00   0.0000000e+00   2.2409725e+00   5.4423618e+00   2.5290975e+01   3.0733337e+01   2.7852087e+01   2.2409725e+00   0.0000000e+00   0.0000000e+00   0.0000000e+00   0.0000000e+00
   3.5215282e+00   6.4027785e-01   2.5611114e+00   1.0564585e+01   1.1845140e+01   4.9941673e+01   1.5046530e+01   5.1222228e+00   4.8020839e+00   3.2013893e+00   8.6437510e+00   1.3765974e+01   3.2013893e-01  -2.8812503e+00  -3.2013893e-01   7.0430564e+00   2.3050003e+01   3.1053476e+01   2.5931253e+01   6.4027785e-01   0.0000000e+00   0.0000000e+00   0.0000000e+00   0.0000000e+00
   3.5215282e+00   3.5215282e+00   1.6006946e+00   1.1204862e+01   1.0244446e+01   4.6100005e+01   1.4086113e+01   5.4423618e+00   4.4819450e+00   1.6006946e+00   8.3236121e+00   1.2805557e+01  -3.2013893e-01  -4.8020839e+00  -2.2409725e+00   8.3236121e+00   2.2089586e+01   3.0733337e+01   2.4970836e+01  -3.2013893e-01   0.0000000e+00   0.0000000e+00   0.0000000e+00   0.0000000e+00
   4.4819450e+00   7.6833342e+00   1.6006946e+00   1.1525001e+01   8.0034732e+00   4.0977783e+01   1.2165279e+01   5.7625007e+00   3.2013893e+00  -1.6006946e+00   7.6833342e+00   1.1204862e+01  -6.4027785e-01  -5.4423618e+00  -2.5611114e+00   9.6041678e+00   2.2409725e+01   3.0733337e+01   2.5290975e+01  -6.4027785e-01   0.0000000e+00   0.0000000e+00   0.0000000e+00   0.0000000e+00
   6.4027785e+00   1.2165279e+01   2.2409725e+00   1.2165279e+01   6.4027785e+00   3.6175699e+01   1.0244446e+01   5.4423618e+00   1.2805557e+00  -4.4819450e+00   7.0430564e+00   9.9243067e+00  -3.2013893e-01  -4.4819450e+00  -1.6006946e+00   1.0244446e+01   2.3370142e+01   3.0413198e+01   2.5931253e+01  -3.2013893e-01   0.0000000e+00   0.0000000e+00   0.0000000e+00   0.0000000e+00
   7.6833342e+00   1.6327085e+01   2.8812503e+00   1.3125696e+01   5.7625007e+00   3.2654171e+01   8.9638899e+00   5.1222228e+00  -1.2805557e+00  -6.4027785e+00   6.7229175e+00   9.9243067e+00   3.2013893e-01  -2.8812503e+00  -3.2013893e-01   1.0884724e+01   2.3690281e+01   2.9772920e+01   2.5931253e+01  -9.6041678e-01   0.0000000e+00   0.0000000e+00   0.0000000e+00   0.0000000e+00
   8.0034732e+00   1.8888197e+01   3.5215282e+00   1.4406252e+01   6.7229175e+00   3.1053476e+01   8.9638899e+00   5.1222228e+00  -3.8416671e+00  -6.4027785e+00   6.4027785e+00   1.1204862e+01   9.6041678e-01  -3.2013893e-01   6.4027785e-01   1.1525001e+01   2.3370142e+01   2.9132642e+01   2.4970836e+01  -1.9208336e+00   0.0000000e+00   0.0000000e+00   0.0000000e+00   0.0000000e+00
   7.3631953e+00   1.9528475e+01   3.2013893e+00   1.5046530e+01   8.3236121e+00   3.0413198e+01   8.9638899e+00   4.4819450e+00  -5.7625007e+00  -6.0826396e+00   6.0826396e+00   1.2485418e+01   3.2013893e-01   1.2805557e+00   3.2013893e-01   1.1204862e+01   2.1769447e+01   2.7531948e+01   2.3370142e+01  -3.8416671e+00   0.0000000e+00   0.0000000e+00   0.0000000e+00   0.0000000e+00
   7.0430564e+00   1.9208336e+01   2.8812503e+00   1.6006946e+01   9.9243067e+00   3.1053476e+01   8.9638899e+00   4.1618060e+00  -6.7229175e+00  -5.4423618e+00   5.7625007e+00   1.3445835e+01   6.4027785e-01   3.2013893e+00  -6.4027785e-01   1.0244446e+01   2.0488891e+01   2.5611114e+01   2.2089586e+01  -5.1222228e+00   0.0000000e+00   0.0000000e+00   0.0000000e+00   0.0000000e+00
   7.6833342e+00   1.7287502e+01   1.9208336e+00   1.6006946e+01   1.0244446e+01   3.2654171e+01   8.3236121e+00   3.5215282e+00  -6.7229175e+00  -5.7625007e+00   4.8020839e+00   1.3765974e+01   1.2805557e+00   4.1618060e+00  -1.6006946e+00   8.6437510e+00   2.0168752e+01   2.4010419e+01   2.2089586e+01  -5.7625007e+00   0.0000000e+00   0.0000000e+00   0.0000000e+00   0.0000000e+00
   9.6041678e+00   1.4726391e+01   1.2805557e+00   1.5686807e+01   9.6041678e+00   3.5535421e+01   8.0034732e+00   2.8812503e+00  -5.7625007e+00  -5.7625007e+00   4.4819450e+00   1.3445835e+01   2.8812503e+00   5.4423618e+00  -1.2805557e+00   7.3631953e+00   2.1769447e+01   2.3050003e+01   2.4010419e+01  -4.8020839e+00   0.0000000e+00   0.0000000e+00   0.0000000e+00   0.0000000e+00
   1.1525001e+01   1.2165279e+01   6.4027785e-01   1.5366668e+01   8.6437510e+00   3.8416671e+01   8.0034732e+00   2.2409725e+00  -4.8020839e+00  -5.1222228e+00   4.1618060e+00   1.3445835e+01   4.4819450e+00   6.4027785e+00  -3.2013893e-01   6.4027785e+00   2.3690281e+01   2.3050003e+01   2.6251392e+01  -3.5215282e+00   0.0000000e+00   0.0000000e+00   0.0000000e+00   0.0000000e+00
   1.1845140e+01   1.0244446e+01  -3.2013893e-01   1.4726391e+01   7.6833342e+00   4.0977783e+01   8.6437510e+00   1.9208336e+00  -3.8416671e+00  -4.1618060e+00   3.8416671e+00   1.4086113e+01   5.1222228e+00   7.0430564e+00   6.4027785e-01   5.7625007e+00   2.4650697e+01   2.3050003e+01   2.7852087e+01  -2.5611114e+00   0.0000000e+00   0.0000000e+00   0.0000000e+00   0.0000000e+00
   1.0884724e+01   9.2840289e+00  -1.6006946e+00   1.4406252e+01   8.3236121e+00   4.2578477e+01   1.0564585e+01   2.5611114e+00  -2.8812503e+00  -2.5611114e+00   3.8416671e+00   1.5046530e+01   5.1222228e+00   8.0034732e+00   1.9208336e+00   5.4423618e+00   2.4650697e+01   2.3370142e+01   2.8172226e+01  -2.2409725e+00   0.0000000e+00   0.0000000e+00   0.0000000e+00   0.0000000e+00
   8.6437510e+00   9.6041678e+00  -2.5611114e+00   1.3765974e+01   9.6041678e+00   4.3218755e+01   1.2485418e+01   3.8416671e+00  -1.6006946e+00  -1.6006946e+00   4.4819450e+00   1.6327085e+01   4.4819450e+00   8.9638899e+00   2.5611114e+00   5.4423618e+00   2.4010419e+01   2.4010419e+01   2.8172226e+01  -2.2409725e+00   0.0000000e+00   0.0000000e+00   0.0000000e+00   0.0000000e+00
   6.7229175e+00   1.0244446e+01  -2.2409725e+00   1.3125696e+01   1.0564585e+01   4.2898616e+01   1.3445835e+01   5.4423618e+00  -9.6041678e-01  -1.2805557e+00   4.8020839e+00   1.6647224e+01   4.1618060e+00   9.2840289e+00   3.2013893e+00   5.7625007e+00   2.3050003e+01   2.4970836e+01   2.8172226e+01  -1.9208336e+00   0.0000000e+00   0.0000000e+00   0.0000000e+00   0.0000000e+00
   5.7625007e+00   1.1204862e+01  -9.6041678e-01   1.2165279e+01   9.9243067e+00   4.2578477e+01   1.3125696e+01   7.0430564e+00   0.0000000e+00  -1.9208336e+00   5.4423618e+00   1.5686807e+01   3.5215282e+00   8.0034732e+00   3.8416671e+00   6.4027785e+00   2.2409725e+01   2.6251392e+01   2.8812503e+01  -3.2013893e-01   0.0000000e+00   0.0000000e+00   0.0000000e+00   0.0000000e+00
   6.0826396e+00   1.1525001e+01   1.6006946e+00   1.0564585e+01   7.6833342e+00   4.1618060e+01   1.1845140e+01   7.6833342e+00   6.4027785e-01  -2.8812503e+00   6.0826396e+00   1.3765974e+01   2.8812503e+00   5.4423618e+00   4.4819450e+00   7.3631953e+00   2.2409725e+01   2.7852087e+01   2.9772920e+01   1.9208336e+00   0.0000000e+00   0.0000000e+00   0.0000000e+00   0.0000000e+00
   6.4027785e+00   1.0884724e+01   3.5215282e+00   8.0034732e+00   4.1618060e+00   3.9056949e+01   9.6041678e+00   7.0430564e+00   6.4027785e-01  -4.1618060e+00   6.0826396e+00   1.1525001e+01   9.6041678e-01   1.2805557e+00   4.8020839e+00   7.6833342e+00   2.1769447e+01   2.8492364e+01   3.0093059e+01   3.2013893e+00   0.0000000e+00   0.0000000e+00   0.0000000e+00   0.0000000e+00
   6.0826396e+00   9.9243067e+00   4.4819450e+00   5.4423618e+00   9.6041678e-01   3.4575004e+01   7.6833342e+00   6.0826396e+00   0.0000000e+00  -5.4423618e+00   6.4027785e+00   1.0244446e+01  -6.4027785e-01  -3.2013893e+00   4.4819450e+00   7.6833342e+00   2.0168752e+01   2.8492364e+01   2.9132642e+01   3.2013893e+00   0.0000000e+00   0.0000000e+00   0.0000000e+00   0.0000000e+00
   4.8020839e+00   9.2840289e+00   3.8416671e+00   3.5215282e+00  -6.4027785e-01   2.8172226e+01   6.0826396e+00   5.1222228e+00  -1.6006946e+00  -6.4027785e+00   6.4027785e+00   1.0244446e+01  -1.2805557e+00  -6.0826396e+00   3.8416671e+00   7.3631953e+00   1.7927780e+01   2.8172226e+01   2.6571531e+01   1.6006946e+00   0.0000000e+00   0.0000000e+00   0.0000000e+00   0.0000000e+00
   2.8812503e+00   9.2840289e+00   2.2409725e+00   2.8812503e+00  -6.4027785e-01   2.0168752e+01   5.1222228e+00   4.8020839e+00  -3.5215282e+00  -7.3631953e+00   6.0826396e+00   1.1204862e+01  -6.4027785e-01  -7.3631953e+00   1.9208336e+00   5.7625007e+00   1.5046530e+01   2.7211809e+01   2.3370142e+01  -1.2805557e+00   0.0000000e+00   0.0000000e+00   0.0000000e+00   0.0000000e+00
   2.2409725e+00   1.0884724e+01   6.4027785e-01   4.1618060e+00   9.6041678e-01   1.3125696e+01   4.4819450e+00   5.1222228e+00  -5.4423618e+00  -8.3236121e+00   5.7625007e+00   1.2165279e+01   1.6006946e+00  -6.4027785e+00   3.2013893e-01   4.4819450e+00   1.3445835e+01   2.6571531e+01   2.0809030e+01  -3.8416671e+00   0.0000000e+00   0.0000000e+00   0.0000000e+00   0.0000000e+00
   2.2409725e+00   1.2805557e+01  -3.2013893e-01   6.0826396e+00   1.6006946e+00   8.3236121e+00   2.8812503e+00   5.1222228e+00  -7.0430564e+00  -1.0564585e+01   4.4819450e+00   1.2165279e+01   2.5611114e+00  -5.1222228e+00  -1.6006946e+00   2.5611114e+00   1.2485418e+01   2.5611114e+01   1.8888197e+01  -5.4423618e+00   0.0000000e+00   0.0000000e+00   0.0000000e+00   0.0000000e+00
   2.8812503e+00   1.5046530e+01   3.2013893e-01   7.3631953e+00   9.6041678e-01   7.0430564e+00   9.6041678e-01   5.1222228e+00  -8.0034732e+00  -1.2805557e+01   3.2013893e+00   1.0564585e+01   2.5611114e+00  -4.1618060e+00  -2.5611114e+00   1.6006946e+00   1.2485418e+01   2.4650697e+01   1.8568058e+01  -5.7625007e+00   0.0000000e+00   0.0000000e+00   0.0000000e+00   0.0000000e+00
   3.8416671e+00   1.7287502e+01   2.5611114e+00   7.6833342e+00  -9.6041678e-01   9.2840289e+00  -3.2013893e-01   4.8020839e+00  -8.3236121e+00  -1.5046530e+01   2.2409725e+00   8.9638899e+00   1.6006946e+00  -3.5215282e+00  -2.8812503e+00   1.2805557e+00   1.2805557e+01   2.3690281e+01   1.9208336e+01  -4.8020839e+00   0.0000000e+00   0.0000000e+00   0.0000000e+00   0.0000000e+00
   3.2013893e+00   1.6967363e+01   4.8020839e+00   6.7229175e+00  -3.5215282e+00   1.2165279e+01  -1.6006946e+00   4.1618060e+00  -8.9638899e+00  -1.7287502e+01   1.2805557e+00   7.0430564e+00  -6.4027785e-01  -4.1618060e+00  -3.5215282e+00   1.2805557e+00   1.2165279e+01   2.1769447e+01   1.8888197e+01  -4.4819450e+00   0.0000000e+00   0.0000000e+00   0.0000000e+00   0.0000000e+00
   1.6006946e+00   1.4406252e+01   6.7229175e+00   5.4423618e+00  -4.8020839e+00   1.6006946e+01  -6.4027785e-01   3.5215282e+00  -9.9243067e+00  -1.9208336e+01   1.2805557e+00   6.7229175e+00  -1.9208336e+00  -5.1222228e+00  -3.8416671e+00   1.9208336e+00   1.0884724e+01   1.9528475e+01   1.8247919e+01  -4.8020839e+00   0.0000000e+00   0.0000000e+00   0.0000000e+00   0.0000000e+00
  -9.6041678e-01   9.9243067e+00   7.3631953e+00   4.4819450e+00  -4.4819450e+00   2.0809030e+01   2.2409725e+00   3.2013893e+00  -1.0564585e+01  -2.0168752e+01   1.9208336e+00   7.0430564e+00  -2.5611114e+00  -6.7229175e+00  -4.4819450e+00   2.8812503e+00   8.9638899e+00   1.7287502e+01   1.7607641e+01  -5.7625007e+00   0.0000000e+00   0.0000000e+00   0.0000000e+00   0.0000000e+00
  -3.5215282e+00   4.8020839e+00   6.7229175e+00   3.8416671e+00  -2.8812503e+00   2.6571531e+01   6.4027785e+00   3.8416671e+00  -1.0884724e+01  -2.0168752e+01   2.8812503e+00   7.6833342e+00  -2.8812503e+00  -8.9638899e+00  -5.1222228e+00   3.8416671e+00   8.0034732e+00   1.6006946e+01   1.7607641e+01  -6.0826396e+00   0.0000000e+00   0.0000000e+00   0.0000000e+00   0.0000000e+00
  -4.8020839e+00   1.6006946e+00   5.1222228e+00   3.5215282e+00  -2.2409725e+00   3.2334032e+01   9.9243067e+00   5.1222228e+00  -1.0884724e+01  -1.8568058e+01   3.5215282e+00   7.3631953e+00  -3.8416671e+00  -1.1845140e+01  -5.1222228e+00   4.4819450e+00   8.0034732e+00   1.5046530e+01   1.8888197e+01  -5.7625007e+00   0.0000000e+00   0.0000000e+00   0.0000000e+00   0.0000000e+00
  -5.1222228e+00   6.4027785e-01   3.2013893e+00   2.8812503e+00  -3.2013893e+00   3.5535421e+01   1.1204862e+01   5.7625007e+00  -1.0884724e+01  -1.4726391e+01   3.5215282e+00   6.0826396e+00  -6.0826396e+00  -1.4406252e+01  -5.4423618e+00   4.8020839e+00   8.3236121e+00   1.4726391e+01   2.0488891e+01  -4.4819450e+00   0.0000000e+00   0.0000000e+00   0.0000000e+00   0.0000000e+00
  -4.4819450e+00   1.9208336e+00   1.9208336e+00   1.9208336e+00  -5.4423618e+00   3.6815977e+01   1.1525001e+01   6.7229175e+00  -1.0564585e+01  -8.6437510e+00   3.8416671e+00   4.8020839e+00  -7.6833342e+00  -1.4726391e+01  -4.4819450e+00   5.7625007e+00   9.2840289e+00   1.5046530e+01   2.2409725e+01  -2.5611114e+00   0.0000000e+00   0.0000000e+00   0.0000000e+00   0.0000000e+00
  -3.8416671e+00   2.5611114e+00   1.2805557e+00   6.4027785e-01  -7.6833342e+00   3.5855560e+01   1.1525001e+01   7.0430564e+00  -9.9243067e+00  -1.6006946e+00   4.1618060e+00   4.4819450e+00  -8.6437510e+00  -1.2165279e+01  -3.5215282e+00   6.0826396e+00   9.9243067e+00   1.5686807e+01   2.3690281e+01  -1.2805557e+00   0.0000000e+00   0.0000000e+00   0.0000000e+00   0.0000000e+00
  -4.1618060e+00   2.2409725e+00   1.2805557e+00   0.0000000e+00  -8.9638899e+00   3.4895143e+01   1.1525001e+01   7.0430564e+00  -9.2840289e+00   4.4819450e+00   5.1222228e+00   5.4423618e+00  -8.3236121e+00  -7.6833342e+00  -2.8812503e+00   6.4027785e+00   9.9243067e+00   1.6647224e+01   2.4330558e+01  -1.6006946e+00   0.0000000e+00   0.0000000e+00   0.0000000e+00   0.0000000e+00
  -4.1618060e+00   1.6006946e+00   2.8812503e+00   0.0000000e+00  -8.9638899e+00   3.4254865e+01   1.2485418e+01   6.7229175e+00  -8.3236121e+00   8.6437510e+00   6.7229175e+00   7.0430564e+00  -5.7625007e+00  -2.5611114e+00  -1.6006946e+00   6.4027785e+00   9.6041678e+00   1.8247919e+01   2.4330558e+01  -2.5611114e+00   0.0000000e+00   0.0000000e+00   0.0000000e+00   0.0000000e+00
  -3.5215282e+00   1.2805557e+00   4.1618060e+00   6.4027785e-01  -8.6437510e+00   3.3614587e+01   1.2485418e+01   6.0826396e+00  -7.0430564e+00   9.9243067e+00   7.6833342e+00   8.0034732e+00  -2.8812503e+00   9.6041678e-01  -1.2805557e+00   5.4423618e+00   9.2840289e+00   1.9528475e+01   2.4010419e+01  -4.4819450e+00   0.0000000e+00   0.0000000e+00   0.0000000e+00   0.0000000e+00
  -1.9208336e+00   2.5611114e+00   5.7625007e+00   1.6006946e+00  -8.3236121e+00   3.2654171e+01   1.1525001e+01   5.1222228e+00  -5.7625007e+00   9.2840289e+00   8.0034732e+00   8.0034732e+00  -3.2013893e-01   2.2409725e+00  -9.6041678e-01   3.8416671e+00   9.9243067e+00   2.1129169e+01   2.4010419e+01  -5.4423618e+00   0.0000000e+00   0.0000000e+00   0.0000000e+00   0.0000000e+00
   6.4027785e-01   5.4423618e+00   7.0430564e+00   2.5611114e+00  -7.3631953e+00   3.1053476e+01   9.9243067e+00   4.1618060e+00  -4.1618060e+00   8.6437510e+00   7.6833342e+00   7.0430564e+00   1.6006946e+00   1.9208336e+00  -3.2013893e-01   2.2409725e+00   1.1845140e+01   2.3370142e+01   2.4970836e+01  -4.4819450e+00   0.0000000e+00   0.0000000e+00   0.0000000e+00   0.0000000e+00
   3.5215282e+00   8.6437510e+00   7.0430564e+00   3.5215282e+00  -5.4423618e+00   2.9132642e+01   8.3236121e+00   3.2013893e+00  -2.2409725e+00   8.3236121e+00   7.6833342e+00   6.7229175e+00   2.5611114e+00   3.2013893e-01   3.2013893e-01   1.6006946e+00   1.4086113e+01   2.5611114e+01   2.6251392e+01  -2.2409725e+00   0.0000000e+00   0.0000000e+00   0.0000000e+00   0.0000000e+00
   5.1222228e+00   1.0244446e+01   5.4423618e+00   4.1618060e+00  -3.5215282e+00   2.7211809e+01   7.6833342e+00   2.8812503e+00  -3.2013893e-01   8.3236121e+00   7.6833342e+00   7.3631953e+00   3.2013893e+00  -1.9208336e+00   9.6041678e-01   1.6006946e+00   1.5686807e+01   2.7211809e+01   2.6891670e+01  -3.2013893e-01   0.0000000e+00   0.0000000e+00   0.0000000e+00   0.0000000e+00
   5.7625007e+00   1.0564585e+01   2.8812503e+00   5.4423618e+00  -3.2013893e-01   2.6891670e+01   8.9638899e+00   3.8416671e+00   1.9208336e+00   8.3236121e+00   8.9638899e+00   9.9243067e+00   4.8020839e+00  -3.5215282e+00   2.2409725e+00   3.2013893e+00   1.6647224e+01   2.8812503e+01   2.7531948e+01   1.2805557e+00   0.0000000e+00   0.0000000e+00   0.0000000e+00   0.0000000e+00
   5.7625007e+00   9.9243067e+00   9.6041678e-01   7.0430564e+00   3.5215282e+00   2.9132642e+01   1.1845140e+01   6.4027785e+00   3.8416671e+00   7.6833342e+00   1.1204862e+01   1.3445835e+01   7.6833342e+00  -3.5215282e+00   3.8416671e+00   6.0826396e+00   1.7607641e+01   3.0413198e+01   2.7852087e+01   2.5611114e+00   0.0000000e+00   0.0000000e+00   0.0000000e+00   0.0000000e+00
   5.4423618e+00   9.2840289e+00   0.0000000e+00   8.9638899e+00   8.0034732e+00   3.2334032e+01   1.4726391e+01   9.2840289e+00   5.1222228e+00   5.1222228e+00   1.2805557e+01   1.7287502e+01   1.0884724e+01  -2.5611114e+00   5.4423618e+00   8.9638899e+00   1.8247919e+01   3.1693754e+01   2.8172226e+01   3.2013893e+00   0.0000000e+00   0.0000000e+00   0.0000000e+00   0.0000000e+00
   6.0826396e+00   1.0564585e+01   1.6006946e+00   1.1845140e+01   1.2165279e+01   3.5855560e+01   1.7607641e+01   1.2805557e+01   6.0826396e+00   1.9208336e+00   1.3765974e+01   2.0488891e+01   1.4406252e+01   1.2805557e+00   7.6833342e+00   1.2805557e+01   2.0488891e+01   3.3294448e+01   3.0093059e+01   5.4423618e+00   0.0000000e+00   0.0000000e+00   0.0000000e+00   0.0000000e+00
   8.3236121e+00   1.2485418e+01   5.1222228e+00   1.3765974e+01   1.4726391e+01   3.8096532e+01   1.9208336e+01   1.5366668e+01   6.4027785e+00  -1.9208336e+00   1.4406252e+01   2.2089586e+01   1.6967363e+01   6.7229175e+00   1.0244446e+01   1.6327085e+01   2.3690281e+01   3.4575004e+01   3.2654171e+01   8.3236121e+00   0.0000000e+00   0.0000000e+00   0.0000000e+00   0.0000000e+00
   1.0884724e+01   1.4406252e+01   8.6437510e+00   1.4406252e+01   1.5686807e+01   3.8416671e+01   1.9848613e+01   1.6647224e+01   6.0826396e+00  -5.1222228e+00   1.4406252e+01   2.2409725e+01   1.8247919e+01   1.2485418e+01   1.2485418e+01   1.9528475e+01   2.6571531e+01   3.5215282e+01   3.4895143e+01   1.1845140e+01   0.0000000e+00   0.0000000e+00   0.0000000e+00   0.0000000e+00
   1.2485418e+01   1.5046530e+01   1.0884724e+01   1.4086113e+01   1.5366668e+01   3.8736810e+01   1.9848613e+01   1.6647224e+01   5.1222228e+00  -6.4027785e+00   1.4406252e+01   2.2089586e+01   1.8247919e+01   1.7287502e+01   1.4086113e+01   2.2729864e+01   2.8492364e+01   3.4575004e+01   3.6495838e+01   1.4086113e+01   0.0000000e+00   0.0000000e+00   0.0000000e+00   0.0000000e+00
   1.1845140e+01   1.3765974e+01   1.0564585e+01   1.2485418e+01   1.3765974e+01   3.9056949e+01   1.9208336e+01   1.5686807e+01   3.2013893e+00  -6.0826396e+00   1.4086113e+01   2.1129169e+01   1.6967363e+01   1.9848613e+01   1.4406252e+01   2.4330558e+01   2.7852087e+01   3.2654171e+01   3.6175699e+01   1.4086113e+01   0.0000000e+00   0.0000000e+00   0.0000000e+00   0.0000000e+00
   9.9243067e+00   1.1525001e+01   8.9638899e+00   1.1845140e+01   1.2485418e+01   4.0657644e+01   1.8888197e+01   1.4406252e+01   1.9208336e+00  -4.1618060e+00   1.3765974e+01   2.1129169e+01   1.6327085e+01   2.1449308e+01   1.4086113e+01   2.5290975e+01   2.6571531e+01   3.0733337e+01   3.4895143e+01   1.2485418e+01   0.0000000e+00   0.0000000e+00   0.0000000e+00   0.0000000e+00
   7.0430564e+00   9.6041678e+00   6.0826396e+00   1.2165279e+01   1.2165279e+01   4.2578477e+01   1.7927780e+01   1.2485418e+01   9.6041678e-01  -2.2409725e+00   1.3125696e+01   2.0809030e+01   1.5366668e+01   2.1769447e+01   1.3125696e+01   2.4330558e+01   2.4970836e+01   2.8812503e+01   3.3294448e+01   9.9243067e+00   0.0000000e+00   0.0000000e+00   0.0000000e+00   0.0000000e+00
   4.8020839e+00   8.9638899e+00   3.5215282e+00   1.3445835e+01   1.1845140e+01   4.4499311e+01   1.6967363e+01   1.0244446e+01   9.6041678e-01  -1.9208336e+00   1.1845140e+01   2.0488891e+01   1.4086113e+01   2.2089586e+01   1.2165279e+01   2.2089586e+01   2.4330558e+01   2.7531948e+01   3.2013893e+01   7.6833342e+00   0.0000000e+00   0.0000000e+00   0.0000000e+00   0.0000000e+00
   5.1222228e+00   1.0884724e+01   2.8812503e+00   1.5366668e+01   1.2165279e+01   4.5779866e+01   1.5686807e+01   8.3236121e+00   2.2409725e+00  -2.2409725e+00   1.0884724e+01   2.0488891e+01   1.3445835e+01   2.2089586e+01   1.1845140e+01   2.0488891e+01   2.5290975e+01   2.7531948e+01   3.2654171e+01   7.0430564e+00   0.0000000e+00   0.0000000e+00   0.0000000e+00   0.0000000e+00
   6.7229175e+00   1.2805557e+01   2.5611114e+00   1.6006946e+01   1.0884724e+01   4.3859033e+01   1.3765974e+01   5.7625007e+00   3.5215282e+00  -3.8416671e+00   8.9638899e+00   1.9208336e+01   1.1525001e+01   1.9848613e+01   1.0884724e+01   1.8568058e+01   2.6251392e+01   2.7211809e+01   3.2654171e+01   6.7229175e+00   0.0000000e+00   0.0000000e+00   0.0000000e+00   0.0000000e+00
   9.2840289e+00   1.4726391e+01   3.2013893e+00   1.6327085e+01   9.6041678e+00   4.0337505e+01   1.2165279e+01   3.5215282e+00   5.1222228e+00  -4.1618060e+00   8.6437510e+00   1.8888197e+01   9.9243067e+00   1.6327085e+01   1.0244446e+01   1.7927780e+01   2.6571531e+01   2.7211809e+01   3.2334032e+01   7.0430564e+00   0.0000000e+00   0.0000000e+00   0.0000000e+00   0.0000000e+00
   1.0884724e+01   1.4726391e+01   3.2013893e+00   1.5366668e+01   8.6437510e+00   3.6175699e+01   1.0884724e+01   1.9208336e+00   6.4027785e+00  -2.5611114e+00   8.6437510e+00   1.8888197e+01   8.6437510e+00   1.1525001e+01   8.9638899e+00   1.7607641e+01   2.5931253e+01   2.7531948e+01   3.0733337e+01   6.4027785e+00   0.0000000e+00   0.0000000e+00   0.0000000e+00   0.0000000e+00
   1.1204862e+01   1.3765974e+01   3.2013893e+00   1.4726391e+01   8.6437510e+00   3.3934726e+01   1.1525001e+01   1.6006946e+00   8.0034732e+00   1.2805557e+00   9.6041678e+00   1.9848613e+01   9.2840289e+00   7.3631953e+00   8.0034732e+00   1.7927780e+01   2.4970836e+01   2.8812503e+01   2.9452781e+01   5.7625007e+00   0.0000000e+00   0.0000000e+00   0.0000000e+00   0.0000000e+00
   9.6041678e+00   1.1525001e+01   2.8812503e+00   1.4086113e+01   8.9638899e+00   3.3294448e+01   1.2165279e+01   1.9208336e+00   8.6437510e+00   5.7625007e+00   1.0884724e+01   2.0809030e+01   1.0884724e+01   4.1618060e+00   7.0430564e+00   1.7927780e+01   2.4330558e+01   3.0093059e+01   2.7852087e+01   5.1222228e+00   0.0000000e+00   0.0000000e+00   0.0000000e+00   0.0000000e+00
   9.2840289e+00   1.0884724e+01   4.1618060e+00   1.4086113e+01   9.9243067e+00   3.4895143e+01   1.3445835e+01   3.8416671e+00   9.6041678e+00   9.9243067e+00   1.2165279e+01   2.1449308e+01   1.3765974e+01   2.5611114e+00   7.3631953e+00   1.8568058e+01   2.4970836e+01   3.2974309e+01   2.8492364e+01   6.4027785e+00   0.0000000e+00   0.0000000e+00   0.0000000e+00   0.0000000e+00
   9.9243067e+00   1.1204862e+01   5.4423618e+00   1.3445835e+01   9.9243067e+00   3.5855560e+01   1.3445835e+01   5.7625007e+00   1.0244446e+01   1.1845140e+01   1.2805557e+01   2.1129169e+01   1.5046530e+01   1.9208336e+00   8.0034732e+00   1.9208336e+01   2.6251392e+01   3.5535421e+01   2.9772920e+01   8.3236121e+00   0.0000000e+00   0.0000000e+00   0.0000000e+00   0.0000000e+00
   1.1845140e+01   1.3445835e+01   7.6833342e+00   1.3445835e+01   1.0564585e+01   3.6495838e+01   1.3445835e+01   7.0430564e+00   1.1204862e+01   1.1204862e+01   1.3445835e+01   2.0488891e+01   1.5686807e+01   2.5611114e+00   8.9638899e+00   2.0488891e+01   2.8492364e+01   3.8096532e+01   3.1693754e+01   1.1525001e+01   0.0000000e+00   0.0000000e+00   0.0000000e+00   0.0000000e+00
   1.4406252e+01   1.6327085e+01   9.6041678e+00   1.3765974e+01   1.2485418e+01   3.7136115e+01   1.3765974e+01   8.0034732e+00   1.1525001e+01   8.6437510e+00   1.3765974e+01   2.0488891e+01   1.5686807e+01   4.8020839e+00   1.0244446e+01   2.1769447e+01   3.0733337e+01   4.0337505e+01   3.3614587e+01   1.4086113e+01   0.0000000e+00   0.0000000e+00   0.0000000e+00   0.0000000e+00
   1.5686807e+01   1.8247919e+01   1.0884724e+01   1.4726391e+01   1.5366668e+01   3.9056949e+01   1.4726391e+01   8.0034732e+00   1.1525001e+01   5.7625007e+00   1.4406252e+01   2.1769447e+01   1.5686807e+01   8.0034732e+00   1.1204862e+01   2.2409725e+01   3.2013893e+01   4.1938199e+01   3.4575004e+01   1.5366668e+01   0.0000000e+00   0.0000000e+00   0.0000000e+00   0.0000000e+00
   1.5686807e+01   1.8888197e+01   1.0884724e+01   1.6327085e+01   1.8888197e+01   4.1618060e+01   1.6006946e+01   7.6833342e+00   1.1204862e+01   3.8416671e+00   1.5046530e+01   2.3370142e+01   1.6006946e+01   1.0564585e+01   1.1845140e+01   2.1449308e+01   3.2654171e+01   4.2898616e+01   3.4254865e+01   1.4726391e+01   0.0000000e+00   0.0000000e+00   0.0000000e+00   0.0000000e+00
   1.4086113e+01   1.8568058e+01   9.2840289e+00   1.7287502e+01   2.1129169e+01   4.2898616e+01   1.6647224e+01   7.3631953e+00   1.0564585e+01   3.8416671e+00   1.5046530e+01   2.4330558e+01   1.5686807e+01   1.0244446e+01   1.0884724e+01   1.9208336e+01   3.2013893e+01   4.2578477e+01   3.2654171e+01   1.2165279e+01   0.0000000e+00   0.0000000e+00   0.0000000e+00   0.0000000e+00
   1.1845140e+01   1.8888197e+01   6.4027785e+00   1.7287502e+01   2.1129169e+01   4.1618060e+01   1.5046530e+01   7.0430564e+00   9.2840289e+00   4.1618060e+00   1.3765974e+01   2.3050003e+01   1.4406252e+01   7.3631953e+00   8.9638899e+00   1.5046530e+01   3.0093059e+01   4.0657644e+01   3.0413198e+01   9.2840289e+00   0.0000000e+00   0.0000000e+00   0.0000000e+00   0.0000000e+00
   9.9243067e+00   2.1129169e+01   4.1618060e+00   1.6006946e+01   1.9528475e+01   3.7456254e+01   1.2485418e+01   7.0430564e+00   8.3236121e+00   4.1618060e+00   1.1845140e+01   2.0168752e+01   1.2805557e+01   3.8416671e+00   7.3631953e+00   1.1204862e+01   2.8812503e+01   3.8096532e+01   2.8492364e+01   7.0430564e+00   0.0000000e+00   0.0000000e+00   0.0000000e+00   0.0000000e+00
   8.3236121e+00   2.3690281e+01   1.6006946e+00   1.3445835e+01   1.6327085e+01   3.0413198e+01   8.6437510e+00   7.0430564e+00   6.0826396e+00   2.2409725e+00   9.2840289e+00   1.6327085e+01   1.0564585e+01   1.2805557e+00   5.7625007e+00   7.6833342e+00   2.6891670e+01   3.4895143e+01   2.6891670e+01   5.4423618e+00   0.0000000e+00   0.0000000e+00   0.0000000e+00   0.0000000e+00
   7.6833342e+00   2.5931253e+01   3.2013893e-01   1.0884724e+01   1.3125696e+01   2.3690281e+01   6.0826396e+00   7.0430564e+00   3.8416671e+00  -9.6041678e-01   7.0430564e+00   1.3125696e+01   8.3236121e+00   2.2409725e+00   5.4423618e+00   5.4423618e+00   2.5611114e+01   3.1693754e+01   2.5611114e+01   4.4819450e+00   0.0000000e+00   0.0000000e+00   0.0000000e+00   0.0000000e+00
   6.7229175e+00   2.5290975e+01   0.0000000e+00   8.9638899e+00   1.1525001e+01   1.8568058e+01   5.4423618e+00   7.3631953e+00   1.2805557e+00  -3.8416671e+00   5.7625007e+00   1.2485418e+01   7.3631953e+00   5.1222228e+00   5.7625007e+00   4.8020839e+00   2.4330558e+01   2.9132642e+01   2.4650697e+01   3.5215282e+00   0.0000000e+00   0.0000000e+00   0.0000000e+00   0.0000000e+00
   6.4027785e+00   2.2089586e+01   2.2409725e+00   8.3236121e+00   1.1845140e+01   1.7287502e+01   7.0430564e+00   8.3236121e+00  -6.4027785e-01  -5.1222228e+00   5.7625007e+00   1.4406252e+01   7.6833342e+00   8.9638899e+00   6.0826396e+00   5.1222228e+00   2.4010419e+01   2.7852087e+01   2.3690281e+01   2.5611114e+00   0.0000000e+00   0.0000000e+00   0.0000000e+00   0.0000000e+00
   6.7229175e+00   1.7927780e+01   6.4027785e+00   9.2840289e+00   1.3765974e+01   1.9848613e+01   1.0244446e+01   9.9243067e+00  -1.2805557e+00  -4.1618060e+00   7.0430564e+00   1.7927780e+01   9.9243067e+00   1.1845140e+01   6.7229175e+00   6.4027785e+00   2.4330558e+01   2.7852087e+01   2.3690281e+01   1.9208336e+00   0.0000000e+00   0.0000000e+00   0.0000000e+00   0.0000000e+00
   7.6833342e+00   1.3765974e+01   1.1845140e+01   1.0564585e+01   1.5686807e+01   2.4970836e+01   1.3445835e+01   1.1204862e+01  -9.6041678e-01  -2.5611114e+00   8.0034732e+00   2.0809030e+01   1.2165279e+01   1.2805557e+01   7.0430564e+00   6.7229175e+00   2.5611114e+01   2.8492364e+01   2.4010419e+01   1.9208336e+00   0.0000000e+00   0.0000000e+00   0.0000000e+00   0.0000000e+00
   8.6437510e+00   1.1204862e+01   1.6006946e+01   1.1525001e+01   1.6006946e+01   3.1053476e+01   1.5046530e+01   1.1845140e+01   0.0000000e+00  -9.6041678e-01   8.3236121e+00   2.1769447e+01   1.4086113e+01   1.1845140e+01   6.4027785e+00   6.0826396e+00   2.7211809e+01   2.9132642e+01   2.4970836e+01   2.2409725e+00   0.0000000e+00   0.0000000e+00   0.0000000e+00   0.0000000e+00
   9.6041678e+00   1.0244446e+01   1.7927780e+01   1.1845140e+01   1.5366668e+01   3.6495838e+01   1.5686807e+01   1.1845140e+01   1.9208336e+00   1.6006946e+00   8.3236121e+00   2.2089586e+01   1.5366668e+01   1.0244446e+01   5.7625007e+00   5.4423618e+00   2.9132642e+01   3.0093059e+01   2.6571531e+01   3.5215282e+00   0.0000000e+00   0.0000000e+00   0.0000000e+00   0.0000000e+00
   1.0244446e+01   9.6041678e+00   1.6006946e+01   1.1525001e+01   1.4086113e+01   3.9697227e+01   1.5366668e+01   1.0244446e+01   3.8416671e+00   3.8416671e+00   8.3236121e+00   2.2089586e+01   1.5686807e+01   8.0034732e+00   4.8020839e+00   5.1222228e+00   3.0093059e+01   3.0413198e+01   2.7531948e+01   4.8020839e+00   0.0000000e+00   0.0000000e+00   0.0000000e+00   0.0000000e+00
   1.0244446e+01   8.3236121e+00   1.1204862e+01   1.1845140e+01   1.3125696e+01   4.0977783e+01   1.5366668e+01   8.6437510e+00   5.4423618e+00   6.0826396e+00   8.9638899e+00   2.2409725e+01   1.4726391e+01   5.7625007e+00   3.5215282e+00   5.7625007e+00   3.0093059e+01   3.1053476e+01   2.7852087e+01   5.4423618e+00   0.0000000e+00   0.0000000e+00   0.0000000e+00   0.0000000e+00
   9.9243067e+00   7.0430564e+00   5.1222228e+00   1.2165279e+01   1.2805557e+01   4.0977783e+01   1.6006946e+01   7.0430564e+00   6.7229175e+00   7.6833342e+00   1.0244446e+01   2.3370142e+01   1.3765974e+01   3.5215282e+00   1.6006946e+00   7.6833342e+00   2.9132642e+01   3.1693754e+01   2.7211809e+01   5.1222228e+00   0.0000000e+00   0.0000000e+00   0.0000000e+00   0.0000000e+00
   9.2840289e+00   6.4027785e+00   6.4027785e-01   1.2805557e+01   1.2805557e+01   4.0657644e+01   1.6006946e+01   6.0826396e+00   8.3236121e+00   7.6833342e+00   1.1845140e+01   2.4330558e+01   1.2805557e+01   1.9208336e+00   3.2013893e-01   9.9243067e+00   2.7852087e+01   3.2334032e+01   2.6251392e+01   4.4819450e+00   0.0000000e+00   0.0000000e+00   0.0000000e+00   0.0000000e+00
   8.6437510e+00   7.0430564e+00  -9.6041678e-01   1.3125696e+01   1.2485418e+01   3.9697227e+01   1.5366668e+01   5.7625007e+00   8.9638899e+00   6.0826396e+00   1.2485418e+01   2.4010419e+01   1.1845140e+01   9.6041678e-01  -6.4027785e-01   1.1525001e+01   2.6571531e+01   3.2334032e+01   2.5611114e+01   4.1618060e+00   0.0000000e+00   0.0000000e+00   0.0000000e+00   0.0000000e+00
   8.6437510e+00   8.9638899e+00   1.9208336e+00   1.3125696e+01   1.2165279e+01   3.9056949e+01   1.4086113e+01   6.7229175e+00   9.6041678e+00   3.8416671e+00   1.2805557e+01   2.2729864e+01   1.1845140e+01   1.6006946e+00   3.2013893e-01   1.3125696e+01   2.7211809e+01   3.2974309e+01   2.6251392e+01   4.8020839e+00   0.0000000e+00   0.0000000e+00   0.0000000e+00   0.0000000e+00
   8.3236121e+00   1.1204862e+01   6.4027785e+00   1.2485418e+01   1.1204862e+01   3.7456254e+01   1.2805557e+01   8.0034732e+00   9.9243067e+00   1.2805557e+00   1.2485418e+01   2.0488891e+01   1.1845140e+01   2.5611114e+00   2.5611114e+00   1.4086113e+01   2.8492364e+01   3.3294448e+01   2.7852087e+01   6.4027785e+00   0.0000000e+00   0.0000000e+00   0.0000000e+00   0.0000000e+00
   8.0034732e+00   1.2805557e+01   1.1204862e+01   1.2165279e+01   1.0884724e+01   3.4895143e+01   1.2165279e+01   9.6041678e+00   9.2840289e+00  -6.4027785e-01   1.1845140e+01   1.8568058e+01   1.1525001e+01   4.1618060e+00   4.8020839e+00   1.5046530e+01   3.0093059e+01   3.3294448e+01   2.9132642e+01   8.0034732e+00   0.0000000e+00   0.0000000e+00   0.0000000e+00   0.0000000e+00
   7.0430564e+00   1.3765974e+01   1.3765974e+01   1.2485418e+01   1.1204862e+01   3.2334032e+01   1.2485418e+01   1.0884724e+01   8.6437510e+00  -1.2805557e+00   1.1845140e+01   1.8247919e+01   1.1525001e+01   6.0826396e+00   6.7229175e+00   1.6006946e+01   3.0413198e+01   3.2974309e+01   2.9772920e+01   8.9638899e+00   0.0000000e+00   0.0000000e+00   0.0000000e+00   0.0000000e+00
   6.7229175e+00   1.5046530e+01   1.3765974e+01   1.4086113e+01   1.3445835e+01   3.0413198e+01   1.4406252e+01   1.2485418e+01   8.6437510e+00  -6.4027785e-01   1.2805557e+01   1.9528475e+01   1.1845140e+01   8.3236121e+00   8.0034732e+00   1.6967363e+01   3.0413198e+01   3.2654171e+01   3.0093059e+01   9.2840289e+00   0.0000000e+00   0.0000000e+00   0.0000000e+00   0.0000000e+00
   5.7625007e+00   1.6006946e+01   1.0244446e+01   1.5686807e+01   1.5686807e+01   2.8812503e+01   1.5686807e+01   1.3765974e+01   8.0034732e+00  -6.4027785e-01   1.3125696e+01   2.1449308e+01   1.1845140e+01   9.9243067e+00   8.0034732e+00   1.6647224e+01   2.9132642e+01   3.1693754e+01   2.9452781e+01   8.0034732e+00   0.0000000e+00   0.0000000e+00   0.0000000e+00   0.0000000e+00
   5.7625007e+00   1.7607641e+01   6.0826396e+00   1.7607641e+01   1.7287502e+01   2.9132642e+01   1.6967363e+01   1.4726391e+01   7.3631953e+00  -1.2805557e+00   1.3765974e+01   2.3050003e+01   1.3125696e+01   1.1525001e+01   8.0034732e+00   1.6006946e+01   2.8812503e+01   3.0413198e+01   2.9452781e+01   7.0430564e+00   0.0000000e+00   0.0000000e+00   0.0000000e+00   0.0000000e+00
   6.7229175e+00   2.0488891e+01   2.2409725e+00   1.8568058e+01   1.7287502e+01   2.9452781e+01   1.7607641e+01   1.5686807e+01   6.7229175e+00  -2.8812503e+00   1.3445835e+01   2.3050003e+01   1.4406252e+01   1.2485418e+01   8.0034732e+00   1.5046530e+01   2.9452781e+01   2.9132642e+01   3.0413198e+01   6.7229175e+00   0.0000000e+00   0.0000000e+00   0.0000000e+00   0.0000000e+00
   8.0034732e+00   2.3690281e+01   3.2013893e-01   1.8568058e+01   1.6006946e+01   2.8812503e+01   1.6967363e+01   1.5686807e+01   5.4423618e+00  -5.4423618e+00   1.2805557e+01   2.1769447e+01   1.4726391e+01   1.1525001e+01   8.0034732e+00   1.3445835e+01   3.0093059e+01   2.7211809e+01   3.1693754e+01   7.0430564e+00   0.0000000e+00   0.0000000e+00   0.0000000e+00   0.0000000e+00
   9.9243067e+00   2.6251392e+01   0.0000000e+00   1.8247919e+01   1.4086113e+01   2.7211809e+01   1.6006946e+01   1.4726391e+01   4.1618060e+00  -7.0430564e+00   1.1845140e+01   1.9528475e+01   1.4406252e+01   8.9638899e+00   7.6833342e+00   1.1845140e+01   3.0093059e+01   2.5290975e+01   3.2334032e+01   7.3631953e+00   0.0000000e+00   0.0000000e+00   0.0000000e+00   0.0000000e+00
   1.1525001e+01   2.5931253e+01   6.4027785e-01   1.7287502e+01   1.2165279e+01   2.5290975e+01   1.4406252e+01   1.3125696e+01   3.2013893e+00  -6.7229175e+00   1.1204862e+01   1.7607641e+01   1.2805557e+01   4.8020839e+00   6.0826396e+00   1.0564585e+01   2.8492364e+01   2.3370142e+01   3.1053476e+01   6.4027785e+00   0.0000000e+00   0.0000000e+00   0.0000000e+00   0.0000000e+00
   1.2165279e+01   2.3050003e+01   1.6006946e+00   1.6647224e+01   1.1204862e+01   2.5290975e+01   1.3445835e+01   1.2165279e+01   3.5215282e+00  -2.8812503e+00   1.1204862e+01   1.6967363e+01   1.1204862e+01   6.4027785e-01   4.1618060e+00   9.6041678e+00   2.5931253e+01   2.1769447e+01   2.9132642e+01   4.8020839e+00   0.0000000e+00   0.0000000e+00   0.0000000e+00   0.0000000e+00
   1.1525001e+01   1.8568058e+01   2.2409725e+00   1.6006946e+01   1.0884724e+01   2.7211809e+01   1.3125696e+01   1.1525001e+01   3.8416671e+00   2.5611114e+00   1.1204862e+01   1.6967363e+01   9.9243067e+00  -2.5611114e+00   1.9208336e+00   8.9638899e+00   2.3370142e+01   2.0488891e+01   2.6891670e+01   2.5611114e+00   0.0000000e+00   0.0000000e+00   0.0000000e+00   0.0000000e+00
   1.0564585e+01   1.4726391e+01   3.2013893e+00   1.4726391e+01   1.0884724e+01   3.0413198e+01   1.3445835e+01   1.1525001e+01   3.8416671e+00   8.0034732e+00   1.1204862e+01   1.7287502e+01   9.2840289e+00  -2.8812503e+00   6.4027785e-01   8.9638899e+00   2.1769447e+01   2.0168752e+01   2.5931253e+01   1.2805557e+00   0.0000000e+00   0.0000000e+00   0.0000000e+00   0.0000000e+00
   9.6041678e+00   1.3125696e+01   4.1618060e+00   1.3125696e+01   1.0564585e+01   3.3294448e+01   1.3765974e+01   1.1845140e+01   3.2013893e+00   1.0884724e+01   1.0884724e+01   1.6647224e+01   8.9638899e+00  -6.4027785e-01   3.2013893e-01   9.2840289e+00   2.1769447e+01   2.0488891e+01   2.6251392e+01   1.2805557e+00   0.0000000e+00   0.0000000e+00   0.0000000e+00   0.0000000e+00
   8.3236121e+00   1.2805557e+01   4.8020839e+00   9.9243067e+00   8.9638899e+00   3.4254865e+01   1.2485418e+01   1.1204862e+01   1.2805557e+00   1.0244446e+01   9.9243067e+00   1.4406252e+01   8.0034732e+00   2.2409725e+00   9.6041678e-01   8.9638899e+00   2.2729864e+01   2.0809030e+01   2.7531948e+01   1.6006946e+00   0.0000000e+00   0.0000000e+00   0.0000000e+00   0.0000000e+00
   6.7229175e+00   1.2485418e+01   5.1222228e+00   7.0430564e+00   7.6833342e+00   3.3614587e+01   1.0884724e+01   9.9243067e+00   0.0000000e+00   7.3631953e+00   9.6041678e+00   1.2165279e+01   6.4027785e+00   4.4819450e+00   2.5611114e+00   8.6437510e+00   2.3690281e+01   2.1129169e+01   2.8812503e+01   1.6006946e+00   0.0000000e+00   0.0000000e+00   0.0000000e+00   0.0000000e+00
   4.8020839e+00   1.0884724e+01   4.8020839e+00   4.8020839e+00   7.3631953e+00   3.3294448e+01   9.2840289e+00   8.3236121e+00  -6.4027785e-01   4.1618060e+00   9.2840289e+00   1.1204862e+01   5.4423618e+00   5.4423618e+00   3.8416671e+00   7.6833342e+00   2.4010419e+01   2.2089586e+01   2.9132642e+01   9.6041678e-01   0.0000000e+00   0.0000000e+00   0.0000000e+00   0.0000000e+00
   2.5611114e+00   8.6437510e+00   4.8020839e+00   4.8020839e+00   8.9638899e+00   3.4254865e+01   9.6041678e+00   7.0430564e+00   3.2013893e-01   2.2409725e+00   9.9243067e+00   1.2165279e+01   5.7625007e+00   5.4423618e+00   4.8020839e+00   7.0430564e+00   2.4330558e+01   2.3690281e+01   2.9452781e+01   0.0000000e+00   0.0000000e+00   0.0000000e+00   0.0000000e+00   0.0000000e+00
   3.2013893e-01   6.4027785e+00   4.8020839e+00   6.0826396e+00   1.1204862e+01   3.6175699e+01   1.0884724e+01   6.7229175e+00   1.6006946e+00   1.6006946e+00   1.0564585e+01   1.3765974e+01   7.3631953e+00   4.8020839e+00   5.1222228e+00   6.0826396e+00   2.4010419e+01   2.5290975e+01   2.8812503e+01  -1.6006946e+00   0.0000000e+00   0.0000000e+00   0.0000000e+00   0.0000000e+00
   3.2013893e-01   7.0430564e+00   6.0826396e+00   9.6041678e+00   1.4086113e+01   3.8416671e+01   1.3445835e+01   7.6833342e+00   3.5215282e+00   1.9208336e+00   1.1204862e+01   1.5686807e+01   9.9243067e+00   4.8020839e+00   5.4423618e+00   6.0826396e+00   2.4970836e+01   2.7211809e+01   2.9132642e+01  -1.6006946e+00   0.0000000e+00   0.0000000e+00   0.0000000e+00   0.0000000e+00
   1.6006946e+00   1.0884724e+01   7.6833342e+00   1.3445835e+01   1.5686807e+01   3.8096532e+01   1.5046530e+01   8.6437510e+00   5.1222228e+00   1.9208336e+00   1.1845140e+01   1.6647224e+01   1.2165279e+01   4.8020839e+00   5.7625007e+00   7.0430564e+00   2.6251392e+01   2.9132642e+01   3.0093059e+01   0.0000000e+00   0.0000000e+00   0.0000000e+00   0.0000000e+00   0.0000000e+00
   4.1618060e+00   1.7607641e+01   9.9243067e+00   1.6006946e+01   1.5686807e+01   3.4575004e+01   1.5686807e+01   1.0244446e+01   6.4027785e+00   1.6006946e+00   1.2485418e+01   1.6967363e+01   1.3765974e+01   4.4819450e+00   6.4027785e+00   8.6437510e+00   2.8172226e+01   3.0733337e+01   3.1693754e+01   2.8812503e+00   0.0000000e+00   0.0000000e+00   0.0000000e+00   0.0000000e+00
   6.4027785e+00   2.4330558e+01   1.0884724e+01   1.6006946e+01   1.3445835e+01   2.7211809e+01   1.5046530e+01   1.0564585e+01   6.0826396e+00   9.6041678e-01   1.2485418e+01   1.5686807e+01   1.3445835e+01   2.8812503e+00   6.0826396e+00   9.9243067e+00   2.8812503e+01   3.0733337e+01   3.1693754e+01   5.1222228e+00   0.0000000e+00   0.0000000e+00   0.0000000e+00   0.0000000e+00
   7.6833342e+00   3.0413198e+01   1.0244446e+01   1.4406252e+01   1.0244446e+01   1.7607641e+01   1.3765974e+01   1.0564585e+01   4.8020839e+00   3.2013893e-01   1.2485418e+01   1.4406252e+01   1.1845140e+01   3.2013893e-01   4.8020839e+00   1.0564585e+01   2.7531948e+01   2.9452781e+01   3.0093059e+01   5.7625007e+00   0.0000000e+00   0.0000000e+00   0.0000000e+00   0.0000000e+00
   7.6833342e+00   3.4254865e+01   8.3236121e+00   1.1845140e+01   7.6833342e+00   9.2840289e+00   1.2805557e+01   1.0244446e+01   3.2013893e+00   1.2805557e+00   1.2165279e+01   1.3765974e+01   9.9243067e+00  -2.5611114e+00   2.5611114e+00   1.0564585e+01   2.4650697e+01   2.7531948e+01   2.7531948e+01   4.8020839e+00   0.0000000e+00   0.0000000e+00   0.0000000e+00   0.0000000e+00
   7.6833342e+00   3.4895143e+01   6.4027785e+00   1.0564585e+01   6.4027785e+00   4.4819450e+00   1.2485418e+01   9.9243067e+00   1.9208336e+00   3.2013893e+00   1.1525001e+01   1.3445835e+01   8.3236121e+00  -3.8416671e+00  -6.4027785e-01   1.0244446e+01   2.1449308e+01   2.4970836e+01   2.4650697e+01   2.5611114e+00   0.0000000e+00   0.0000000e+00   0.0000000e+00   0.0000000e+00
   7.3631953e+00   3.1693754e+01   4.1618060e+00   9.9243067e+00   5.7625007e+00   3.5215282e+00   1.1845140e+01   9.2840289e+00   0.0000000e+00   4.8020839e+00   9.9243067e+00   1.3125696e+01   6.7229175e+00  -3.8416671e+00  -3.5215282e+00   8.9638899e+00   1.8888197e+01   2.2089586e+01   2.2409725e+01   3.2013893e-01   0.0000000e+00   0.0000000e+00   0.0000000e+00   0.0000000e+00
   8.3236121e+00   2.6891670e+01   3.8416671e+00   1.0564585e+01   5.4423618e+00   5.4423618e+00   1.0884724e+01   8.9638899e+00  -9.6041678e-01   5.7625007e+00   8.3236121e+00   1.2805557e+01   5.7625007e+00  -2.2409725e+00  -4.8020839e+00   8.6437510e+00   1.7927780e+01   2.0488891e+01   2.2409725e+01  -3.2013893e-01   0.0000000e+00   0.0000000e+00   0.0000000e+00   0.0000000e+00
   9.2840289e+00   2.2089586e+01   3.5215282e+00   1.0884724e+01   4.4819450e+00   6.0826396e+00   8.9638899e+00   7.6833342e+00  -2.2409725e+00   5.1222228e+00   5.7625007e+00   1.1525001e+01   4.1618060e+00  -1.6006946e+00  -5.1222228e+00   8.3236121e+00   1.7607641e+01   1.8568058e+01   2.3050003e+01  -3.2013893e-01   0.0000000e+00   0.0000000e+00   0.0000000e+00   0.0000000e+00
   1.1204862e+01   1.9208336e+01   3.8416671e+00   1.1525001e+01   3.8416671e+00   5.7625007e+00   7.3631953e+00   6.4027785e+00  -2.8812503e+00   3.5215282e+00   3.8416671e+00   1.1525001e+01   3.2013893e+00  -9.6041678e-01  -4.1618060e+00   8.0034732e+00   1.8247919e+01   1.7927780e+01   2.4330558e+01   3.2013893e-01   0.0000000e+00   0.0000000e+00   0.0000000e+00   0.0000000e+00
   1.1525001e+01   1.7287502e+01   2.8812503e+00   1.1845140e+01   4.8020839e+00   4.4819450e+00   6.4027785e+00   4.4819450e+00  -3.2013893e+00   6.4027785e-01   1.9208336e+00   1.1845140e+01   1.6006946e+00  -1.2805557e+00  -3.8416671e+00   6.7229175e+00   1.8568058e+01   1.6967363e+01   2.4650697e+01   3.2013893e-01   0.0000000e+00   0.0000000e+00   0.0000000e+00   0.0000000e+00
   1.0884724e+01   1.6327085e+01   9.6041678e-01   1.2805557e+01   8.0034732e+00   5.1222228e+00   7.3631953e+00   3.2013893e+00  -2.2409725e+00  -9.6041678e-01   9.6041678e-01   1.3765974e+01   1.2805557e+00  -9.6041678e-01  -4.1618060e+00   5.1222228e+00   1.8888197e+01   1.6967363e+01   2.4330558e+01  -6.4027785e-01   0.0000000e+00   0.0000000e+00   0.0000000e+00   0.0000000e+00
   9.9243067e+00   1.4406252e+01  -9.6041678e-01   1.4726391e+01   1.2165279e+01   8.3236121e+00   9.6041678e+00   2.8812503e+00  -6.4027785e-01  -2.2409725e+00   6.4027785e-01   1.6647224e+01   2.2409725e+00  -3.2013893e-01  -4.8020839e+00   2.8812503e+00   1.9208336e+01   1.7607641e+01   2.3690281e+01  -2.2409725e+00   0.0000000e+00   0.0000000e+00   0.0000000e+00   0.0000000e+00
   9.6041678e+00   1.2485418e+01  -2.5611114e+00   1.6967363e+01   1.6006946e+01   1.4086113e+01   1.2165279e+01   2.5611114e+00   1.6006946e+00  -2.5611114e+00   9.6041678e-01   1.9528475e+01   3.5215282e+00   6.4027785e-01  -4.8020839e+00   1.6006946e+00   2.0168752e+01   1.9208336e+01   2.3690281e+01  -3.2013893e+00   0.0000000e+00   0.0000000e+00   0.0000000e+00   0.0000000e+00
   1.0244446e+01   1.0564585e+01  -1.6006946e+00   1.8888197e+01   1.8247919e+01   2.2729864e+01   1.4726391e+01   2.8812503e+00   4.4819450e+00  -2.2409725e+00   1.9208336e+00   2.1129169e+01   5.4423618e+00   1.9208336e+00  -2.2409725e+00   1.6006946e+00   2.2729864e+01   2.1769447e+01   2.5931253e+01  -2.5611114e+00   0.0000000e+00   0.0000000e+00   0.0000000e+00   0.0000000e+00
   1.1204862e+01   9.2840289e+00   1.2805557e+00   1.8888197e+01   1.7927780e+01   3.1373615e+01   1.5686807e+01   2.5611114e+00   6.7229175e+00  -1.9208336e+00   3.2013893e+00   2.0168752e+01   6.4027785e+00   2.2409725e+00   9.6041678e-01   2.5611114e+00   2.5290975e+01   2.4970836e+01   2.8812503e+01   0.0000000e+00   0.0000000e+00   0.0000000e+00   0.0000000e+00   0.0000000e+00
   1.1204862e+01   9.9243067e+00   5.4423618e+00   1.6327085e+01   1.5686807e+01   3.7456254e+01   1.5366668e+01   1.9208336e+00   8.3236121e+00  -9.6041678e-01   4.1618060e+00   1.7287502e+01   6.7229175e+00   1.9208336e+00   4.4819450e+00   4.8020839e+00   2.7211809e+01   2.7852087e+01   3.1693754e+01   2.8812503e+00   0.0000000e+00   0.0000000e+00   0.0000000e+00   0.0000000e+00
   9.6041678e+00   1.2165279e+01   8.3236121e+00   1.1204862e+01   1.2165279e+01   3.9056949e+01   1.3765974e+01   9.6041678e-01   8.0034732e+00   3.2013893e-01   5.1222228e+00   1.2805557e+01   6.0826396e+00   3.2013893e-01   6.7229175e+00   7.3631953e+00   2.7211809e+01   3.0093059e+01   3.2974309e+01   5.1222228e+00   0.0000000e+00   0.0000000e+00   0.0000000e+00   0.0000000e+00
   6.7229175e+00   1.5686807e+01   9.2840289e+00   5.1222228e+00   8.9638899e+00   3.7456254e+01   1.2165279e+01   6.4027785e-01   6.0826396e+00   9.6041678e-01   5.7625007e+00   8.9638899e+00   5.7625007e+00  -1.2805557e+00   6.7229175e+00   9.2840289e+00   2.5611114e+01   3.1053476e+01   3.2334032e+01   5.7625007e+00   0.0000000e+00   0.0000000e+00   0.0000000e+00   0.0000000e+00
   3.2013893e+00   1.8568058e+01   6.7229175e+00  -3.2013893e-01   6.4027785e+00   3.4575004e+01   1.0564585e+01   9.6041678e-01   2.5611114e+00   0.0000000e+00   5.7625007e+00   5.4423618e+00   5.1222228e+00  -1.9208336e+00   4.8020839e+00   9.9243067e+00   2.3050003e+01   3.1053476e+01   3.0093059e+01   4.1618060e+00   0.0000000e+00   0.0000000e+00   0.0000000e+00   0.0000000e+00
   1.6006946e+00   2.0488891e+01   2.5611114e+00  -3.2013893e+00   5.4423618e+00   3.2334032e+01   1.0564585e+01   2.5611114e+00  -6.4027785e-01  -2.2409725e+00   5.7625007e+00   3.5215282e+00   5.4423618e+00  -1.2805557e+00   2.8812503e+00   9.2840289e+00   2.1129169e+01   3.1053476e+01   2.8172226e+01   2.2409725e+00   0.0000000e+00   0.0000000e+00   0.0000000e+00   0.0000000e+00
   2.5611114e+00   2.1449308e+01  -1.6006946e+00  -4.1618060e+00   5.1222228e+00   3.1373615e+01   1.0564585e+01   4.8020839e+00  -3.5215282e+00  -5.7625007e+00   5.1222228e+00   1.9208336e+00   5.7625007e+00   3.2013893e-01   1.9208336e+00   8.0034732e+00   2.0488891e+01   3.1053476e+01   2.7531948e+01   6.4027785e-01   0.0000000e+00   0.0000000e+00   0.0000000e+00   0.0000000e+00
   5.1222228e+00   2.0809030e+01  -3.5215282e+00  -3.2013893e+00   4.8020839e+00   3.1053476e+01   1.0564585e+01   6.7229175e+00  -4.4819450e+00  -9.2840289e+00   4.1618060e+00   1.2805557e+00   6.7229175e+00   1.9208336e+00   1.9208336e+00   6.4027785e+00   2.1449308e+01   3.1373615e+01   2.7852087e+01   0.0000000e+00   0.0000000e+00   0.0000000e+00   0.0000000e+00   0.0000000e+00
   7.3631953e+00   1.8888197e+01  -3.5215282e+00  -1.9208336e+00   4.8020839e+00   3.0733337e+01   1.0244446e+01   8.0034732e+00  -5.1222228e+00  -1.1204862e+01   3.2013893e+00   9.6041678e-01   7.3631953e+00   2.5611114e+00   2.2409725e+00   5.1222228e+00   2.2409725e+01   3.1373615e+01   2.8172226e+01   3.2013893e-01   0.0000000e+00   0.0000000e+00   0.0000000e+00   0.0000000e+00
   7.6833342e+00   1.6006946e+01  -9.6041678e-01  -9.6041678e-01   6.0826396e+00   3.0413198e+01   1.0564585e+01   8.9638899e+00  -5.1222228e+00  -1.1204862e+01   2.5611114e+00   9.6041678e-01   8.0034732e+00   1.9208336e+00   1.9208336e+00   4.8020839e+00   2.3050003e+01   3.1053476e+01   2.7852087e+01   6.4027785e-01   0.0000000e+00   0.0000000e+00   0.0000000e+00   0.0000000e+00
   5.4423618e+00   1.2485418e+01   1.9208336e+00   3.2013893e-01   7.6833342e+00   2.9452781e+01   1.1204862e+01   8.9638899e+00  -5.4423618e+00  -9.2840289e+00   2.2409725e+00   1.6006946e+00   8.3236121e+00   3.2013893e-01   9.6041678e-01   4.1618060e+00   2.1769447e+01   2.9772920e+01   2.5931253e+01   0.0000000e+00   0.0000000e+00   0.0000000e+00   0.0000000e+00   0.0000000e+00
   2.2409725e+00   9.2840289e+00   4.1618060e+00   1.6006946e+00   9.6041678e+00   2.8172226e+01   1.2165279e+01   8.9638899e+00  -5.7625007e+00  -7.3631953e+00   2.2409725e+00   2.5611114e+00   8.3236121e+00  -9.6041678e-01  -1.2805557e+00   3.2013893e+00   1.9528475e+01   2.7852087e+01   2.3370142e+01  -1.6006946e+00   0.0000000e+00   0.0000000e+00   0.0000000e+00   0.0000000e+00
  -3.2013893e-01   7.0430564e+00   5.1222228e+00   3.2013893e+00   1.0884724e+01   2.7211809e+01   1.3125696e+01   8.3236121e+00  -6.4027785e+00  -6.7229175e+00   2.2409725e+00   4.1618060e+00   8.3236121e+00  -6.4027785e-01  -3.5215282e+00   1.9208336e+00   1.6967363e+01   2.5611114e+01   2.0809030e+01  -3.2013893e+00   0.0000000e+00   0.0000000e+00   0.0000000e+00   0.0000000e+00
  -1.6006946e+00   6.0826396e+00   4.4819450e+00   4.1618060e+00   1.0884724e+01   2.6891670e+01   1.3125696e+01   7.3631953e+00  -7.0430564e+00  -8.0034732e+00   1.9208336e+00   5.1222228e+00   7.6833342e+00   6.4027785e-01  -5.4423618e+00   3.2013893e-01   1.5686807e+01   2.3690281e+01   1.9208336e+01  -4.4819450e+00   0.0000000e+00   0.0000000e+00   0.0000000e+00   0.0000000e+00
  -1.6006946e+00   6.4027785e+00   3.2013893e+00   5.1222228e+00   1.0244446e+01   2.6571531e+01   1.1845140e+01   5.7625007e+00  -6.4027785e+00  -1.0244446e+01   1.9208336e+00   6.0826396e+00   7.0430564e+00   3.2013893e+00  -6.0826396e+00  -6.4027785e-01   1.5686807e+01   2.2409725e+01   1.8888197e+01  -4.4819450e+00   0.0000000e+00   0.0000000e+00   0.0000000e+00   0.0000000e+00
  -6.4027785e-01   8.0034732e+00   1.2805557e+00   5.1222228e+00   8.9638899e+00   2.5611114e+01   1.0244446e+01   4.4819450e+00  -5.1222228e+00  -1.2165279e+01   1.9208336e+00   6.7229175e+00   5.7625007e+00   5.1222228e+00  -6.0826396e+00  -9.6041678e-01   1.6006946e+01   2.1449308e+01   1.9208336e+01  -3.5215282e+00   0.0000000e+00   0.0000000e+00   0.0000000e+00   0.0000000e+00
  -3.2013893e-01   8.9638899e+00  -9.6041678e-01   4.1618060e+00   7.6833342e+00   2.4010419e+01   8.3236121e+00   2.8812503e+00  -4.1618060e+00  -1.3765974e+01   1.6006946e+00   7.0430564e+00   4.1618060e+00   6.0826396e+00  -5.4423618e+00  -9.6041678e-01   1.5686807e+01   2.0488891e+01   1.8888197e+01  -3.2013893e+00   0.0000000e+00   0.0000000e+00   0.0000000e+00   0.0000000e+00
  -3.2013893e-01   8.9638899e+00  -3.2013893e+00   3.5215282e+00   7.0430564e+00   2.2409725e+01   7.0430564e+00   1.6006946e+00  -3.8416671e+00  -1.4406252e+01   1.2805557e+00   7.6833342e+00   2.8812503e+00   6.7229175e+00  -5.1222228e+00  -6.4027785e-01   1.4726391e+01   1.9848613e+01   1.7927780e+01  -3.8416671e+00   0.0000000e+00   0.0000000e+00   0.0000000e+00   0.0000000e+00
  -3.2013893e-01   8.9638899e+00  -4.4819450e+00   3.8416671e+00   7.3631953e+00   2.2089586e+01   7.3631953e+00   1.9208336e+00  -3.2013893e+00  -1.4086113e+01   1.6006946e+00   8.6437510e+00   3.2013893e+00   8.0034732e+00  -4.8020839e+00   0.0000000e+00   1.3765974e+01   2.0168752e+01   1.6967363e+01  -4.8020839e+00   0.0000000e+00   0.0000000e+00   0.0000000e+00   0.0000000e+00
  -6.4027785e-01   8.3236121e+00  -5.1222228e+00   4.1618060e+00   6.7229175e+00   2.1449308e+01   7.3631953e+00   1.9208336e+00  -3.2013893e+00  -1.4086113e+01   1.9208336e+00   9.2840289e+00   4.1618060e+00   8.9638899e+00  -4.4819450e+00   9.6041678e-01   1.2485418e+01   2.0809030e+01   1.6327085e+01  -6.0826396e+00   0.0000000e+00   0.0000000e+00   0.0000000e+00   0.0000000e+00
   6.4027785e-01   9.6041678e+00  -4.4819450e+00   4.8020839e+00   5.1222228e+00   1.9528475e+01   7.0430564e+00   2.8812503e+00  -2.8812503e+00  -1.3445835e+01   2.8812503e+00   9.2840289e+00   6.0826396e+00   1.0244446e+01  -3.5215282e+00   2.5611114e+00   1.2485418e+01   2.2409725e+01   1.6967363e+01  -5.7625007e+00   0.0000000e+00   0.0000000e+00   0.0000000e+00   0.0000000e+00
   2.2409725e+00   1.1525001e+01  -3.5215282e+00   4.8020839e+00   1.6006946e+00   1.6006946e+01   5.4423618e+00   3.2013893e+00  -2.5611114e+00  -1.2805557e+01   3.5215282e+00   8.3236121e+00   7.0430564e+00   9.9243067e+00  -2.5611114e+00   4.1618060e+00   1.2485418e+01   2.3690281e+01   1.7927780e+01  -4.8020839e+00   0.0000000e+00   0.0000000e+00   0.0000000e+00   0.0000000e+00
   4.1618060e+00   1.4406252e+01  -1.9208336e+00   4.8020839e+00   0.0000000e+00   1.3445835e+01   4.4819450e+00   3.5215282e+00  -6.4027785e-01  -1.0244446e+01   5.1222228e+00   7.6833342e+00   8.3236121e+00   9.2840289e+00  -3.2013893e-01   6.0826396e+00   1.4086113e+01   2.6251392e+01   1.9848613e+01  -2.2409725e+00   0.0000000e+00   0.0000000e+00   0.0000000e+00   0.0000000e+00
   4.4819450e+00   1.5686807e+01  -9.6041678e-01   4.4819450e+00  -6.4027785e-01   1.1525001e+01   3.8416671e+00   2.8812503e+00   9.6041678e-01  -5.7625007e+00   6.0826396e+00   7.3631953e+00   8.3236121e+00   7.6833342e+00   1.6006946e+00   6.7229175e+00   1.5046530e+01   2.7852087e+01   2.0809030e+01  -6.4027785e-01   0.0000000e+00   0.0000000e+00   0.0000000e+00   0.0000000e+00
   3.2013893e+00   1.5686807e+01  -6.4027785e-01   4.4819450e+00   1.2805557e+00   1.2485418e+01   4.1618060e+00   1.9208336e+00   2.5611114e+00   6.4027785e-01   7.0430564e+00   7.6833342e+00   8.3236121e+00   7.0430564e+00   2.8812503e+00   6.4027785e+00   1.5686807e+01   2.9452781e+01   2.0809030e+01  -3.2013893e-01   0.0000000e+00   0.0000000e+00   0.0000000e+00   0.0000000e+00
   6.4027785e-01   1.4086113e+01   0.0000000e+00   4.8020839e+00   4.1618060e+00   1.4406252e+01   5.4423618e+00   1.2805557e+00   3.5215282e+00   7.6833342e+00   7.6833342e+00   8.6437510e+00   8.0034732e+00   7.3631953e+00   3.5215282e+00   5.4423618e+00   1.5366668e+01   3.0413198e+01   2.0168752e+01  -1.6006946e+00   0.0000000e+00   0.0000000e+00   0.0000000e+00   0.0000000e+00
  -1.6006946e+00   1.2165279e+01   9.6041678e-01   5.7625007e+00   6.0826396e+00   1.6327085e+01   6.7229175e+00   1.2805557e+00   3.2013893e+00   1.3765974e+01   7.6833342e+00   8.9638899e+00   7.3631953e+00   8.3236121e+00   3.2013893e+00   4.4819450e+00   1.4726391e+01   3.0413198e+01   1.9208336e+01  -3.5215282e+00   0.0000000e+00   0.0000000e+00   0.0000000e+00   0.0000000e+00
  -1.9208336e+00   1.1845140e+01   2.2409725e+00   7.3631953e+00   7.3631953e+00   1.7607641e+01   8.3236121e+00   2.2409725e+00   3.2013893e+00   1.7927780e+01   7.6833342e+00   8.9638899e+00   6.7229175e+00   9.2840289e+00   3.2013893e+00   4.4819450e+00   1.4726391e+01   3.0733337e+01   1.9528475e+01  -4.1618060e+00   0.0000000e+00   0.0000000e+00   0.0000000e+00   0.0000000e+00
  -1.2805557e+00   1.3125696e+01   2.5611114e+00   7.6833342e+00   6.7229175e+00   1.6647224e+01   8.6437510e+00   3.2013893e+00   2.5611114e+00   1.9208336e+01   7.0430564e+00   8.3236121e+00   5.1222228e+00   8.3236121e+00   2.8812503e+00   4.8020839e+00   1.4726391e+01   3.0413198e+01   2.0168752e+01  -3.8416671e+00   0.0000000e+00   0.0000000e+00   0.0000000e+00   0.0000000e+00
   6.4027785e-01   1.5046530e+01   1.2805557e+00   7.3631953e+00   5.1222228e+00   1.4406252e+01   8.6437510e+00   3.8416671e+00   2.2409725e+00   1.8888197e+01   6.0826396e+00   7.6833342e+00   3.2013893e+00   4.8020839e+00   2.2409725e+00   4.8020839e+00   1.5046530e+01   2.9132642e+01   2.1129169e+01  -3.2013893e+00   0.0000000e+00   0.0000000e+00   0.0000000e+00   0.0000000e+00
   1.2805557e+00   1.4726391e+01  -2.5611114e+00   5.7625007e+00   3.2013893e+00   1.1845140e+01   7.3631953e+00   2.8812503e+00   1.6006946e+00   1.7607641e+01   4.4819450e+00   7.0430564e+00   6.4027785e-01  -1.2805557e+00   3.2013893e-01   4.1618060e+00   1.4086113e+01   2.6571531e+01   2.0488891e+01  -3.8416671e+00   0.0000000e+00   0.0000000e+00   0.0000000e+00   0.0000000e+00
   3.2013893e-01   1.0884724e+01  -7.6833342e+00   4.1618060e+00   1.9208336e+00   1.1525001e+01   6.7229175e+00   9.6041678e-01   1.2805557e+00   1.7287502e+01   2.8812503e+00   7.6833342e+00  -1.2805557e+00  -7.6833342e+00  -2.5611114e+00   2.5611114e+00   1.2165279e+01   2.3050003e+01   1.8568058e+01  -5.7625007e+00   0.0000000e+00   0.0000000e+00   0.0000000e+00   0.0000000e+00
  -9.6041678e-01   4.8020839e+00  -1.2165279e+01   3.5215282e+00   2.2409725e+00   1.4726391e+01   7.3631953e+00  -6.4027785e-01   9.6041678e-01   1.6647224e+01   1.9208336e+00   8.6437510e+00  -9.6041678e-01  -1.1204862e+01  -6.0826396e+00   1.6006946e+00   1.0244446e+01   2.0168752e+01   1.6327085e+01  -8.6437510e+00   0.0000000e+00   0.0000000e+00   0.0000000e+00   0.0000000e+00
  -1.6006946e+00  -9.6041678e-01  -1.4406252e+01   4.1618060e+00   3.2013893e+00   2.0168752e+01   9.2840289e+00  -1.9208336e+00   0.0000000e+00   1.4406252e+01   1.2805557e+00   9.6041678e+00   9.6041678e-01  -1.0564585e+01  -8.9638899e+00   1.2805557e+00   9.6041678e+00   1.8247919e+01   1.5046530e+01  -1.1204862e+01   0.0000000e+00   0.0000000e+00   0.0000000e+00   0.0000000e+00
   3.2013893e-01  -3.5215282e+00  -1.2485418e+01   5.7625007e+00   4.8020839e+00   2.5931253e+01   1.2485418e+01  -1.2805557e+00  -6.4027785e-01   1.0244446e+01   1.2805557e+00   1.0244446e+01   4.1618060e+00  -4.8020839e+00  -8.9638899e+00   2.5611114e+00   1.0884724e+01   1.7927780e+01   1.6647224e+01  -1.1525001e+01   0.0000000e+00   0.0000000e+00   0.0000000e+00   0.0000000e+00
   2.8812503e+00  -2.2409725e+00  -7.6833342e+00   6.7229175e+00   5.7625007e+00   3.0413198e+01   1.5046530e+01   3.2013893e-01  -1.2805557e+00   4.1618060e+00   1.6006946e+00   9.9243067e+00   7.3631953e+00   2.5611114e+00  -6.4027785e+00   4.1618060e+00   1.4086113e+01   1.8568058e+01   2.0488891e+01  -9.9243067e+00   0.0000000e+00   0.0000000e+00   0.0000000e+00   0.0000000e+00
   4.8020839e+00   9.6041678e-01  -1.6006946e+00   6.4027785e+00   6.7229175e+00   3.2654171e+01   1.6967363e+01   2.5611114e+00  -1.2805557e+00  -1.6006946e+00   2.5611114e+00   9.2840289e+00   9.6041678e+00   8.6437510e+00  -2.2409725e+00   6.4027785e+00   1.7927780e+01   2.0168752e+01   2.4970836e+01  -6.7229175e+00   0.0000000e+00   0.0000000e+00   0.0000000e+00   0.0000000e+00
   4.8020839e+00   5.1222228e+00   3.2013893e+00   5.1222228e+00   7.0430564e+00   3.3294448e+01   1.7927780e+01   4.8020839e+00  -9.6041678e-01  -5.1222228e+00   3.8416671e+00   8.9638899e+00   1.1525001e+01   1.2165279e+01   2.5611114e+00   8.0034732e+00   2.0809030e+01   2.1769447e+01   2.8492364e+01  -3.5215282e+00   0.0000000e+00   0.0000000e+00   0.0000000e+00   0.0000000e+00
   3.8416671e+00   8.9638899e+00   5.7625007e+00   4.1618060e+00   8.3236121e+00   3.3934726e+01   1.8888197e+01   7.6833342e+00   0.0000000e+00  -4.8020839e+00   5.4423618e+00   9.6041678e+00   1.3445835e+01   1.3445835e+01   7.0430564e+00   9.6041678e+00   2.2089586e+01   2.3690281e+01   3.0413198e+01  -6.4027785e-01   0.0000000e+00   0.0000000e+00   0.0000000e+00   0.0000000e+00
   2.2409725e+00   1.2165279e+01   5.7625007e+00   3.5215282e+00   9.2840289e+00   3.3934726e+01   1.9528475e+01   1.0244446e+01   0.0000000e+00  -3.2013893e+00   7.0430564e+00   9.9243067e+00   1.5046530e+01   1.3445835e+01   9.2840289e+00   9.6041678e+00   2.1769447e+01   2.5290975e+01   3.0413198e+01   3.2013893e-01   0.0000000e+00   0.0000000e+00   0.0000000e+00   0.0000000e+00
   1.9208336e+00   1.5046530e+01   3.8416671e+00   3.2013893e+00   9.9243067e+00   3.3294448e+01   1.9528475e+01   1.1845140e+01  -6.4027785e-01  -1.6006946e+00   7.6833342e+00   9.9243067e+00   1.5686807e+01   1.3445835e+01   9.9243067e+00   8.9638899e+00   2.0809030e+01   2.6891670e+01   2.9772920e+01   6.4027785e-01   0.0000000e+00   0.0000000e+00   0.0000000e+00   0.0000000e+00
   2.8812503e+00   1.7927780e+01   2.2409725e+00   3.5215282e+00   1.0244446e+01   3.2334032e+01   1.9208336e+01   1.3445835e+01  -1.2805557e+00  -1.6006946e+00   8.3236121e+00   8.9638899e+00   1.5366668e+01   1.3125696e+01   1.0564585e+01   8.0034732e+00   2.0168752e+01   2.8492364e+01   2.9772920e+01   9.6041678e-01   0.0000000e+00   0.0000000e+00   0.0000000e+00   0.0000000e+00
   4.1618060e+00   1.8888197e+01   1.2805557e+00   2.8812503e+00   8.3236121e+00   3.0093059e+01   1.7607641e+01   1.3445835e+01  -2.2409725e+00  -3.8416671e+00   7.3631953e+00   6.0826396e+00   1.2805557e+01   1.0244446e+01   1.0564585e+01   5.7625007e+00   1.9528475e+01   2.9772920e+01   2.9772920e+01   1.6006946e+00   0.0000000e+00   0.0000000e+00   0.0000000e+00   0.0000000e+00
   5.4423618e+00   1.8888197e+01   2.2409725e+00   1.9208336e+00   5.7625007e+00   2.7211809e+01   1.6647224e+01   1.2805557e+01  -2.2409725e+00  -6.4027785e+00   6.7229175e+00   3.8416671e+00   9.9243067e+00   5.4423618e+00   1.0884724e+01   3.8416671e+00   1.8888197e+01   3.0733337e+01   3.0413198e+01   2.8812503e+00   0.0000000e+00   0.0000000e+00   0.0000000e+00   0.0000000e+00
   5.4423618e+00   1.8247919e+01   3.8416671e+00   6.4027785e-01   3.2013893e+00   2.3690281e+01   1.6006946e+01   1.1525001e+01  -1.2805557e+00  -7.6833342e+00   5.7625007e+00   2.2409725e+00   7.0430564e+00  -6.4027785e-01   1.0564585e+01   1.9208336e+00   1.7927780e+01   3.1373615e+01   3.0093059e+01   3.2013893e+00   0.0000000e+00   0.0000000e+00   0.0000000e+00   0.0000000e+00
   3.8416671e+00   1.8247919e+01   5.7625007e+00  -3.2013893e-01   1.9208336e+00   1.9528475e+01   1.6006946e+01   9.9243067e+00   0.0000000e+00  -7.3631953e+00   5.1222228e+00   2.5611114e+00   5.4423618e+00  -6.0826396e+00   9.2840289e+00   6.4027785e-01   1.6647224e+01   3.1693754e+01   2.8492364e+01   2.5611114e+00   0.0000000e+00   0.0000000e+00   0.0000000e+00   0.0000000e+00
   1.9208336e+00   1.8247919e+01   6.7229175e+00  -9.6041678e-01   1.2805557e+00   1.5686807e+01   1.6006946e+01   8.3236121e+00   6.4027785e-01  -6.4027785e+00   4.4819450e+00   3.5215282e+00   4.8020839e+00  -9.6041678e+00   7.0430564e+00  -3.2013893e-01   1.4086113e+01   3.1373615e+01   2.5931253e+01   3.2013893e-01   0.0000000e+00   0.0000000e+00   0.0000000e+00   0.0000000e+00
   0.0000000e+00   1.6647224e+01   6.4027785e+00  -1.2805557e+00   6.4027785e-01   1.2485418e+01   1.6006946e+01   6.7229175e+00  -3.2013893e-01  -5.4423618e+00   3.5215282e+00   4.1618060e+00   4.1618060e+00  -1.0884724e+01   3.8416671e+00  -6.4027785e-01   1.1525001e+01   3.0413198e+01   2.3050003e+01  -2.5611114e+00   0.0000000e+00   0.0000000e+00   0.0000000e+00   0.0000000e+00
  -3.2013893e-01   1.3765974e+01   5.4423618e+00  -1.2805557e+00  -9.6041678e-01   1.1204862e+01   1.5686807e+01   5.7625007e+00  -1.6006946e+00  -5.1222228e+00   2.2409725e+00   3.8416671e+00   3.2013893e+00  -1.0884724e+01   9.6041678e-01  -3.2013893e-01   9.6041678e+00   2.9132642e+01   2.0809030e+01  -4.8020839e+00   0.0000000e+00   0.0000000e+00   0.0000000e+00   0.0000000e+00
   9.6041678e-01   1.0244446e+01   4.4819450e+00  -6.4027785e-01  -1.6006946e+00   1.2805557e+01   1.5366668e+01   4.8020839e+00  -2.5611114e+00  -5.4423618e+00   1.2805557e+00   2.8812503e+00   2.5611114e+00  -1.0564585e+01  -6.4027785e-01   9.6041678e-01   9.6041678e+00   2.8172226e+01   2.0809030e+01  -5.1222228e+00   0.0000000e+00   0.0000000e+00   0.0000000e+00   0.0000000e+00
   2.8812503e+00   7.3631953e+00   2.8812503e+00   3.2013893e-01  -1.2805557e+00   1.6647224e+01   1.5046530e+01   3.8416671e+00  -3.5215282e+00  -6.4027785e+00  -3.2013893e-01   1.6006946e+00   1.9208336e+00  -1.0244446e+01  -9.6041678e-01   1.9208336e+00   1.0884724e+01   2.7531948e+01   2.1449308e+01  -4.8020839e+00   0.0000000e+00   0.0000000e+00   0.0000000e+00   0.0000000e+00
   4.4819450e+00   6.7229175e+00   1.6006946e+00   2.5611114e+00   1.6006946e+00   2.2409725e+01   1.5046530e+01   3.2013893e+00  -3.8416671e+00  -6.7229175e+00  -6.4027785e-01   1.6006946e+00   2.8812503e+00  -8.3236121e+00   3.2013893e-01   3.2013893e+00   1.3765974e+01   2.7211809e+01   2.3050003e+01  -3.8416671e+00   0.0000000e+00   0.0000000e+00   0.0000000e+00   0.0000000e+00
   5.1222228e+00   8.0034732e+00   0.0000000e+00   4.8020839e+00   4.8020839e+00   2.6891670e+01   1.5046530e+01   2.2409725e+00  -4.4819450e+00  -6.7229175e+00  -1.2805557e+00   2.5611114e+00   4.1618060e+00  -5.7625007e+00   1.6006946e+00   3.8416671e+00   1.6006946e+01   2.6571531e+01   2.3690281e+01  -3.8416671e+00   0.0000000e+00   0.0000000e+00   0.0000000e+00   0.0000000e+00
   4.8020839e+00   1.0244446e+01  -1.2805557e+00   6.0826396e+00   7.6833342e+00   2.9452781e+01   1.5046530e+01   1.2805557e+00  -5.4423618e+00  -6.4027785e+00  -1.2805557e+00   3.8416671e+00   4.4819450e+00  -3.2013893e+00   1.9208336e+00   4.1618060e+00   1.6327085e+01   2.5611114e+01   2.2729864e+01  -5.1222228e+00   0.0000000e+00   0.0000000e+00   0.0000000e+00   0.0000000e+00
   4.1618060e+00   1.2165279e+01  -1.9208336e+00   6.7229175e+00   8.6437510e+00   2.9772920e+01   1.4086113e+01   3.2013893e-01  -6.7229175e+00  -5.4423618e+00  -9.6041678e-01   4.4819450e+00   3.8416671e+00  -1.2805557e+00   9.6041678e-01   3.8416671e+00   1.5686807e+01   2.4650697e+01   2.1129169e+01  -7.3631953e+00   0.0000000e+00   0.0000000e+00   0.0000000e+00   0.0000000e+00
   4.4819450e+00   1.4406252e+01  -9.6041678e-01   7.3631953e+00   8.3236121e+00   2.9132642e+01   1.3125696e+01   0.0000000e+00  -7.0430564e+00  -3.8416671e+00  -3.2013893e-01   5.1222228e+00   3.2013893e+00  -6.4027785e-01   0.0000000e+00   3.5215282e+00   1.5046530e+01   2.4010419e+01   1.9848613e+01  -8.9638899e+00   0.0000000e+00   0.0000000e+00   0.0000000e+00   0.0000000e+00
   6.7229175e+00   1.6967363e+01   9.6041678e-01   8.3236121e+00   7.0430564e+00   2.8492364e+01   1.1845140e+01   3.2013893e-01  -6.4027785e+00  -1.9208336e+00   0.0000000e+00   5.1222228e+00   2.5611114e+00  -1.2805557e+00  -9.6041678e-01   2.2409725e+00   1.5366668e+01   2.4010419e+01   1.9848613e+01  -9.2840289e+00   0.0000000e+00   0.0000000e+00   0.0000000e+00   0.0000000e+00
   9.2840289e+00   1.9848613e+01   3.2013893e+00   9.6041678e+00   5.7625007e+00   2.7211809e+01   9.9243067e+00   0.0000000e+00  -5.1222228e+00  -3.2013893e-01   3.2013893e-01   5.1222228e+00   2.5611114e+00  -1.9208336e+00  -1.6006946e+00   3.2013893e-01   1.6967363e+01   2.4650697e+01   2.0168752e+01  -8.9638899e+00   0.0000000e+00   0.0000000e+00   0.0000000e+00   0.0000000e+00
   1.1845140e+01   2.3050003e+01   5.1222228e+00   1.1204862e+01   6.0826396e+00   2.5931253e+01   8.3236121e+00  -3.2013893e-01  -3.5215282e+00   1.2805557e+00   9.6041678e-01   6.0826396e+00   4.1618060e+00  -2.2409725e+00  -1.9208336e+00  -2.2409725e+00   1.8888197e+01   2.5931253e+01   2.1129169e+01  -8.3236121e+00   0.0000000e+00   0.0000000e+00   0.0000000e+00   0.0000000e+00
   1.3125696e+01   2.5611114e+01   5.4423618e+00   1.2485418e+01   7.0430564e+00   2.3690281e+01   7.6833342e+00  -9.6041678e-01  -2.2409725e+00   2.2409725e+00   1.2805557e+00   7.0430564e+00   5.7625007e+00  -1.9208336e+00  -1.9208336e+00  -5.4423618e+00   2.0168752e+01   2.7211809e+01   2.0809030e+01  -8.9638899e+00   0.0000000e+00   0.0000000e+00   0.0000000e+00   0.0000000e+00
   1.2805557e+01   2.6571531e+01   4.1618060e+00   1.2485418e+01   7.3631953e+00   1.9848613e+01   7.3631953e+00  -1.9208336e+00  -2.2409725e+00   2.2409725e+00   1.6006946e+00   7.6833342e+00   6.7229175e+00  -2.2409725e+00  -3.2013893e+00  -8.9638899e+00   1.9208336e+01   2.7852087e+01   1.8888197e+01  -1.1204862e+01   0.0000000e+00   0.0000000e+00   0.0000000e+00   0.0000000e+00
   1.1845140e+01   2.6891670e+01   2.2409725e+00   1.1845140e+01   6.7229175e+00   1.5366668e+01   7.6833342e+00  -2.8812503e+00  -2.5611114e+00   6.4027785e-01   1.9208336e+00   7.6833342e+00   6.4027785e+00  -3.5215282e+00  -5.1222228e+00  -1.2165279e+01   1.6647224e+01   2.8172226e+01   1.6006946e+01  -1.4406252e+01   0.0000000e+00   0.0000000e+00   0.0000000e+00   0.0000000e+00
   1.1525001e+01   2.6891670e+01   6.4027785e-01   1.0884724e+01   5.4423618e+00   1.2165279e+01   8.3236121e+00  -3.5215282e+00  -2.8812503e+00  -1.6006946e+00   1.9208336e+00   7.3631953e+00   5.4423618e+00  -5.1222228e+00  -6.0826396e+00  -1.4406252e+01   1.4726391e+01   2.8492364e+01   1.4406252e+01  -1.6006946e+01   0.0000000e+00   0.0000000e+00   0.0000000e+00   0.0000000e+00
   1.1525001e+01   2.6571531e+01   3.2013893e-01   1.0244446e+01   4.1618060e+00   1.1204862e+01   8.3236121e+00  -3.8416671e+00  -3.2013893e+00  -4.1618060e+00   1.6006946e+00   6.0826396e+00   4.1618060e+00  -6.7229175e+00  -6.4027785e+00  -1.5046530e+01   1.4086113e+01   2.9132642e+01   1.4406252e+01  -1.6327085e+01   0.0000000e+00   0.0000000e+00   0.0000000e+00   0.0000000e+00
   1.1845140e+01   2.4970836e+01   6.4027785e-01   1.0244446e+01   4.8020839e+00   1.3765974e+01   8.6437510e+00  -4.1618060e+00  -3.2013893e+00  -5.7625007e+00   1.2805557e+00   5.1222228e+00   4.1618060e+00  -7.6833342e+00  -5.1222228e+00  -1.4406252e+01   1.5686807e+01   3.0733337e+01   1.6006946e+01  -1.4406252e+01   0.0000000e+00   0.0000000e+00   0.0000000e+00   0.0000000e+00
   1.2485418e+01   2.2089586e+01   9.6041678e-01   1.1204862e+01   6.4027785e+00   1.8247919e+01   9.2840289e+00  -4.1618060e+00  -3.2013893e+00  -4.8020839e+00   1.6006946e+00   5.1222228e+00   5.1222228e+00  -8.6437510e+00  -2.8812503e+00  -1.3125696e+01   1.8568058e+01   3.2654171e+01   1.8247919e+01  -1.1525001e+01   0.0000000e+00   0.0000000e+00   0.0000000e+00   0.0000000e+00
   1.1845140e+01   1.7287502e+01   3.2013893e-01   1.1845140e+01   8.0034732e+00   2.3050003e+01   9.6041678e+00  -4.4819450e+00  -3.5215282e+00  -2.2409725e+00   1.2805557e+00   5.4423618e+00   6.0826396e+00  -1.0884724e+01  -2.5611114e+00  -1.2805557e+01   1.9528475e+01   3.3294448e+01   1.8247919e+01  -1.0564585e+01   0.0000000e+00   0.0000000e+00   0.0000000e+00   0.0000000e+00
   1.0244446e+01   1.3445835e+01  -1.2805557e+00   1.1845140e+01   9.6041678e+00   2.6891670e+01   1.0884724e+01  -4.1618060e+00  -3.8416671e+00   1.9208336e+00   9.6041678e-01   6.4027785e+00   6.4027785e+00  -1.3125696e+01  -3.8416671e+00  -1.3765974e+01   1.8888197e+01   3.2974309e+01   1.6647224e+01  -1.1525001e+01   0.0000000e+00   0.0000000e+00   0.0000000e+00   0.0000000e+00
   8.0034732e+00   1.0884724e+01  -3.5215282e+00   1.1525001e+01   9.6041678e+00   2.8812503e+01   1.1525001e+01  -3.5215282e+00  -3.8416671e+00   4.4819450e+00   0.0000000e+00   7.0430564e+00   5.4423618e+00  -1.4406252e+01  -7.0430564e+00  -1.6327085e+01   1.6327085e+01   3.1373615e+01   1.3765974e+01  -1.4086113e+01   0.0000000e+00   0.0000000e+00   0.0000000e+00   0.0000000e+00
   5.7625007e+00   1.0244446e+01  -4.4819450e+00   1.0564585e+01   8.6437510e+00   2.8172226e+01   1.1525001e+01  -2.8812503e+00  -4.1618060e+00   4.4819450e+00  -1.6006946e+00   7.0430564e+00   3.2013893e+00  -1.4086113e+01  -1.0244446e+01  -1.9848613e+01   1.3125696e+01   2.8812503e+01   1.1204862e+01  -1.7607641e+01   0.0000000e+00   0.0000000e+00   0.0000000e+00   0.0000000e+00
   5.4423618e+00   1.1525001e+01  -3.8416671e+00   9.9243067e+00   7.0430564e+00   2.4970836e+01   1.0564585e+01  -2.2409725e+00  -4.4819450e+00   9.6041678e-01  -2.8812503e+00   6.4027785e+00   9.6041678e-01  -1.1845140e+01  -1.1845140e+01  -2.2409725e+01   1.1525001e+01   2.6571531e+01   1.0244446e+01  -1.9528475e+01   0.0000000e+00   0.0000000e+00   0.0000000e+00   0.0000000e+00
   6.4027785e+00   1.4086113e+01  -1.6006946e+00   1.0244446e+01   6.0826396e+00   2.0168752e+01   8.3236121e+00  -2.2409725e+00  -4.8020839e+00  -5.1222228e+00  -3.5215282e+00   5.4423618e+00  -6.4027785e-01  -9.9243067e+00  -1.1525001e+01  -2.4010419e+01   1.0884724e+01   2.4010419e+01   1.0564585e+01  -1.9848613e+01   0.0000000e+00   0.0000000e+00   0.0000000e+00   0.0000000e+00
   7.6833342e+00   1.6967363e+01   6.4027785e-01   1.0244446e+01   5.1222228e+00   1.3445835e+01   4.8020839e+00  -2.8812503e+00  -6.4027785e+00  -1.1845140e+01  -3.5215282e+00   4.1618060e+00  -1.9208336e+00  -1.0244446e+01  -1.0564585e+01  -2.4650697e+01   1.0564585e+01   2.1129169e+01   1.0564585e+01  -1.9848613e+01   0.0000000e+00   0.0000000e+00   0.0000000e+00   0.0000000e+00
   8.6437510e+00   1.9528475e+01   1.2805557e+00   1.1204862e+01   5.7625007e+00   7.6833342e+00   2.2409725e+00  -3.8416671e+00  -7.6833342e+00  -1.5366668e+01  -2.5611114e+00   4.4819450e+00  -1.6006946e+00  -1.2485418e+01  -9.2840289e+00  -2.3690281e+01   1.0244446e+01   1.8888197e+01   1.0244446e+01  -1.9208336e+01   0.0000000e+00   0.0000000e+00   0.0000000e+00   0.0000000e+00
   8.9638899e+00   2.0809030e+01   0.0000000e+00   1.2165279e+01   7.6833342e+00   4.4819450e+00   1.9208336e+00  -3.8416671e+00  -8.0034732e+00  -1.4086113e+01  -9.6041678e-01   6.0826396e+00   0.0000000e+00  -1.4406252e+01  -8.3236121e+00  -2.1129169e+01   9.6041678e+00   1.7607641e+01   9.2840289e+00  -1.8247919e+01   0.0000000e+00   0.0000000e+00   0.0000000e+00   0.0000000e+00
   8.3236121e+00   1.9528475e+01  -4.1618060e+00   1.2485418e+01   8.9638899e+00   4.8020839e+00   3.2013893e+00  -2.8812503e+00  -7.6833342e+00  -8.6437510e+00   3.2013893e-01   8.0034732e+00   2.2409725e+00  -1.4406252e+01  -8.3236121e+00  -1.7287502e+01   8.6437510e+00   1.7287502e+01   8.6437510e+00  -1.6967363e+01   0.0000000e+00   0.0000000e+00   0.0000000e+00   0.0000000e+00
   8.0034732e+00   1.6647224e+01  -8.6437510e+00   1.2805557e+01   1.0244446e+01   8.9638899e+00   6.4027785e+00  -6.4027785e-01  -6.7229175e+00  -1.2805557e+00   1.2805557e+00   9.6041678e+00   5.1222228e+00  -1.1204862e+01  -7.3631953e+00  -1.1845140e+01   8.9638899e+00   1.7927780e+01   9.9243067e+00  -1.4726391e+01   0.0000000e+00   0.0000000e+00   0.0000000e+00   0.0000000e+00
   8.3236121e+00   1.4086113e+01  -1.1525001e+01   1.2805557e+01   9.9243067e+00   1.4726391e+01   9.2840289e+00   1.6006946e+00  -5.4423618e+00   5.1222228e+00   2.2409725e+00   9.9243067e+00   7.3631953e+00  -6.0826396e+00  -5.1222228e+00  -6.0826396e+00   1.0884724e+01   1.9528475e+01   1.2805557e+01  -1.0884724e+01   0.0000000e+00   0.0000000e+00   0.0000000e+00   0.0000000e+00
   9.2840289e+00   1.2165279e+01  -1.1845140e+01   1.2805557e+01   8.9638899e+00   1.9208336e+01   1.0884724e+01   3.2013893e+00  -4.8020839e+00   8.0034732e+00   2.5611114e+00   9.2840289e+00   8.6437510e+00  -1.2805557e+00  -1.9208336e+00  -6.4027785e-01   1.3445835e+01   2.1449308e+01   1.6647224e+01  -6.4027785e+00   0.0000000e+00   0.0000000e+00   0.0000000e+00   0.0000000e+00
   1.0564585e+01   1.1204862e+01  -9.2840289e+00   1.2805557e+01   7.3631953e+00   2.2089586e+01   1.1845140e+01   4.1618060e+00  -4.1618060e+00   7.6833342e+00   3.2013893e+00   8.6437510e+00   9.2840289e+00   1.9208336e+00   1.9208336e+00   3.5215282e+00   1.6006946e+01   2.3370142e+01   2.0488891e+01  -1.6006946e+00   0.0000000e+00   0.0000000e+00   0.0000000e+00   0.0000000e+00
   1.2165279e+01   9.9243067e+00  -4.4819450e+00   1.3445835e+01   7.3631953e+00   2.4650697e+01   1.3125696e+01   4.4819450e+00  -3.2013893e+00   7.0430564e+00   4.1618060e+00   8.9638899e+00   1.0244446e+01   4.1618060e+00   5.4423618e+00   7.3631953e+00   1.8247919e+01   2.6251392e+01   2.3690281e+01   2.5611114e+00   0.0000000e+00   0.0000000e+00   0.0000000e+00   0.0000000e+00
   1.1845140e+01   7.6833342e+00   0.0000000e+00   1.3445835e+01   7.3631953e+00   2.7211809e+01   1.5046530e+01   4.8020839e+00  -2.2409725e+00   7.0430564e+00   5.4423618e+00   9.6041678e+00   1.0884724e+01   5.4423618e+00   7.0430564e+00   9.9243067e+00   1.9208336e+01   2.8812503e+01   2.5611114e+01   5.1222228e+00   0.0000000e+00   0.0000000e+00   0.0000000e+00   0.0000000e+00
   9.9243067e+00   5.1222228e+00   2.8812503e+00   1.2805557e+01   7.3631953e+00   3.0413198e+01   1.7607641e+01   4.8020839e+00  -9.6041678e-01   8.6437510e+00   6.0826396e+00   1.0564585e+01   1.1525001e+01   5.7625007e+00   7.0430564e+00   1.1525001e+01   1.8568058e+01   3.1053476e+01   2.6251392e+01   5.7625007e+00   0.0000000e+00   0.0000000e+00   0.0000000e+00   0.0000000e+00
   8.3236121e+00   4.1618060e+00   4.1618060e+00   1.2165279e+01   6.7229175e+00   3.3294448e+01   1.9848613e+01   5.4423618e+00   9.6041678e-01   1.1204862e+01   7.0430564e+00   1.1204862e+01   1.1525001e+01   6.0826396e+00   5.7625007e+00   1.1845140e+01   1.7927780e+01   3.2974309e+01   2.7211809e+01   6.0826396e+00   0.0000000e+00   0.0000000e+00   0.0000000e+00   0.0000000e+00
   6.7229175e+00   4.8020839e+00   2.2409725e+00   1.1525001e+01   4.1618060e+00   3.2974309e+01   1.9528475e+01   4.8020839e+00   1.9208336e+00   1.1525001e+01   6.4027785e+00   1.0244446e+01   9.6041678e+00   4.1618060e+00   3.8416671e+00   1.0244446e+01   1.6327085e+01   3.2974309e+01   2.7531948e+01   5.1222228e+00   0.0000000e+00   0.0000000e+00   0.0000000e+00   0.0000000e+00
   6.7229175e+00   7.6833342e+00  -6.4027785e-01   1.2165279e+01   1.9208336e+00   3.0413198e+01   1.8247919e+01   4.4819450e+00   3.2013893e+00   9.6041678e+00   5.4423618e+00   9.2840289e+00   7.0430564e+00   1.9208336e+00   2.5611114e+00   7.6833342e+00   1.6006946e+01   3.2974309e+01   2.8172226e+01   4.8020839e+00   0.0000000e+00   0.0000000e+00   0.0000000e+00   0.0000000e+00
   8.6437510e+00   1.1845140e+01  -3.5215282e+00   1.4086113e+01   1.9208336e+00   2.6571531e+01   1.7287502e+01   4.1618060e+00   4.8020839e+00   6.0826396e+00   4.8020839e+00   9.6041678e+00   5.4423618e+00   0.0000000e+00   3.5215282e+00   5.1222228e+00   1.6967363e+01   3.3294448e+01   3.0093059e+01   4.4819450e+00   0.0000000e+00   0.0000000e+00   0.0000000e+00   0.0000000e+00
   1.0244446e+01   1.4726391e+01  -6.4027785e+00   1.6006946e+01   3.2013893e+00   2.2089586e+01   1.6647224e+01   3.2013893e+00   5.1222228e+00   2.2409725e+00   4.1618060e+00   1.0884724e+01   3.8416671e+00  -1.6006946e+00   4.1618060e+00   2.8812503e+00   1.7607641e+01   3.2974309e+01   3.0733337e+01   3.2013893e+00   0.0000000e+00   0.0000000e+00   0.0000000e+00   0.0000000e+00
   1.1525001e+01   1.6967363e+01  -8.3236121e+00   1.7607641e+01   6.0826396e+00   1.7607641e+01   1.7607641e+01   2.5611114e+00   5.7625007e+00   3.2013893e-01   4.1618060e+00   1.3445835e+01   4.1618060e+00  -2.8812503e+00   4.8020839e+00   1.6006946e+00   1.7607641e+01   3.2654171e+01   3.0413198e+01   1.2805557e+00   0.0000000e+00   0.0000000e+00   0.0000000e+00   0.0000000e+00
   1.2485418e+01   1.8247919e+01  -8.6437510e+00   1.8568058e+01   8.6437510e+00   1.1845140e+01   1.8568058e+01   2.2409725e+00   6.0826396e+00   9.6041678e-01   4.1618060e+00   1.6006946e+01   5.4423618e+00  -4.8020839e+00   3.8416671e+00   9.6041678e-01   1.6647224e+01   3.2013893e+01   2.9132642e+01  -9.6041678e-01   0.0000000e+00   0.0000000e+00   0.0000000e+00   0.0000000e+00
   1.2485418e+01   1.8888197e+01  -7.3631953e+00   1.8568058e+01   9.9243067e+00   5.7625007e+00   1.8888197e+01   1.9208336e+00   5.4423618e+00   2.5611114e+00   3.8416671e+00   1.7607641e+01   6.7229175e+00  -7.0430564e+00   1.2805557e+00   6.4027785e-01   1.5046530e+01   3.0093059e+01   2.6891670e+01  -3.5215282e+00   0.0000000e+00   0.0000000e+00   0.0000000e+00   0.0000000e+00
   1.3125696e+01   1.9208336e+01  -4.8020839e+00   1.8568058e+01   1.1204862e+01   2.2409725e+00   1.8247919e+01   2.5611114e+00   4.4819450e+00   3.5215282e+00   3.2013893e+00   1.7927780e+01   8.3236121e+00  -8.0034732e+00  -3.2013893e-01   6.4027785e-01   1.4726391e+01   2.8492364e+01   2.6251392e+01  -4.8020839e+00   0.0000000e+00   0.0000000e+00   0.0000000e+00   0.0000000e+00
   1.3765974e+01   1.8247919e+01  -1.6006946e+00   1.8888197e+01   1.2805557e+01   4.8020839e+00   1.7607641e+01   3.2013893e+00   3.5215282e+00   2.8812503e+00   2.5611114e+00   1.6967363e+01   9.9243067e+00  -7.0430564e+00  -3.2013893e-01   1.2805557e+00   1.6327085e+01   2.7531948e+01   2.7211809e+01  -3.8416671e+00   0.0000000e+00   0.0000000e+00   0.0000000e+00   0.0000000e+00
   1.3765974e+01   1.5686807e+01   1.2805557e+00   1.8888197e+01   1.4726391e+01   1.2805557e+01   1.7607641e+01   3.8416671e+00   2.5611114e+00   1.6006946e+00   1.9208336e+00   1.5686807e+01   1.0564585e+01  -3.8416671e+00   1.2805557e+00   1.6006946e+00   1.8888197e+01   2.6891670e+01   2.9452781e+01  -2.5611114e+00   0.0000000e+00   0.0000000e+00   0.0000000e+00   0.0000000e+00
   1.2805557e+01   1.2485418e+01   2.2409725e+00   1.8568058e+01   1.6327085e+01   2.3050003e+01   1.8247919e+01   3.8416671e+00   1.9208336e+00   3.2013893e-01   1.2805557e+00   1.4406252e+01   1.0564585e+01   0.0000000e+00   2.8812503e+00   9.6041678e-01   2.1129169e+01   2.6571531e+01   3.1053476e+01  -1.9208336e+00   0.0000000e+00   0.0000000e+00   0.0000000e+00   0.0000000e+00
   1.2165279e+01   1.0564585e+01   2.2409725e+00   1.8247919e+01   1.7927780e+01   3.2334032e+01   1.9848613e+01   4.4819450e+00   1.9208336e+00   9.6041678e-01   1.6006946e+00   1.4726391e+01   1.0564585e+01   3.5215282e+00   4.4819450e+00  -3.2013893e-01   2.2089586e+01   2.6891670e+01   3.2013893e+01  -1.9208336e+00   0.0000000e+00   0.0000000e+00   0.0000000e+00   0.0000000e+00
   1.1204862e+01   9.9243067e+00   6.4027785e-01   1.7607641e+01   1.7927780e+01   3.6815977e+01   2.1129169e+01   4.8020839e+00   1.6006946e+00   2.8812503e+00   2.2409725e+00   1.4726391e+01   1.0564585e+01   4.8020839e+00   4.1618060e+00  -2.2409725e+00   2.1129169e+01   2.6891670e+01   3.1053476e+01  -3.5215282e+00   0.0000000e+00   0.0000000e+00   0.0000000e+00   0.0000000e+00
   1.1525001e+01   1.1204862e+01  -3.2013893e-01   1.7927780e+01   1.7607641e+01   3.8416671e+01   2.2089586e+01   6.0826396e+00   2.2409725e+00   5.7625007e+00   3.2013893e+00   1.5366668e+01   1.1525001e+01   4.4819450e+00   3.2013893e+00  -3.8416671e+00   2.0168752e+01   2.7211809e+01   2.9772920e+01  -4.4819450e+00   0.0000000e+00   0.0000000e+00   0.0000000e+00   0.0000000e+00
   1.2165279e+01   1.2805557e+01  -9.6041678e-01   1.8247919e+01   1.6327085e+01   3.8096532e+01   2.1449308e+01   6.7229175e+00   3.5215282e+00   8.3236121e+00   4.1618060e+00   1.5046530e+01   1.2805557e+01   1.9208336e+00   2.2409725e+00  -4.8020839e+00   1.9848613e+01   2.8172226e+01   2.8812503e+01  -4.4819450e+00   0.0000000e+00   0.0000000e+00   0.0000000e+00   0.0000000e+00
   1.2805557e+01   1.3445835e+01  -6.4027785e-01   1.8247919e+01   1.4726391e+01   3.8416671e+01   2.0168752e+01   6.7229175e+00   5.4423618e+00   1.0244446e+01   4.8020839e+00   1.4086113e+01   1.3445835e+01  -1.2805557e+00   1.6006946e+00  -4.4819450e+00   2.0809030e+01   2.9452781e+01   2.8812503e+01  -2.8812503e+00   0.0000000e+00   0.0000000e+00   0.0000000e+00   0.0000000e+00
   1.3765974e+01   1.4406252e+01  -3.2013893e-01   1.7607641e+01   1.3125696e+01   4.0017366e+01   1.8568058e+01   6.4027785e+00   7.6833342e+00   1.1525001e+01   5.1222228e+00   1.2805557e+01   1.3125696e+01  -3.2013893e+00   2.2409725e+00  -2.8812503e+00   2.2729864e+01   3.1693754e+01   2.9132642e+01  -3.2013893e-01   0.0000000e+00   0.0000000e+00   0.0000000e+00   0.0000000e+00
   1.3765974e+01   1.6327085e+01  -3.2013893e-01   1.6006946e+01   1.1204862e+01   4.0337505e+01   1.6967363e+01   5.1222228e+00   8.9638899e+00   1.2165279e+01   5.1222228e+00   1.1845140e+01   1.1525001e+01  -2.8812503e+00   2.8812503e+00  -9.6041678e-01   2.3370142e+01   3.3614587e+01   2.8812503e+01   1.6006946e+00   0.0000000e+00   0.0000000e+00   0.0000000e+00   0.0000000e+00
   1.3765974e+01   1.9848613e+01  -1.2805557e+00   1.4406252e+01   9.2840289e+00   3.7456254e+01   1.5686807e+01   3.5215282e+00   9.2840289e+00   1.2165279e+01   5.1222228e+00   1.1525001e+01   9.2840289e+00  -6.4027785e-01   3.2013893e+00   6.4027785e-01   2.2409725e+01   3.5535421e+01   2.7531948e+01   1.9208336e+00   0.0000000e+00   0.0000000e+00   0.0000000e+00   0.0000000e+00
   1.3445835e+01   2.4330558e+01  -2.8812503e+00   1.2485418e+01   7.0430564e+00   3.0413198e+01   1.4086113e+01   1.6006946e+00   8.0034732e+00   1.1525001e+01   3.8416671e+00   1.1204862e+01   7.0430564e+00   1.2805557e+00   2.2409725e+00   1.2805557e+00   1.9208336e+01   3.5855560e+01   2.4650697e+01   3.2013893e-01   0.0000000e+00   0.0000000e+00   0.0000000e+00   0.0000000e+00
   1.3445835e+01   2.9132642e+01  -2.8812503e+00   1.1204862e+01   5.1222228e+00   2.2089586e+01   1.3125696e+01   0.0000000e+00   6.7229175e+00   9.9243067e+00   2.5611114e+00   1.0884724e+01   5.4423618e+00   2.2409725e+00   9.6041678e-01   6.4027785e-01   1.6006946e+01   3.5855560e+01   2.1449308e+01  -1.9208336e+00   0.0000000e+00   0.0000000e+00   0.0000000e+00   0.0000000e+00
   1.4086113e+01   3.2334032e+01  -3.2013893e-01   1.0564585e+01   3.8416671e+00   1.5366668e+01   1.2805557e+01  -6.4027785e-01   6.4027785e+00   7.3631953e+00   1.6006946e+00   9.9243067e+00   5.4423618e+00   1.9208336e+00   0.0000000e+00   0.0000000e+00   1.4406252e+01   3.5855560e+01   1.9528475e+01  -3.5215282e+00   0.0000000e+00   0.0000000e+00   0.0000000e+00   0.0000000e+00
   1.3765974e+01   3.2654171e+01   3.5215282e+00   9.6041678e+00   2.5611114e+00   1.2485418e+01   1.2485418e+01  -1.2805557e+00   6.0826396e+00   3.5215282e+00   6.4027785e-01   8.3236121e+00   5.7625007e+00   9.6041678e-01  -6.4027785e-01  -1.2805557e+00   1.4406252e+01   3.5535421e+01   1.8568058e+01  -4.4819450e+00   0.0000000e+00   0.0000000e+00   0.0000000e+00   0.0000000e+00
   1.3125696e+01   3.0413198e+01   8.3236121e+00   9.2840289e+00   2.8812503e+00   1.4086113e+01   1.3125696e+01  -9.6041678e-01   7.0430564e+00   3.2013893e-01   9.6041678e-01   8.0034732e+00   6.7229175e+00   1.2805557e+00  -3.2013893e-01  -1.6006946e+00   1.6647224e+01   3.5855560e+01   1.9528475e+01  -4.1618060e+00   0.0000000e+00   0.0000000e+00   0.0000000e+00   0.0000000e+00
   1.1204862e+01   2.5611114e+01   1.0244446e+01   8.9638899e+00   3.5215282e+00   1.8247919e+01   1.4406252e+01  -9.6041678e-01   7.3631953e+00  -1.9208336e+00   1.2805557e+00   8.3236121e+00   7.6833342e+00   1.9208336e+00   0.0000000e+00  -2.5611114e+00   1.8247919e+01   3.5855560e+01   1.9848613e+01  -4.4819450e+00   0.0000000e+00   0.0000000e+00   0.0000000e+00   0.0000000e+00
   8.9638899e+00   2.0168752e+01   8.9638899e+00   8.9638899e+00   4.4819450e+00   2.2409725e+01   1.5686807e+01  -9.6041678e-01   7.0430564e+00  -2.2409725e+00   1.6006946e+00   9.6041678e+00   8.0034732e+00   2.8812503e+00  -3.2013893e-01  -3.8416671e+00   1.8568058e+01   3.4895143e+01   1.9208336e+01  -5.4423618e+00   0.0000000e+00   0.0000000e+00   0.0000000e+00   0.0000000e+00
   6.4027785e+00   1.6327085e+01   4.4819450e+00   8.9638899e+00   4.8020839e+00   2.4650697e+01   1.6647224e+01  -6.4027785e-01   6.7229175e+00  -3.2013893e-01   1.6006946e+00   1.0884724e+01   7.6833342e+00   3.5215282e+00  -1.2805557e+00  -5.4423618e+00   1.7287502e+01   3.2974309e+01   1.7287502e+01  -8.0034732e+00   0.0000000e+00   0.0000000e+00   0.0000000e+00   0.0000000e+00
   4.1618060e+00   1.5046530e+01  -1.2805557e+00   8.3236121e+00   4.1618060e+00   2.3370142e+01   1.6327085e+01  -6.4027785e-01   6.4027785e+00   2.5611114e+00   9.6041678e-01   1.1525001e+01   7.0430564e+00   2.5611114e+00  -3.2013893e+00  -7.0430564e+00   1.5046530e+01   3.0413198e+01   1.4726391e+01  -1.0884724e+01   0.0000000e+00   0.0000000e+00   0.0000000e+00   0.0000000e+00
   3.2013893e+00   1.6647224e+01  -5.7625007e+00   7.6833342e+00   2.8812503e+00   1.9528475e+01   1.4726391e+01  -6.4027785e-01   6.7229175e+00   5.4423618e+00   6.4027785e-01   1.1204862e+01   6.7229175e+00   9.6041678e-01  -5.1222228e+00  -8.0034732e+00   1.3125696e+01   2.7531948e+01   1.2805557e+01  -1.2485418e+01   0.0000000e+00   0.0000000e+00   0.0000000e+00   0.0000000e+00
   3.2013893e+00   1.9208336e+01  -8.0034732e+00   6.7229175e+00   1.6006946e+00   1.4086113e+01   1.2165279e+01  -1.2805557e+00   7.6833342e+00   6.7229175e+00   0.0000000e+00   1.0244446e+01   6.4027785e+00  -1.6006946e+00  -6.0826396e+00  -7.6833342e+00   1.2485418e+01   2.5290975e+01   1.1845140e+01  -1.2805557e+01   0.0000000e+00   0.0000000e+00   0.0000000e+00   0.0000000e+00
   4.4819450e+00   2.0809030e+01  -7.3631953e+00   6.0826396e+00   1.2805557e+00   9.6041678e+00   9.6041678e+00  -2.2409725e+00   8.6437510e+00   6.7229175e+00   0.0000000e+00   9.9243067e+00   6.7229175e+00  -3.2013893e+00  -6.0826396e+00  -6.7229175e+00   1.3125696e+01   2.4010419e+01   1.2165279e+01  -1.2165279e+01   0.0000000e+00   0.0000000e+00   0.0000000e+00   0.0000000e+00
   5.7625007e+00   2.0488891e+01  -5.4423618e+00   6.4027785e+00   1.9208336e+00   8.3236121e+00   8.6437510e+00  -2.5611114e+00   9.6041678e+00   6.7229175e+00   6.4027785e-01   1.0564585e+01   6.7229175e+00  -3.5215282e+00  -5.1222228e+00  -4.8020839e+00   1.4406252e+01   2.3370142e+01   1.3125696e+01  -1.0884724e+01   0.0000000e+00   0.0000000e+00   0.0000000e+00   0.0000000e+00
   6.4027785e+00   1.8247919e+01  -3.2013893e+00   7.6833342e+00   2.8812503e+00   8.9638899e+00   8.9638899e+00  -2.5611114e+00   1.0244446e+01   7.0430564e+00   1.2805557e+00   1.1525001e+01   5.7625007e+00  -3.2013893e+00  -4.4819450e+00  -3.5215282e+00   1.4726391e+01   2.3050003e+01   1.3125696e+01  -1.0564585e+01   0.0000000e+00   0.0000000e+00   0.0000000e+00   0.0000000e+00
   6.7229175e+00   1.5686807e+01  -1.6006946e+00   9.9243067e+00   4.8020839e+00   1.1525001e+01   1.0564585e+01  -1.6006946e+00   1.0564585e+01   8.3236121e+00   2.8812503e+00   1.3125696e+01   4.4819450e+00  -1.6006946e+00  -3.8416671e+00  -1.9208336e+00   1.4726391e+01   2.3370142e+01   1.3445835e+01  -1.0884724e+01   0.0000000e+00   0.0000000e+00   0.0000000e+00   0.0000000e+00
   6.7229175e+00   1.4086113e+01  -1.6006946e+00   1.2165279e+01   6.4027785e+00   1.3765974e+01   1.2165279e+01  -3.2013893e-01   1.0244446e+01   8.3236121e+00   3.8416671e+00   1.3765974e+01   2.8812503e+00   0.0000000e+00  -3.2013893e+00  -1.6006946e+00   1.4406252e+01   2.3370142e+01   1.3445835e+01  -1.1525001e+01   0.0000000e+00   0.0000000e+00   0.0000000e+00   0.0000000e+00
   8.0034732e+00   1.4726391e+01  -1.6006946e+00   1.4086113e+01   8.0034732e+00   1.6006946e+01   1.3445835e+01   9.6041678e-01   1.0244446e+01   7.0430564e+00   5.1222228e+00   1.4086113e+01   2.8812503e+00   2.8812503e+00  -1.9208336e+00  -9.6041678e-01   1.5366668e+01   2.4650697e+01   1.5046530e+01  -1.1204862e+01   0.0000000e+00   0.0000000e+00   0.0000000e+00   0.0000000e+00
   9.9243067e+00   1.7287502e+01  -1.9208336e+00   1.5366668e+01   8.9638899e+00   1.9208336e+01   1.3765974e+01   2.2409725e+00   1.0244446e+01   5.1222228e+00   6.4027785e+00   1.3765974e+01   5.1222228e+00   6.0826396e+00   3.2013893e-01  -6.4027785e-01   1.8247919e+01   2.6571531e+01   1.8247919e+01  -9.6041678e+00   0.0000000e+00   0.0000000e+00   0.0000000e+00   0.0000000e+00
   1.1845140e+01   1.9528475e+01  -1.9208336e+00   1.6006946e+01   9.6041678e+00   2.3050003e+01   1.4086113e+01   3.2013893e+00   1.0244446e+01   3.5215282e+00   8.0034732e+00   1.3445835e+01   8.9638899e+00   8.9638899e+00   3.2013893e+00   0.0000000e+00   2.2089586e+01   2.9132642e+01   2.2409725e+01  -6.7229175e+00   0.0000000e+00   0.0000000e+00   0.0000000e+00   0.0000000e+00
   1.3445835e+01   1.9848613e+01  -1.6006946e+00   1.6327085e+01   1.0564585e+01   2.7211809e+01   1.4406252e+01   3.5215282e+00   1.0564585e+01   2.8812503e+00   9.2840289e+00   1.3445835e+01   1.3125696e+01   1.0564585e+01   5.7625007e+00   3.2013893e-01   2.5611114e+01   3.2013893e+01   2.5931253e+01  -4.4819450e+00   0.0000000e+00   0.0000000e+00   0.0000000e+00   0.0000000e+00
   1.3445835e+01   1.8568058e+01  -1.2805557e+00   1.6647224e+01   1.1204862e+01   2.9772920e+01   1.5366668e+01   3.5215282e+00   1.0564585e+01   2.5611114e+00   1.0244446e+01   1.3765974e+01   1.6006946e+01   1.0564585e+01   6.4027785e+00   3.2013893e-01   2.6571531e+01   3.3614587e+01   2.7211809e+01  -4.1618060e+00   0.0000000e+00   0.0000000e+00   0.0000000e+00   0.0000000e+00
   1.2805557e+01   1.7287502e+01  -6.4027785e-01   1.7607641e+01   1.2485418e+01   3.1373615e+01   1.6967363e+01   4.1618060e+00   1.0564585e+01   1.9208336e+00   1.1204862e+01   1.5046530e+01   1.6967363e+01   9.6041678e+00   6.4027785e+00   3.2013893e-01   2.6251392e+01   3.4895143e+01   2.7211809e+01  -5.1222228e+00   0.0000000e+00   0.0000000e+00   0.0000000e+00   0.0000000e+00
   1.2165279e+01   1.7287502e+01   0.0000000e+00   1.8568058e+01   1.3445835e+01   3.0733337e+01   1.8247919e+01   4.8020839e+00   9.9243067e+00   0.0000000e+00   1.1204862e+01   1.6006946e+01   1.6327085e+01   7.3631953e+00   4.8020839e+00  -6.4027785e-01   2.4650697e+01   3.4895143e+01   2.6251392e+01  -7.3631953e+00   0.0000000e+00   0.0000000e+00   0.0000000e+00   0.0000000e+00
   1.2485418e+01   1.9208336e+01   1.2805557e+00   1.9848613e+01   1.3765974e+01   2.8812503e+01   1.8888197e+01   5.4423618e+00   9.2840289e+00  -1.9208336e+00   1.0564585e+01   1.6327085e+01   1.5366668e+01   4.8020839e+00   3.2013893e+00  -1.6006946e+00   2.3050003e+01   3.4895143e+01   2.5290975e+01  -8.9638899e+00   0.0000000e+00   0.0000000e+00   0.0000000e+00   0.0000000e+00
   1.3445835e+01   2.2089586e+01   2.2409725e+00   1.9848613e+01   1.3445835e+01   2.6571531e+01   1.8247919e+01   5.4423618e+00   8.0034732e+00  -3.8416671e+00   8.6437510e+00   1.5366668e+01   1.3445835e+01   1.6006946e+00   1.6006946e+00  -3.2013893e+00   2.2409725e+01   3.4575004e+01   2.4650697e+01  -9.9243067e+00   0.0000000e+00   0.0000000e+00   0.0000000e+00   0.0000000e+00
   1.5366668e+01   2.4650697e+01   3.8416671e+00   2.0168752e+01   1.3125696e+01   2.4970836e+01   1.8247919e+01   4.8020839e+00   7.6833342e+00  -3.8416671e+00   6.7229175e+00   1.4726391e+01   1.2805557e+01  -1.2805557e+00   9.6041678e-01  -4.1618060e+00   2.3050003e+01   3.4575004e+01   2.4970836e+01  -9.9243067e+00   0.0000000e+00   0.0000000e+00   0.0000000e+00   0.0000000e+00
   1.5686807e+01   2.4330558e+01   4.1618060e+00   1.9208336e+01   1.2165279e+01   2.3690281e+01   1.7927780e+01   3.2013893e+00   7.0430564e+00  -2.5611114e+00   4.4819450e+00   1.3765974e+01   1.2165279e+01  -4.1618060e+00   0.0000000e+00  -6.0826396e+00   2.2729864e+01   3.3614587e+01   2.4650697e+01  -1.0564585e+01   0.0000000e+00   0.0000000e+00   0.0000000e+00   0.0000000e+00
   1.3765974e+01   2.1769447e+01   3.2013893e+00   1.7927780e+01   1.1204862e+01   2.1769447e+01   1.7607641e+01   1.2805557e+00   6.4027785e+00  -3.2013893e-01   2.5611114e+00   1.3445835e+01   1.1204862e+01  -6.7229175e+00  -9.6041678e-01  -7.6833342e+00   2.1129169e+01   3.1373615e+01   2.3370142e+01  -1.2165279e+01   0.0000000e+00   0.0000000e+00   0.0000000e+00   0.0000000e+00
   1.0564585e+01   1.7927780e+01   1.9208336e+00   1.6647224e+01   9.9243067e+00   1.9848613e+01   1.7287502e+01  -3.2013893e-01   5.7625007e+00   1.6006946e+00   9.6041678e-01   1.3445835e+01   9.9243067e+00  -8.3236121e+00  -2.2409725e+00  -8.6437510e+00   1.8247919e+01   2.8812503e+01   2.1129169e+01  -1.4726391e+01   0.0000000e+00   0.0000000e+00   0.0000000e+00   0.0000000e+00
   6.7229175e+00   1.3445835e+01   0.0000000e+00   1.5046530e+01   7.6833342e+00   1.7287502e+01   1.6327085e+01  -1.2805557e+00   4.4819450e+00   2.2409725e+00  -3.2013893e-01   1.3125696e+01   8.3236121e+00  -8.9638899e+00  -4.4819450e+00  -9.6041678e+00   1.4086113e+01   2.5290975e+01   1.8247919e+01  -1.7607641e+01   0.0000000e+00   0.0000000e+00   0.0000000e+00   0.0000000e+00
   4.1618060e+00   1.0884724e+01  -9.6041678e-01   1.3765974e+01   5.1222228e+00   1.5686807e+01   1.5046530e+01  -1.6006946e+00   3.8416671e+00   1.6006946e+00  -9.6041678e-01   1.2805557e+01   7.0430564e+00  -8.6437510e+00  -6.0826396e+00  -9.9243067e+00   1.1204862e+01   2.2729864e+01   1.6327085e+01  -1.9528475e+01   0.0000000e+00   0.0000000e+00   0.0000000e+00   0.0000000e+00
   4.1618060e+00   9.9243067e+00  -1.2805557e+00   1.2485418e+01   2.8812503e+00   1.4726391e+01   1.3445835e+01  -1.6006946e+00   3.2013893e+00   1.2805557e+00  -1.6006946e+00   1.1525001e+01   5.7625007e+00  -7.0430564e+00  -6.7229175e+00  -9.6041678e+00   1.0244446e+01   2.0809030e+01   1.6006946e+01  -1.9848613e+01   0.0000000e+00   0.0000000e+00   0.0000000e+00   0.0000000e+00
   5.7625007e+00   1.0244446e+01  -6.4027785e-01   1.1525001e+01   1.2805557e+00   1.4406252e+01   1.1525001e+01  -1.9208336e+00   3.5215282e+00   1.6006946e+00  -2.2409725e+00   1.0244446e+01   5.1222228e+00  -5.4423618e+00  -6.7229175e+00  -9.9243067e+00   1.0564585e+01   1.9848613e+01   1.6647224e+01  -1.8888197e+01   0.0000000e+00   0.0000000e+00   0.0000000e+00   0.0000000e+00
   7.3631953e+00   1.1845140e+01  -6.4027785e-01   1.0564585e+01   3.2013893e-01   1.4726391e+01   1.0244446e+01  -2.2409725e+00   3.8416671e+00   3.2013893e+00  -2.2409725e+00   9.9243067e+00   4.4819450e+00  -4.1618060e+00  -6.0826396e+00  -9.9243067e+00   1.1204862e+01   1.9528475e+01   1.7287502e+01  -1.7927780e+01   0.0000000e+00   0.0000000e+00   0.0000000e+00   0.0000000e+00
   8.3236121e+00   1.4406252e+01  -6.4027785e-01   9.6041678e+00   3.2013893e-01   1.5046530e+01   1.0244446e+01  -1.9208336e+00   4.4819450e+00   4.8020839e+00  -1.2805557e+00   1.0564585e+01   4.4819450e+00  -2.5611114e+00  -5.1222228e+00  -9.6041678e+00   1.1525001e+01   1.9848613e+01   1.7927780e+01  -1.6647224e+01   0.0000000e+00   0.0000000e+00   0.0000000e+00   0.0000000e+00
   7.6833342e+00   1.6327085e+01  -1.9208336e+00   8.6437510e+00   0.0000000e+00   1.5046530e+01   1.0884724e+01  -1.2805557e+00   4.1618060e+00   4.1618060e+00  -3.2013893e-01   1.1845140e+01   4.1618060e+00  -1.2805557e+00  -4.8020839e+00  -8.3236121e+00   1.0884724e+01   2.0168752e+01   1.7607641e+01  -1.6327085e+01   0.0000000e+00   0.0000000e+00   0.0000000e+00   0.0000000e+00
   7.0430564e+00   1.7927780e+01  -2.8812503e+00   8.6437510e+00   9.6041678e-01   1.6327085e+01   1.2805557e+01   6.4027785e-01   3.2013893e+00   1.2805557e+00   1.2805557e+00   1.3445835e+01   4.4819450e+00   1.2805557e+00  -3.8416671e+00  -5.4423618e+00   1.0884724e+01   2.1129169e+01   1.7927780e+01  -1.4726391e+01   0.0000000e+00   0.0000000e+00   0.0000000e+00   0.0000000e+00
   6.7229175e+00   1.7927780e+01  -3.5215282e+00   9.9243067e+00   2.2409725e+00   1.7927780e+01   1.4406252e+01   3.5215282e+00   1.9208336e+00  -3.5215282e+00   3.5215282e+00   1.4086113e+01   4.4819450e+00   3.8416671e+00  -2.2409725e+00  -1.2805557e+00   1.1525001e+01   2.3050003e+01   1.9528475e+01  -1.1845140e+01   0.0000000e+00   0.0000000e+00   0.0000000e+00   0.0000000e+00
   6.4027785e+00   1.6327085e+01  -3.5215282e+00   1.0564585e+01   3.2013893e+00   1.8888197e+01   1.5366668e+01   5.4423618e+00   6.4027785e-01  -8.6437510e+00   4.8020839e+00   1.3445835e+01   3.5215282e+00   5.1222228e+00   0.0000000e+00   2.8812503e+00   1.2805557e+01   2.4650697e+01   2.1449308e+01  -8.3236121e+00   0.0000000e+00   0.0000000e+00   0.0000000e+00   0.0000000e+00
   5.7625007e+00   1.4086113e+01  -3.2013893e+00   1.0564585e+01   2.8812503e+00   1.8247919e+01   1.5366668e+01   6.7229175e+00   0.0000000e+00  -1.1204862e+01   5.7625007e+00   1.1525001e+01   1.2805557e+00   4.1618060e+00   1.9208336e+00   5.4423618e+00   1.4406252e+01   2.6251392e+01   2.3370142e+01  -4.8020839e+00   0.0000000e+00   0.0000000e+00   0.0000000e+00   0.0000000e+00
   4.1618060e+00   1.1204862e+01  -3.8416671e+00   8.9638899e+00   6.4027785e-01   1.4406252e+01   1.3765974e+01   6.0826396e+00  -9.6041678e-01  -9.9243067e+00   5.4423618e+00   9.2840289e+00  -2.5611114e+00   6.4027785e-01   1.9208336e+00   5.7625007e+00   1.4086113e+01   2.5931253e+01   2.3050003e+01  -3.2013893e+00   0.0000000e+00   0.0000000e+00   0.0000000e+00   0.0000000e+00
   2.5611114e+00   9.2840289e+00  -4.4819450e+00   7.0430564e+00  -2.2409725e+00   8.0034732e+00   1.1845140e+01   4.8020839e+00  -1.9208336e+00  -4.4819450e+00   5.1222228e+00   8.0034732e+00  -6.0826396e+00  -3.8416671e+00   3.2013893e-01   5.1222228e+00   1.1845140e+01   2.4970836e+01   2.0488891e+01  -2.8812503e+00   0.0000000e+00   0.0000000e+00   0.0000000e+00   0.0000000e+00
   1.2805557e+00   8.6437510e+00  -6.0826396e+00   6.0826396e+00  -4.8020839e+00   0.0000000e+00   1.0244446e+01   3.8416671e+00  -2.5611114e+00   2.2409725e+00   5.1222228e+00   8.0034732e+00  -8.0034732e+00  -8.0034732e+00  -2.2409725e+00   3.5215282e+00   8.6437510e+00   2.3370142e+01   1.6647224e+01  -4.4819450e+00   0.0000000e+00   0.0000000e+00   0.0000000e+00   0.0000000e+00
   9.6041678e-01   9.6041678e+00  -7.6833342e+00   7.0430564e+00  -6.0826396e+00  -7.6833342e+00   8.6437510e+00   3.5215282e+00  -3.2013893e+00   8.6437510e+00   5.4423618e+00   8.9638899e+00  -7.6833342e+00  -1.1204862e+01  -5.7625007e+00   2.8812503e+00   5.4423618e+00   2.2089586e+01   1.2165279e+01  -6.7229175e+00   0.0000000e+00   0.0000000e+00   0.0000000e+00   0.0000000e+00
   1.6006946e+00   1.1204862e+01  -9.2840289e+00   8.6437510e+00  -5.7625007e+00  -1.1845140e+01   7.3631953e+00   3.8416671e+00  -3.8416671e+00   1.2805557e+01   5.4423618e+00   9.6041678e+00  -5.4423618e+00  -1.3125696e+01  -9.2840289e+00   2.2409725e+00   4.1618060e+00   2.0809030e+01   8.6437510e+00  -8.6437510e+00   0.0000000e+00   0.0000000e+00   0.0000000e+00   0.0000000e+00
   2.8812503e+00   1.2805557e+01  -9.6041678e+00   1.0244446e+01  -4.4819450e+00  -1.0564585e+01   6.4027785e+00   4.4819450e+00  -3.5215282e+00   1.5046530e+01   5.4423618e+00   9.9243067e+00  -2.2409725e+00  -1.4406252e+01  -1.1204862e+01   2.5611114e+00   4.8020839e+00   2.0168752e+01   7.0430564e+00  -8.9638899e+00   0.0000000e+00   0.0000000e+00   0.0000000e+00   0.0000000e+00
   3.8416671e+00   1.2485418e+01  -9.2840289e+00   1.0884724e+01  -3.5215282e+00  -4.8020839e+00   6.0826396e+00   5.1222228e+00  -3.2013893e+00   1.5366668e+01   4.8020839e+00   8.9638899e+00   6.4027785e-01  -1.4726391e+01  -1.2165279e+01   2.5611114e+00   6.7229175e+00   1.9528475e+01   6.7229175e+00  -8.6437510e+00   0.0000000e+00   0.0000000e+00   0.0000000e+00   0.0000000e+00
   4.8020839e+00   1.1204862e+01  -8.0034732e+00   1.0884724e+01  -2.5611114e+00   3.2013893e+00   7.0430564e+00   5.7625007e+00  -2.2409725e+00   1.4726391e+01   4.4819450e+00   8.3236121e+00   2.5611114e+00  -1.2165279e+01  -1.0884724e+01   2.8812503e+00   9.2840289e+00   1.9208336e+01   8.0034732e+00  -7.3631953e+00   0.0000000e+00   0.0000000e+00   0.0000000e+00   0.0000000e+00
   4.1618060e+00   8.9638899e+00  -7.0430564e+00   9.9243067e+00  -1.9208336e+00   8.6437510e+00   7.3631953e+00   5.7625007e+00  -1.9208336e+00   1.1845140e+01   3.8416671e+00   7.3631953e+00   2.8812503e+00  -8.3236121e+00  -9.6041678e+00   2.5611114e+00   9.6041678e+00   1.8247919e+01   8.3236121e+00  -7.6833342e+00   0.0000000e+00   0.0000000e+00   0.0000000e+00   0.0000000e+00
   3.5215282e+00   7.6833342e+00  -6.0826396e+00   9.2840289e+00  -1.2805557e+00   1.0884724e+01   8.3236121e+00   5.7625007e+00  -2.2409725e+00   7.3631953e+00   3.8416671e+00   7.3631953e+00   3.2013893e+00  -3.8416671e+00  -8.0034732e+00   2.5611114e+00   8.9638899e+00   1.6967363e+01   8.0034732e+00  -8.6437510e+00   0.0000000e+00   0.0000000e+00   0.0000000e+00   0.0000000e+00
   2.8812503e+00   7.6833342e+00  -5.4423618e+00   9.6041678e+00  -3.2013893e-01   1.1204862e+01   8.9638899e+00   6.7229175e+00  -2.8812503e+00   1.6006946e+00   4.4819450e+00   7.6833342e+00   3.5215282e+00   0.0000000e+00  -6.7229175e+00   2.8812503e+00   8.0034732e+00   1.6006946e+01   8.0034732e+00  -9.6041678e+00   0.0000000e+00   0.0000000e+00   0.0000000e+00   0.0000000e+00
   2.8812503e+00   8.6437510e+00  -4.1618060e+00   1.1204862e+01   9.6041678e-01   1.2165279e+01   9.9243067e+00   8.6437510e+00  -2.8812503e+00  -3.8416671e+00   6.0826396e+00   8.9638899e+00   5.4423618e+00   2.8812503e+00  -5.1222228e+00   3.8416671e+00   8.6437510e+00   1.6647224e+01   8.9638899e+00  -8.9638899e+00   0.0000000e+00   0.0000000e+00   0.0000000e+00   0.0000000e+00
   2.8812503e+00   8.3236121e+00  -2.2409725e+00   1.2485418e+01   2.2409725e+00   1.4406252e+01   1.0884724e+01   1.0564585e+01  -2.8812503e+00  -8.6437510e+00   6.7229175e+00   9.6041678e+00   7.3631953e+00   4.1618060e+00  -3.2013893e+00   4.4819450e+00   1.0564585e+01   1.7607641e+01   1.0884724e+01  -7.0430564e+00   0.0000000e+00   0.0000000e+00   0.0000000e+00   0.0000000e+00
   3.2013893e+00   7.0430564e+00   0.0000000e+00   1.3445835e+01   2.8812503e+00   1.7927780e+01   1.2165279e+01   1.2485418e+01  -2.2409725e+00  -1.1845140e+01   6.7229175e+00   9.9243067e+00   8.6437510e+00   5.4423618e+00  -1.2805557e+00   4.8020839e+00   1.3125696e+01   1.9208336e+01   1.3765974e+01  -4.4819450e+00   0.0000000e+00   0.0000000e+00   0.0000000e+00   0.0000000e+00
   3.2013893e+00   5.4423618e+00   1.6006946e+00   1.3125696e+01   2.8812503e+00   1.9848613e+01   1.2805557e+01   1.3125696e+01  -1.9208336e+00  -1.2485418e+01   6.4027785e+00   9.6041678e+00   8.6437510e+00   6.4027785e+00   3.2013893e-01   4.4819450e+00   1.5366668e+01   2.0809030e+01   1.6006946e+01  -1.9208336e+00   0.0000000e+00   0.0000000e+00   0.0000000e+00   0.0000000e+00
   3.2013893e+00   4.8020839e+00   2.5611114e+00   1.2165279e+01   1.9208336e+00   1.9208336e+01   1.2485418e+01   1.2805557e+01  -2.5611114e+00  -1.1525001e+01   5.7625007e+00   8.9638899e+00   6.7229175e+00   6.4027785e+00   9.6041678e-01   3.5215282e+00   1.5046530e+01   2.1769447e+01   1.6327085e+01  -1.2805557e+00   0.0000000e+00   0.0000000e+00   0.0000000e+00   0.0000000e+00
   2.8812503e+00   5.1222228e+00   1.9208336e+00   1.0244446e+01   3.2013893e-01   1.5046530e+01   1.0884724e+01   1.1204862e+01  -3.8416671e+00  -9.2840289e+00   4.8020839e+00   7.6833342e+00   2.8812503e+00   4.1618060e+00  -6.4027785e-01   1.6006946e+00   1.2165279e+01   2.1769447e+01   1.4406252e+01  -3.2013893e+00   0.0000000e+00   0.0000000e+00   0.0000000e+00   0.0000000e+00
   2.8812503e+00   6.7229175e+00   1.2805557e+00   8.3236121e+00  -9.6041678e-01   1.0564585e+01   8.9638899e+00   9.2840289e+00  -4.4819450e+00  -6.4027785e+00   4.4819450e+00   7.3631953e+00  -6.4027785e-01   6.4027785e-01  -2.8812503e+00   0.0000000e+00   8.6437510e+00   2.1769447e+01   1.1525001e+01  -5.7625007e+00   0.0000000e+00   0.0000000e+00   0.0000000e+00   0.0000000e+00
   2.8812503e+00   8.3236121e+00   6.4027785e-01   6.7229175e+00  -2.2409725e+00   7.0430564e+00   7.3631953e+00   7.3631953e+00  -5.4423618e+00  -4.8020839e+00   4.4819450e+00   6.4027785e+00  -3.2013893e+00  -3.8416671e+00  -5.7625007e+00  -1.2805557e+00   5.7625007e+00   2.2409725e+01   9.2840289e+00  -8.3236121e+00   0.0000000e+00   0.0000000e+00   0.0000000e+00   0.0000000e+00
   3.8416671e+00   8.9638899e+00   9.6041678e-01   5.4423618e+00  -3.5215282e+00   5.7625007e+00   5.7625007e+00   5.7625007e+00  -5.4423618e+00  -5.1222228e+00   4.1618060e+00   5.1222228e+00  -4.1618060e+00  -8.0034732e+00  -7.3631953e+00  -1.9208336e+00   5.1222228e+00   2.3370142e+01   8.3236121e+00  -8.9638899e+00   0.0000000e+00   0.0000000e+00   0.0000000e+00   0.0000000e+00
   5.1222228e+00   8.6437510e+00   9.6041678e-01   4.4819450e+00  -4.8020839e+00   6.4027785e+00   4.8020839e+00   4.4819450e+00  -5.4423618e+00  -7.6833342e+00   3.5215282e+00   3.2013893e+00  -3.8416671e+00  -1.0244446e+01  -8.0034732e+00  -1.6006946e+00   5.7625007e+00   2.4970836e+01   8.9638899e+00  -8.6437510e+00   0.0000000e+00   0.0000000e+00   0.0000000e+00   0.0000000e+00
   6.4027785e+00   8.0034732e+00   6.4027785e-01   4.1618060e+00  -5.7625007e+00   7.6833342e+00   4.4819450e+00   3.5215282e+00  -5.1222228e+00  -1.0564585e+01   3.2013893e+00   1.9208336e+00  -2.5611114e+00  -1.0564585e+01  -7.6833342e+00  -6.4027785e-01   7.3631953e+00   2.6251392e+01   9.9243067e+00  -7.3631953e+00   0.0000000e+00   0.0000000e+00   0.0000000e+00   0.0000000e+00
   6.4027785e+00   7.6833342e+00  -1.6006946e+00   4.1618060e+00  -6.7229175e+00   7.6833342e+00   4.1618060e+00   2.5611114e+00  -5.7625007e+00  -1.3445835e+01   2.5611114e+00   6.4027785e-01  -1.9208336e+00  -1.0564585e+01  -7.3631953e+00   0.0000000e+00   7.6833342e+00   2.6891670e+01   9.9243067e+00  -7.0430564e+00   0.0000000e+00   0.0000000e+00   0.0000000e+00   0.0000000e+00
